time	FP1	F3	F7	FC3	C3	C5	P3	P7	PO7	PO3	O1	Oz	Pz	CPz	FP2	Fz	F4	F8	FC4	FCz	Cz	C4	C6	P4	P8	PO8	PO4	O2	HEOG_left	HEOG_right
-199.2188	0.7356	-0.5166	-1.2305	0.0253	-0.0788	-0.2912	0.5054	0.3963	0.4221	1.0098	1.1336	0.9672	0.8056	0.1705	-0.5675	-0.1766	-0.1944	-0.4035	-0.4774	0.0383	-0.0061	-0.2051	-0.2688	0.5856	0.3754	0.7691	1.0108	1.1599	-0.2362	-0.7391
-195.3125	0.5253	-0.1624	-0.7494	0.2758	0.2247	0.0955	0.7592	0.5898	0.567	1.1782	1.1398	0.937	0.9305	0.3457	-0.4821	-0.0313	-0.1491	-0.356	-0.3489	0.1991	0.1688	-0.1232	-0.2034	0.5823	0.2946	0.6392	0.9986	0.9928	-0.1607	-0.5435
-191.4062	0.3319	0.1424	-0.309	0.4978	0.4991	0.4436	0.9805	0.7599	0.6902	1.3144	1.1327	0.8934	1.0334	0.4995	-0.3888	0.0979	-0.1189	-0.3165	-0.2316	0.3403	0.3244	-0.0447	-0.147	0.5727	0.21	0.5139	0.977	0.8322	-0.0966	-0.3657
-187.5	0.1662	0.3642	0.051	0.6691	0.72	0.7221	1.1423	0.8858	0.7763	1.3926	1.1011	0.8255	1.0977	0.6159	-0.2882	0.1994	-0.1104	-0.2877	-0.1335	0.4467	0.4455	0.0283	-0.1052	0.5547	0.1211	0.3983	0.9408	0.6823	-0.053	-0.2166
-183.5938	0.039	0.4842	0.3077	0.7755	0.8709	0.9105	1.2267	0.9545	0.8163	1.3981	1.0393	0.7285	1.1142	0.6863	-0.1835	0.267	-0.1245	-0.2673	-0.0611	0.51	0.5239	0.0942	-0.0803	0.5289	0.0307	0.2982	0.8888	0.5468	-0.0336	-0.102
-179.6875	-0.0402	0.502	0.4572	0.8125	0.945	1.0003	1.2274	0.9615	0.8083	1.3288	0.9479	0.6051	1.0819	0.7094	-0.0805	0.3002	-0.1552	-0.2492	-0.018	0.5295	0.5587	0.1517	-0.0715	0.4987	-0.0547	0.2191	0.8248	0.4282	-0.0357	-0.022
-175.7812	-0.0662	0.4337	0.5125	0.7856	0.9448	0.996	1.149	0.9106	0.7565	1.1941	0.8323	0.4648	1.007	0.6903	0.0133	0.3033	-0.1911	-0.226	-0.0038	0.5111	0.555	0.2001	-0.0748	0.4696	-0.1257	0.1654	0.7559	0.3284	-0.0519	0.0273
-171.875	-0.0413	0.3075	0.4974	0.7084	0.8806	0.9126	1.0052	0.8123	0.6691	1.0118	0.7009	0.3208	0.9004	0.6377	0.0897	0.2836	-0.2182	-0.1923	-0.0133	0.465	0.5213	0.2393	-0.084	0.4469	-0.1721	0.1389	0.6907	0.2487	-0.0733	0.0526
-167.9688	0.0218	0.1573	0.439	0.5994	0.7674	0.7721	0.8154	0.6805	0.5563	0.8034	0.5625	0.1874	0.7747	0.5611	0.1408	0.2492	-0.2239	-0.1479	-0.0379	0.4021	0.466	0.269	-0.0926	0.4341	-0.186	0.1385	0.6364	0.1891	-0.0926	0.061
-164.0625	0.1006	0.0155	0.3601	0.4773	0.6218	0.5986	0.601	0.5305	0.4292	0.59	0.4251	0.0772	0.6411	0.468	0.1608	0.2066	-0.201	-0.0979	-0.0669	0.3318	0.3953	0.2886	-0.0954	0.4313	-0.1646	0.1592	0.5959	0.1492	-0.1057	0.0585
-160.1562	0.1662	-0.0939	0.2753	0.3566	0.4582	0.413	0.3809	0.3758	0.2981	0.3889	0.2953	-0.0015	0.507	0.3627	0.1474	0.1592	-0.1506	-0.0519	-0.0915	0.2592	0.3121	0.2961	-0.0907	0.4333	-0.1125	0.1933	0.5666	0.1271	-0.1123	0.048
-156.25	0.1897	-0.1599	0.1905	0.244	0.2864	0.2289	0.169	0.2264	0.1719	0.2112	0.1777	-0.0457	0.3749	0.2452	0.1026	0.1066	-0.0834	-0.0211	-0.1073	0.1846	0.2157	0.2879	-0.0814	0.4305	-0.0413	0.2311	0.5393	0.1198	-0.115	0.0292
-152.3438	0.1502	-0.1867	0.105	0.1375	0.1106	0.0514	-0.0276	0.0876	0.0569	0.0612	0.075	-0.0577	0.2422	0.1123	0.0335	0.0449	-0.0179	-0.0158	-0.1171	0.1044	0.1026	0.2584	-0.0747	0.409	0.032	0.2622	0.4993	0.1224	-0.1174	-0.001
-148.4375	0.0413	-0.1913	0.0156	0.0284	-0.0689	-0.1215	-0.2076	-0.0395	-0.0429	-0.0624	-0.0111	-0.0442	0.1033	-0.0398	-0.0493	-0.0309	0.024	-0.0422	-0.1296	0.0132	-0.0301	0.2021	-0.0806	0.3539	0.0885	0.2769	0.4294	0.129	-0.1225	-0.0472
-144.5312	-0.1245	-0.1985	-0.0807	-0.0945	-0.2533	-0.2941	-0.373	-0.1566	-0.1252	-0.1642	-0.0794	-0.0145	-0.0476	-0.2123	-0.1327	-0.1242	0.0225	-0.1003	-0.1571	-0.0926	-0.1823	0.1161	-0.1088	0.2533	0.1125	0.2675	0.3149	0.1331	-0.1315	-0.1127
-140.625	-0.3177	-0.2334	-0.1845	-0.2388	-0.4409	-0.4679	-0.5255	-0.2659	-0.1894	-0.2494	-0.1291	0.0219	-0.2121	-0.4005	-0.2044	-0.2338	-0.0334	-0.1835	-0.21	-0.2116	-0.3476	0.0025	-0.1652	0.1023	0.0946	0.2297	0.1479	0.1281	-0.1436	-0.1975
-136.7188	-0.4981	-0.3129	-0.2947	-0.4042	-0.6248	-0.6378	-0.6629	-0.3684	-0.2348	-0.321	-0.1588	0.0566	-0.3855	-0.5917	-0.2547	-0.3524	-0.142	-0.2797	-0.2925	-0.3359	-0.5129	-0.1299	-0.2488	-0.0938	0.035	0.1633	-0.0681	0.1095	-0.1567	-0.2973
-132.8125	-0.6269	-0.4395	-0.4072	-0.5797	-0.7918	-0.7911	-0.778	-0.462	-0.2604	-0.3784	-0.1676	0.0839	-0.5549	-0.7655	-0.2774	-0.4664	-0.2884	-0.3741	-0.3993	-0.451	-0.6583	-0.2656	-0.3512	-0.3186	-0.0576	0.0732	-0.3168	0.0753	-0.1686	-0.4039
-128.9062	-0.6781	-0.5979	-0.5149	-0.7442	-0.9234	-0.9088	-0.8579	-0.5411	-0.2642	-0.4163	-0.1545	0.102	-0.7008	-0.8966	-0.2703	-0.558	-0.4467	-0.4525	-0.5152	-0.5382	-0.7608	-0.3839	-0.4567	-0.5456	-0.1671	-0.0314	-0.57	0.0276	-0.1778	-0.5067
-125	-0.6476	-0.7564	-0.6073	-0.8701	-0.9983	-0.9699	-0.8862	-0.5968	-0.2438	-0.4258	-0.1193	0.1127	-0.7997	-0.9591	-0.2339	-0.6079	-0.5853	-0.5037	-0.6168	-0.5777	-0.7983	-0.4627	-0.545	-0.7427	-0.2741	-0.1374	-0.7921	-0.0271	-0.1836	-0.5949
-121.0938	-0.5546	-0.8739	-0.6715	-0.9289	-0.9971	-0.9561	-0.8467	-0.618	-0.1966	-0.3962	-0.062	0.1211	-0.829	-0.9318	-0.1719	-0.5994	-0.6732	-0.521	-0.6779	-0.5533	-0.7538	-0.4828	-0.5955	-0.8774	-0.3601	-0.2304	-0.9469	-0.0791	-0.1859	-0.6587
-117.1875	-0.4345	-0.911	-0.6944	-0.8991	-0.9073	-0.858	-0.728	-0.5947	-0.1217	-0.3181	0.0163	0.1338	-0.7721	-0.8036	-0.0903	-0.5227	-0.6864	-0.5023	-0.6745	-0.4563	-0.6203	-0.432	-0.5908	-0.9237	-0.4102	-0.2969	-1.005	-0.1172	-0.184	-0.6906
-113.2812	-0.3267	-0.8417	-0.6661	-0.7722	-0.7274	-0.6789	-0.5285	-0.5205	-0.0213	-0.1877	0.1128	0.1571	-0.6237	-0.5769	0.0029	-0.3779	-0.6125	-0.4496	-0.5914	-0.2888	-0.403	-0.3087	-0.5215	-0.8676	-0.4165	-0.3274	-0.9518	-0.132	-0.1767	-0.6861
-109.375	-0.2609	-0.6622	-0.5834	-0.5571	-0.47	-0.4359	-0.26	-0.3968	0.0974	-0.0097	0.2215	0.1933	-0.3931	-0.27	0.098	-0.1767	-0.4531	-0.3676	-0.4267	-0.0651	-0.1206	-0.123	-0.388	-0.711	-0.3785	-0.319	-0.7913	-0.119	-0.1619	-0.6439
-105.4688	-0.2461	-0.3938	-0.4517	-0.2791	-0.1606	-0.1582	0.0515	-0.2345	0.2227	0.1998	0.3319	0.2395	-0.1044	0.085	0.1853	0.0583	-0.2241	-0.2637	-0.1929	0.1903	0.1974	0.104	-0.2017	-0.4726	-0.3029	-0.2762	-0.5473	-0.0811	-0.1378	-0.5659
-101.5625	-0.2676	-0.0787	-0.2849	0.0241	0.1654	0.1191	0.3681	-0.0536	0.3387	0.4142	0.4293	0.287	0.2058	0.4468	0.2561	0.2977	0.0474	-0.1467	0.0838	0.4461	0.5147	0.3437	0.0174	-0.1846	-0.2021	-0.2103	-0.2584	-0.0285	-0.1041	-0.4562
-97.6562	-0.2917	0.2306	-0.1031	0.3111	0.4696	0.362	0.6467	0.1197	0.4285	0.6004	0.4962	0.3228	0.4949	0.7717	0.3038	0.511	0.3272	-0.0267	0.3684	0.6707	0.7947	0.5651	0.244	0.1133	-0.0912	-0.1363	0.029	0.0235	-0.0629	-0.3216
-93.75	-0.2773	0.4854	0.0713	0.5459	0.7177	0.5442	0.8473	0.2589	0.4772	0.7244	0.5152	0.3333	0.7223	1.0216	0.3251	0.673	0.581	0.0857	0.6249	0.8383	1.007	0.7402	0.4522	0.3813	0.0149	-0.0698	0.271	0.0583	-0.0188	-0.1702
-89.8438	-0.1913	0.6526	0.2186	0.7052	0.8858	0.652	0.9406	0.3425	0.4747	0.7589	0.4733	0.3067	0.8563	1.1698	0.3205	0.7699	0.7803	0.1809	0.8235	0.9341	1.1322	0.8489	0.6199	0.5863	0.1034	-0.0227	0.4343	0.0625	0.023	-0.0113
-85.9375	-0.022	0.7228	0.3262	0.7824	0.9637	0.6857	0.9138	0.3589	0.4178	0.6894	0.3643	0.2369	0.88	1.2052	0.2946	0.8014	0.9084	0.2517	0.9462	0.9563	1.1651	0.8818	0.7326	0.7069	0.1657	-0.0021	0.501	0.0281	0.0573	0.1454
-82.0312	0.2148	0.71	0.3906	0.7865	0.9554	0.6575	0.773	0.3081	0.3107	0.5173	0.1915	0.124	0.7931	1.1326	0.2555	0.7796	0.9615	0.2943	0.9899	0.915	1.1129	0.8408	0.7846	0.7353	0.1978	-0.0096	0.4703	-0.0455	0.0815	0.2899
-78.125	0.4781	0.6445	0.4168	0.7373	0.8751	0.5868	0.5412	0.2007	0.1639	0.2602	-0.0322	-0.0249	0.6108	0.9697	0.2143	0.7237	0.9477	0.3091	0.9637	0.8276	0.993	0.7376	0.7793	0.6766	0.2003	-0.0419	0.3559	-0.1518	0.0957	0.4131
-74.2188	0.7137	0.5625	0.4153	0.6579	0.7432	0.4944	0.2531	0.0552	-0.0068	-0.0509	-0.2852	-0.1967	0.3598	0.7434	0.1821	0.6543	0.8819	0.3002	0.8851	0.7135	0.8272	0.5902	0.7267	0.5463	0.1781	-0.0921	0.1823	-0.2785	0.1029	0.5076
-70.3125	0.8708	0.4942	0.3972	0.568	0.5808	0.3977	-0.0506	-0.1056	-0.1825	-0.3772	-0.54	-0.3741	0.074	0.4841	0.1677	0.5862	0.7816	0.2754	0.7738	0.5887	0.6374	0.4197	0.6412	0.3672	0.139	-0.1506	-0.0209	-0.4091	0.1082	0.5687
-66.4062	0.9172	0.456	0.3712	0.4794	0.4058	0.3069	-0.3303	-0.2591	-0.3439	-0.6787	-0.7671	-0.5382	-0.2113	0.2217	0.1748	0.5254	0.6616	0.2439	0.6476	0.4628	0.4423	0.2465	0.5383	0.1657	0.0929	-0.2066	-0.2234	-0.5257	0.1166	0.595
-62.5	0.8493	0.4474	0.3415	0.3949	0.232	0.2256	-0.5531	-0.3854	-0.4742	-0.9202	-0.9399	-0.6709	-0.4637	-0.0185	0.201	0.4681	0.5322	0.2151	0.5196	0.3386	0.2554	0.0876	0.432	-0.0321	0.0497	-0.2494	-0.3986	-0.6114	0.1317	0.5889
-58.5938	0.692	0.4539	0.3091	0.3104	0.069	0.1525	-0.6967	-0.4696	-0.5607	-1.0767	-1.0389	-0.7574	-0.6578	-0.2174	0.2386	0.4039	0.3986	0.1964	0.3977	0.2138	0.0853	-0.0453	0.3336	-0.2029	0.0183	-0.2697	-0.5258	-0.6527	0.1543	0.5558
-54.6875	0.4892	0.4541	0.2731	0.2191	-0.0764	0.0851	-0.7516	-0.5032	-0.5972	-1.1363	-1.0549	-0.7883	-0.7774	-0.3635	0.2771	0.3208	0.2629	0.1926	0.2859	0.0843	-0.0635	-0.1462	0.2502	-0.3294	0.0051	-0.2612	-0.5923	-0.6412	0.1829	0.5035
-50.7812	0.2886	0.4289	0.2338	0.116	-0.1992	0.0222	-0.7211	-0.4853	-0.5837	-1.1012	-0.9905	-0.7605	-0.8176	-0.4531	0.306	0.2106	0.1267	0.2053	0.1853	-0.0529	-0.1898	-0.2145	0.1855	-0.4016	0.0131	-0.2219	-0.5939	-0.5753	0.2137	0.4409
-46.875	0.1269	0.3677	0.1932	0	-0.2966	-0.0361	-0.6211	-0.4229	-0.5271	-0.9871	-0.86	-0.6786	-0.7852	-0.4902	0.3163	0.0723	-0.0062	0.2328	0.0961	-0.1976	-0.2946	-0.2547	0.1395	-0.4184	0.0414	-0.1552	-0.5352	-0.4605	0.2423	0.3769
-42.9688	0.0206	0.2714	0.1541	-0.1261	-0.369	-0.0901	-0.4775	-0.3303	-0.4408	-0.8211	-0.6873	-0.5551	-0.6977	-0.4865	0.3021	-0.0867	-0.1293	0.2708	0.0184	-0.3468	-0.3821	-0.2746	0.1086	-0.3877	0.085	-0.0703	-0.4297	-0.3104	0.2634	0.3188
-39.0625	-0.0348	0.1502	0.118	-0.2567	-0.4212	-0.1426	-0.3232	-0.2281	-0.344	-0.6374	-0.5032	-0.4101	-0.5815	-0.4594	0.2603	-0.2533	-0.2338	0.3124	-0.0481	-0.495	-0.4585	-0.2845	0.0869	-0.3261	0.1353	0.018	-0.2991	-0.1462	0.2719	0.2713
-35.1562	-0.0581	0.0182	0.0835	-0.3854	-0.4613	-0.1995	-0.1928	-0.1388	-0.259	-0.4725	-0.3401	-0.2689	-0.4674	-0.4297	0.192	-0.4119	-0.3109	0.3494	-0.1033	-0.636	-0.5316	-0.2953	0.0661	-0.2562	0.1808	0.0915	-0.1709	0.0058	0.2641	0.236
-31.25	-0.0725	-0.1119	0.0467	-0.5062	-0.4986	-0.2673	-0.1164	-0.0828	-0.2084	-0.3585	-0.2269	-0.1577	-0.3845	-0.4169	0.1025	-0.5477	-0.3545	0.3739	-0.1472	-0.7633	-0.6081	-0.3164	0.0385	-0.202	0.2098	0.1318	-0.0743	0.1184	0.2381	0.2121
-27.3438	-0.0943	-0.2325	0.0048	-0.6133	-0.5398	-0.3501	-0.1131	-0.0737	-0.2101	-0.3175	-0.1838	-0.0986	-0.3546	-0.435	0.0021	-0.65	-0.3624	0.3802	-0.1796	-0.8707	-0.6909	-0.3536	-0.0019	-0.1843	0.2127	0.1247	-0.0347	0.1695	0.1963	0.1982
-23.4375	-0.1275	-0.3407	-0.041	-0.7016	-0.5869	-0.4457	-0.1879	-0.1146	-0.2738	-0.3573	-0.2187	-0.1049	-0.3877	-0.4896	-0.0961	-0.7128	-0.3375	0.366	-0.2004	-0.9523	-0.7776	-0.408	-0.0573	-0.2155	0.1852	0.064	-0.0678	0.1472	0.1447	0.193
-19.5312	-0.1628	-0.4362	-0.0836	-0.7661	-0.6359	-0.5449	-0.3302	-0.1984	-0.3981	-0.4711	-0.3269	-0.1792	-0.4798	-0.5767	-0.1779	-0.7352	-0.2872	0.3333	-0.2097	-1.0034	-0.8606	-0.4756	-0.125	-0.2968	0.1293	-0.0463	-0.1767	0.0523	0.0928	0.1971
-15.625	-0.1834	-0.5171	-0.1117	-0.8023	-0.679	-0.6323	-0.5179	-0.3097	-0.5708	-0.64	-0.4927	-0.3131	-0.6154	-0.6842	-0.2312	-0.7202	-0.2207	0.2883	-0.2077	-1.0211	-0.9292	-0.5481	-0.1981	-0.4174	0.0535	-0.1927	-0.3502	-0.102	0.0513	0.2127
-11.7188	-0.173	-0.5782	-0.1131	-0.8069	-0.707	-0.6904	-0.7222	-0.4282	-0.7712	-0.8379	-0.6934	-0.4895	-0.7708	-0.7954	-0.2483	-0.6735	-0.1471	0.2405	-0.1946	-1.0049	-0.9726	-0.6145	-0.2664	-0.5572	-0.0286	-0.3538	-0.5652	-0.2931	0.0298	0.2434
-7.8125	-0.1224	-0.6107	-0.0796	-0.7792	-0.7127	-0.7041	-0.9143	-0.5333	-0.9736	-1.0369	-0.9036	-0.6864	-0.9197	-0.8926	-0.2271	-0.6024	-0.0726	0.2012	-0.1705	-0.958	-0.9831	-0.6636	-0.3193	-0.6909	-0.101	-0.505	-0.7909	-0.494	0.0353	0.2921
-3.9062	-0.0346	-0.6063	-0.0109	-0.7216	-0.6937	-0.6654	-1.0708	-0.6075	-1.1522	-1.2127	-1.0996	-0.8807	-1.0385	-0.9611	-0.1709	-0.5155	0.0009	0.1813	-0.1351	-0.8864	-0.9585	-0.6867	-0.3476	-0.7938	-0.1493	-0.6229	-0.9946	-0.6777	0.0699	0.3593
0	0.0768	-0.5605	0.0839	-0.6409	-0.6539	-0.577	-1.1773	-0.6394	-1.2849	-1.3476	-1.2621	-1.0512	-1.1113	-0.9922	-0.0874	-0.4214	0.075	0.1885	-0.0881	-0.7993	-0.9033	-0.6796	-0.3466	-0.8472	-0.163	-0.6898	-1.1479	-0.8221	0.131	0.4409
3.9062	0.1913	-0.477	0.1872	-0.5478	-0.6029	-0.453	-1.2304	-0.6254	-1.3573	-1.4335	-1.3785	-1.1826	-1.1321	-0.9851	0.0135	-0.3294	0.1528	0.2255	-0.0304	-0.708	-0.8281	-0.6443	-0.3167	-0.8427	-0.139	-0.6976	-1.2321	-0.9135	0.2113	0.5282
7.8125	0.2892	-0.3686	0.2777	-0.4562	-0.555	-0.3177	-1.2368	-0.5713	-1.3648	-1.4712	-1.444	-1.2668	-1.1063	-0.9467	0.1207	-0.2483	0.2368	0.289	0.0356	-0.624	-0.7478	-0.5889	-0.2641	-0.7844	-0.082	-0.6497	-1.2422	-0.9487	0.3	0.6086
11.7188	0.3577	-0.2549	0.3361	-0.3806	-0.5264	-0.2006	-1.2116	-0.491	-1.3139	-1.4703	-1.4619	-1.3047	-1.0486	-0.8906	0.223	-0.1853	0.327	0.3706	0.1054	-0.5575	-0.6782	-0.5265	-0.1992	-0.6882	-0.0047	-0.5611	-1.188	-0.9359	0.3849	0.6687
15.625	0.395	-0.1566	0.3505	-0.3335	-0.5307	-0.13	-1.1739	-0.4048	-1.2211	-1.4461	-1.4424	-1.305	-0.9801	-0.8339	0.3099	-0.1446	0.42	0.4584	0.1724	-0.5151	-0.6332	-0.4723	-0.1342	-0.5784	0.075	-0.4557	-1.0925	-0.8928	0.4553	0.6978
19.5312	0.4086	-0.0893	0.3199	-0.3218	-0.5762	-0.1254	-1.1433	-0.3346	-1.1103	-1.4165	-1.4008	-1.2824	-0.923	-0.7932	0.3729	-0.1256	0.5108	0.54	0.23	-0.4978	-0.6209	-0.4402	-0.0806	-0.4824	0.1375	-0.3609	-0.9873	-0.8425	0.5039	0.6912
23.4375	0.4119	-0.0575	0.2546	-0.3441	-0.6621	-0.1911	-1.1349	-0.3	-1.008	-1.3976	-1.3541	-1.2534	-0.8953	-0.7805	0.4064	-0.1218	0.5944	0.6049	0.2731	-0.5005	-0.6418	-0.4391	-0.0465	-0.4248	0.1657	-0.3012	-0.9053	-0.8075	0.5293	0.6523
27.3438	0.4173	-0.053	0.1739	-0.39	-0.7785	-0.3141	-1.157	-0.3125	-0.9372	-1.4008	-1.3173	-1.233	-0.9072	-0.8011	0.4094	-0.1223	0.6681	0.647	0.2996	-0.5132	-0.6891	-0.4708	-0.0352	-0.4215	0.1496	-0.2923	-0.8735	-0.8047	0.5359	0.592
31.25	0.4326	-0.0577	0.1016	-0.4426	-0.9081	-0.4674	-1.2096	-0.3737	-0.9126	-1.4308	-1.301	-1.2311	-0.9591	-0.8529	0.3858	-0.1135	0.7318	0.6649	0.311	-0.5235	-0.7509	-0.5291	-0.0446	-0.477	0.088	-0.3368	-0.9066	-0.841	0.5329	0.5267
35.1562	0.4588	-0.0504	0.0586	-0.4838	-1.0318	-0.6185	-1.2867	-0.4745	-0.9382	-1.4865	-1.311	-1.2523	-1.0432	-0.9283	0.344	-0.084	0.7865	0.6613	0.311	-0.5212	-0.8142	-0.602	-0.069	-0.5829	-0.0104	-0.4239	-1.0037	-0.9122	0.531	0.4733
39.0625	0.4909	-0.0153	0.0568	-0.5006	-1.1345	-0.7395	-1.3786	-0.5978	-1.0068	-1.563	-1.3491	-1.2961	-1.1473	-1.0172	0.2952	-0.0288	0.8319	0.6409	0.3032	-0.5022	-0.8696	-0.6748	-0.1015	-0.7207	-0.1291	-0.5321	-1.1489	-1.0055	0.5387	0.445
42.9688	0.5207	0.0506	0.0944	-0.4911	-1.2099	-0.8158	-1.4767	-0.7222	-1.1027	-1.6548	-1.4148	-1.3598	-1.259	-1.1116	0.2515	0.0476	0.8641	0.6077	0.2889	-0.4718	-0.915	-0.7352	-0.1363	-0.8658	-0.2473	-0.6346	-1.315	-1.1034	0.5589	0.4468
46.875	0.5395	0.1342	0.1549	-0.4657	-1.2626	-0.8493	-1.575	-0.8264	-1.2052	-1.757	-1.5069	-1.4401	-1.3693	-1.2071	0.2227	0.1301	0.8754	0.5636	0.2662	-0.4441	-0.956	-0.776	-0.171	-0.9928	-0.344	-0.7054	-1.4696	-1.1885	0.5873	0.4747
50.7812	0.5406	0.2094	0.2107	-0.4456	-1.3062	-0.8568	-1.6708	-0.8927	-1.2916	-1.8654	-1.6228	-1.5336	-1.4738	-1.3042	0.213	0.1961	0.8557	0.5073	0.23	-0.4394	-1.0048	-0.7981	-0.2078	-1.0802	-0.402	-0.7237	-1.5812	-1.2466	0.6127	0.5154
54.6875	0.5185	0.2435	0.229	-0.4567	-1.3589	-0.8633	-1.763	-0.9083	-1.3403	-1.9742	-1.7566	-1.6355	-1.5722	-1.4072	0.2181	0.2195	0.7952	0.4343	0.1737	-0.4796	-1.0763	-0.8092	-0.2532	-1.1139	-0.4106	-0.6772	-1.6246	-1.2677	0.6186	0.5493
58.5938	0.4668	0.2062	0.179	-0.5232	-1.438	-0.895	-1.8497	-0.8666	-1.3328	-2.0741	-1.8967	-1.7376	-1.6664	-1.5224	0.2237	0.1767	0.686	0.3367	0.0906	-0.583	-1.1848	-0.8234	-0.317	-1.0897	-0.3679	-0.5624	-1.5845	-1.2454	0.586	0.5534
62.5	0.3748	0.0777	0.0392	-0.6614	-1.5558	-0.9722	-1.9259	-0.7667	-1.2546	-2.1498	-2.0242	-1.8265	-1.7579	-1.6555	0.2068	0.0505	0.5243	0.2043	-0.0255	-0.7609	-1.3408	-0.858	-0.4106	-1.0135	-0.2803	-0.3837	-1.4575	-1.1763	0.4966	0.505
66.4062	0.2268	-0.1471	-0.1986	-0.8767	-1.7171	-1.1059	-1.9828	-0.6134	-1.0968	-2.1814	-2.1131	-1.8836	-1.8459	-1.8108	0.1403	-0.1667	0.3097	0.0266	-0.1794	-1.016	-1.5494	-0.9316	-0.5453	-0.901	-0.1621	-0.1528	-1.2524	-1.0583	0.3364	0.3849
70.3125	0.0053	-0.4585	-0.5274	-1.1628	-1.9186	-1.2957	-2.008	-0.4167	-0.8575	-2.146	-2.1333	-1.8868	-1.9266	-1.9886	-0.0004	-0.472	0.0443	-0.2039	-0.3755	-1.3427	-1.8101	-1.0606	-0.7305	-0.7749	-0.0322	0.113	-0.9883	-0.8913	0.0985	0.1806
74.2188	-0.3015	-0.8363	-0.9271	-1.5037	-2.1496	-1.5311	-1.9874	-0.192	-0.5433	-2.0219	-2.0546	-1.8133	-1.9922	-2.185	-0.2302	-0.8532	-0.2684	-0.4888	-0.617	-1.7284	-2.1165	-1.2565	-0.9712	-0.6601	0.0892	0.3929	-0.6908	-0.6773	-0.2138	-0.1108
78.125	-0.6902	-1.2546	-1.3678	-1.8767	-2.3941	-1.793	-1.9076	0.0409	-0.1706	-1.792	-1.8522	-1.6439	-2.0308	-2.3899	-0.5485	-1.2894	-0.6231	-0.8203	-0.9043	-2.1541	-2.4557	-1.522	-1.2657	-0.5778	0.1853	0.6646	-0.3872	-0.4212	-0.5867	-0.481
82.0312	-1.136	-1.6862	-1.8137	-2.2551	-2.6316	-2.0569	-1.7573	0.259	0.2348	-1.4468	-1.5111	-1.3652	-2.0258	-2.5853	-0.9371	-1.7526	-1.0097	-1.1798	-1.2309	-2.5953	-2.8079	-1.8476	-1.6023	-0.5389	0.2469	0.9074	-0.0995	-0.1303	-0.9945	-0.9086
85.9375	-1.5915	-2.1038	-2.2255	-2.6096	-2.8373	-2.2946	-1.5279	0.4373	0.6388	-0.9867	-1.0291	-0.9721	-1.9559	-2.7445	-1.3599	-2.2076	-1.4099	-1.5379	-1.5794	-3.0199	-3.144	-2.208	-1.9572	-0.5386	0.2751	1.106	0.1609	0.1867	-1.4011	-1.359
89.8438	-1.9922	-2.4777	-2.5619	-2.9079	-2.9811	-2.4751	-1.214	0.5516	1.0026	-0.4213	-0.4178	-0.4673	-1.7948	-2.8316	-1.7666	-2.6115	-1.7927	-1.8557	-1.9174	-3.3873	-3.425	-2.5612	-2.2934	-0.554	0.2819	1.2529	0.397	0.5221	-1.7612	-1.7859
93.75	-2.2686	-2.7729	-2.7807	-3.1134	-3.0285	-2.5657	-0.8126	0.581	1.2867	0.231	0.2983	0.1391	-1.5134	-2.8033	-2.0973	-2.9145	-2.113	-2.0886	-2.1976	-3.6479	-3.6025	-2.8498	-2.562	-0.5461	0.2877	1.3512	0.6261	0.8712	-2.0232	-2.1346
97.6562	-2.3586	-2.947	-2.841	-3.1853	-2.9416	-2.5337	-0.3239	0.5103	1.456	0.9441	1.0845	0.8304	-1.0833	-2.6142	-2.2906	-3.0621	-2.3134	-2.1907	-2.3601	-3.7454	-3.6218	-3.0067	-2.7067	-0.4659	0.3172	1.4126	0.8759	1.2332	-2.1341	-2.3485
101.5625	-2.2194	-2.9519	-2.7072	-3.0812	-2.6845	-2.3497	0.2474	0.3316	1.4838	1.6862	1.8983	1.5841	-0.4832	-2.2238	-2.2914	-3.0005	-2.3302	-2.1204	-2.3411	-3.6228	-3.4291	-2.9648	-2.6717	-0.2641	0.3928	1.4546	1.1761	1.6091	-2.0465	-2.3772
105.4688	-1.8356	-2.7409	-2.3541	-2.7634	-2.2302	-1.9925	0.8889	0.0456	1.3546	2.4199	2.6926	2.3714	0.295	-1.6051	-2.0591	-2.6844	-2.1047	-1.8467	-2.0836	-3.2314	-2.98	-2.6684	-2.4108	0.0972	0.5284	1.4943	1.5494	1.9984	-1.7263	-2.1857
109.375	-1.2216	-2.2799	-1.7738	-2.208	-1.5683	-1.4549	1.5782	-0.3383	1.0654	3.1039	3.4187	3.1565	1.2387	-0.7534	-1.5753	-2.0864	-1.5958	-1.3548	-1.5505	-2.5416	-2.2504	-2.0857	-1.8985	0.6337	0.7249	1.5426	2.0012	2.3945	-1.1606	-1.7608
113.2812	-0.4179	-1.5592	-0.9802	-1.4143	-0.712	-0.7494	2.2803	-0.8027	0.6249	3.694	4.0288	3.8976	2.3112	0.3077	-0.8485	-1.207	-0.7934	-0.6516	-0.7353	-1.5542	-1.2459	-1.2184	-1.138	1.3319	0.9675	1.5997	2.5143	2.7816	-0.3634	-1.1157
117.1875	0.5167	-0.603	-0.0116	-0.4116	0.2977	0.0889	2.9481	-1.324	0.0518	4.1451	4.4799	4.5485	3.4497	1.5237	0.0832	-0.0801	0.2736	0.2319	0.3303	-0.3068	-0.0075	-0.1067	-0.1656	2.1471	1.2276	1.6541	3.0478	3.134	0.6219	-0.2897
121.0938	1.5144	0.5274	1.0707	0.7389	1.3937	1.0031	3.5252	-1.8752	-0.6267	4.4153	4.7367	5.0623	4.5707	2.8121	1.1542	1.2249	1.5358	1.2422	1.5773	1.1246	1.388	1.1723	0.9505	3.0076	1.4669	1.6845	3.5427	3.4181	1.7258	0.6567
125	2.5073	1.7398	2.1887	1.9493	2.4899	1.9203	3.9523	-2.4275	-1.3768	4.4707	4.7759	5.3963	5.578	4.071	2.2786	2.6095	2.8904	2.3084	2.9065	2.6323	2.8349	2.5141	2.1185	3.8253	1.6453	1.6654	3.932	3.5981	2.8603	1.6499
128.9062	3.4335	2.9251	3.257	3.1163	3.4923	2.7617	4.1765	-2.9532	-2.159	4.2915	4.5891	5.5177	6.3766	5.1916	3.36	3.9579	4.2165	3.3511	4.2022	4.0902	4.2118	3.8003	3.235	4.5102	1.7279	1.5738	4.1536	3.6422	3.9313	2.6131
132.8125	4.2399	3.9756	4.1939	4.1367	4.3132	3.4544	4.1608	-3.4263	-2.9297	3.8771	4.1858	5.4093	6.8864	6.0739	4.3058	5.1532	5.3936	4.2923	5.3499	5.3723	5.3985	4.9168	4.2005	4.9852	1.6931	1.3959	4.1633	3.5299	4.8512	3.4759
136.7188	4.8834	4.8024	4.9309	4.9221	4.8843	3.9423	3.893	-3.8233	-3.6431	3.2492	3.5936	5.0723	7.0557	6.6409	5.0386	6.094	6.3205	5.0647	6.2528	6.3703	6.2934	5.7695	4.933	5.1996	1.5373	1.1321	3.9438	3.2573	5.5504	4.1809
140.625	5.3309	5.3473	5.4192	5.4113	5.1657	4.1939	3.3899	-4.1238	-4.2537	2.4522	2.8564	4.5286	6.8688	6.8492	5.506	6.7072	6.928	5.6175	6.8449	7.0087	6.8271	6.2965	5.3783	5.1364	1.2761	0.7999	3.5094	2.84	5.9844	4.6878
144.5312	5.5596	5.5874	5.6329	5.5768	5.1492	4.2045	2.697	-4.3108	-4.7203	1.5494	2.0304	3.8184	6.3483	6.694	5.6849	6.9555	7.1859	5.92	7.0967	7.2524	6.9696	6.4738	5.5149	4.8143	0.9425	0.4328	2.9037	2.312	6.1356	4.9738
148.4375	5.5577	5.531	5.5698	5.4243	4.8566	3.9941	1.8826	-4.372	-5.0097	0.6164	1.1776	2.9956	5.5505	6.2075	5.5807	6.838	7.1004	5.9618	7.0143	7.1072	6.7308	6.3137	5.353	4.2823	0.5811	0.0752	2.1924	1.721	6.0117	5.033
152.3438	5.3268	5.2092	5.2491	4.9869	4.332	3.6003	1.0284	-4.3011	-5.1	-0.2674	0.3594	2.1214	4.5552	5.4509	5.2223	6.3847	6.7069	5.751	6.6319	6.6128	6.1548	5.8583	4.9291	3.6102	0.2399	-0.2251	1.4519	1.1206	5.6398	4.8734
156.25	4.8823	4.6645	4.7064	4.3158	3.6321	3.0698	0.2171	-4.0987	-4.9834	-1.0285	-0.3699	1.2567	3.4526	4.5034	4.6555	5.6473	6.0582	5.3111	6.0013	5.8316	5.3091	5.1688	4.2975	2.8761	-0.0377	-0.4248	0.7566	0.5627	5.0607	4.5141
160.1562	4.2545	3.9403	3.9877	3.469	2.8159	2.4489	-0.4782	-3.7731	-4.6665	-1.6074	-0.9678	0.4562	2.33	3.4488	3.9351	4.6883	5.2129	4.6766	5.18	4.8359	4.272	4.3136	3.52	2.1535	-0.2196	-0.4927	0.168	0.0896	4.3228	3.9827
164.0625	3.4861	3.075	3.1433	2.5022	1.9362	1.7776	-1.0035	-3.3399	-4.1701	-1.9645	-1.4065	-0.2367	1.2615	2.3638	3.1178	3.5715	4.2254	3.889	4.2223	3.6963	3.1208	3.3586	2.6577	1.5012	-0.2889	-0.4139	-0.2735	-0.2697	3.4767	3.3117
167.9688	2.6281	2.0999	2.2231	1.4631	1.0347	1.0856	-1.3285	-2.8219	-3.5267	-2.0831	-1.6736	-0.7924	0.3009	1.31	2.2567	2.3552	3.142	2.9933	3.1746	2.4742	1.9229	2.3596	1.7638	0.9579	-0.2449	-0.1921	-0.551	-0.5018	2.5712	2.537
171.875	1.7339	1.0434	1.2739	0.3898	0.1416	0.3937	-1.4472	-2.2469	-2.7769	-1.9683	-1.7706	-1.1962	-0.5195	0.3304	1.3958	1.0903	2.0003	2.0357	2.0749	1.2191	0.7315	1.3596	0.8805	0.5405	-0.1006	0.152	-0.6697	-0.6079	1.6509	1.6959
175.7812	0.8542	-0.064	0.339	-0.686	-0.7218	-0.2826	-1.3744	-1.6457	-1.9655	-1.6438	-1.7101	-1.4466	-1.1866	-0.5496	0.5688	-0.1785	0.8334	1.0621	0.956	-0.03	-0.4147	0.3893	0.0383	0.2475	0.1209	0.5842	-0.6507	-0.6012	0.7549	0.8265
179.6875	0.0314	-1.1836	-0.5422	-1.7351	-1.5382	-0.9286	-1.139	-1.0493	-1.1359	-1.1452	-1.5118	-1.5528	-1.7004	-1.3177	-0.2014	-1.4103	-0.3235	0.1174	-0.1499	-1.2402	-1.488	-0.5288	-0.7415	0.0658	0.3914	1.063	-0.5227	-0.502	-0.0833	-0.0326
183.5938	-0.7027	-2.2669	-1.3338	-2.7265	-2.2904	-1.5263	-0.7763	-0.4858	-0.3257	-0.5139	-1.1985	-1.5302	-2.068	-1.9685	-0.9004	-2.5649	-1.4298	-0.7563	-1.2073	-2.3805	-2.4669	-1.3773	-1.4446	-0.0225	0.6817	1.5461	-0.3142	-0.3334	-0.8351	-0.8438
187.5	-1.3277	-3.2575	-2.0044	-3.6258	-2.959	-2.0535	-0.3222	0.022	0.4361	0.2089	-0.7929	-1.3967	-2.2982	-2.4988	-1.5195	-3.6034	-2.4385	-1.5219	-2.1772	-3.4194	-3.3332	-2.1402	-2.0605	-0.0344	0.9662	1.9964	-0.0477	-0.1164	-1.4772	-1.5719
191.4062	-1.8323	-4.0985	-2.5296	-4.3971	-3.5233	-2.4865	0.1915	0.4589	1.1304	0.9861	-0.3161	-1.1702	-2.3984	-2.9051	-2.0526	-4.4899	-3.3006	-2.1511	-3.0193	-4.3261	-4.0699	-2.8016	-2.5813	0.0184	1.2245	2.3873	0.263	0.1327	-1.9919	-2.1868
195.3125	-2.2111	-4.7412	-2.8956	-5.0073	-3.9638	-2.8038	0.7385	0.8181	1.7464	1.7861	0.2126	-0.8666	-2.3732	-3.1827	-2.4954	-5.1956	-3.9732	-2.6274	-3.6978	-5.0728	-4.6623	-3.3465	-3.0011	0.1295	1.4435	2.7041	0.612	0.4037	-2.3681	-2.6662
199.2188	-2.4618	-5.1536	-3.101	-5.4322	-4.2665	-2.9913	1.2977	1.1011	2.2784	2.5825	0.7745	-0.5002	-2.2261	-3.3279	-2.8442	-5.703	-4.4271	-2.9472	-4.1871	-5.64	-5.1	-3.7619	-3.3155	0.2966	1.6172	2.9441	0.9984	0.6918	-2.6024	-2.9967
203.125	-2.583	-5.3273	-3.1577	-5.6618	-4.4257	-3.0456	1.8512	1.3157	2.7227	3.3522	1.351	-0.0851	-1.9611	-3.3399	-3.0958	-6.0092	-4.6535	-3.1186	-4.4771	-6.0197	-5.3794	-4.0396	-3.523	0.5191	1.7455	3.1139	1.4215	0.995	-2.699	-3.175
207.0312	-2.5755	-5.2796	-3.0879	-5.703	-4.4467	-2.9759	2.3826	1.4735	3.0748	4.0737	1.9216	0.3633	-1.5854	-3.2235	-3.247	-6.1262	-4.6661	-3.1582	-4.5756	-6.2176	-5.5055	-4.1773	-3.6251	0.794	1.8326	3.2251	1.8769	1.3105	-2.6688	-3.2073
210.9375	-2.4442	-5.0504	-2.919	-5.5795	-4.3455	-2.8023	2.8751	1.5863	3.3294	4.7258	2.4646	0.8265	-1.1121	-2.9907	-3.2946	-6.0794	-4.4992	-3.0871	-4.5074	-6.2532	-5.4922	-4.1804	-3.6271	1.1145	1.8847	3.2898	2.3534	1.6319	-2.5287	-3.108
214.8438	-2.1997	-4.6953	-2.6781	-5.3284	-4.147	-2.553	3.3119	1.6632	3.4813	5.2875	2.9573	1.2831	-0.5607	-2.6606	-3.2364	-5.9032	-4.2013	-2.9269	-4.31	-6.1558	-5.3612	-4.0614	-3.5389	1.4683	1.9088	3.3173	2.8328	1.9475	-2.2992	-2.8975
218.75	-1.8611	-4.2747	-2.3876	-4.9939	-3.8821	-2.2607	3.6765	1.7097	3.5278	5.7394	3.378	1.71	0.0421	-2.2589	-3.0732	-5.6357	-3.8264	-2.6976	-4.027	-5.9604	-5.1385	-3.8389	-3.3743	1.838	1.9105	3.3124	3.2905	2.241	-2.0031	-2.6003
222.6562	-1.4563	-3.8418	-2.0639	-4.6204	-3.5834	-1.9583	3.9547	1.7275	3.4707	6.0653	3.7085	2.0854	0.6646	-1.8146	-2.8118	-5.3126	-3.4249	-2.4166	-3.7002	-5.7014	-4.8519	-3.5361	-3.1503	2.2028	1.8941	3.2761	3.699	2.4939	-1.6638	-2.2433
226.5625	-1.0207	-3.4328	-1.718	-4.2458	-3.2818	-1.6757	4.136	1.7158	3.3188	6.2552	3.936	2.3911	1.2727	-1.3583	-2.4679	-4.963	-3.0361	-2.099	-3.3638	-5.408	-4.5274	-3.178	-2.8858	2.5407	1.8618	3.2077	4.0316	2.6891	-1.3039	-1.854
230.4688	-0.5936	-3.0623	-1.359	-3.8971	-3.0026	-1.4356	4.2155	1.6739	3.0876	6.3066	4.0552	2.615	1.8327	-0.9185	-2.0664	-4.6072	-2.6832	-1.7593	-3.0398	-5.1019	-4.1881	-2.7898	-2.5996	2.8309	1.8144	3.1074	4.2657	2.814	-0.9448	-1.4588
234.375	-0.2128	-2.7258	-0.9973	-3.5884	-2.7637	-1.2518	4.1942	1.6031	2.7993	6.2255	4.0686	2.7519	2.3147	-0.5197	-1.64	-4.257	-2.3731	-1.4119	-2.7384	-4.7965	-3.8528	-2.3949	-2.3096	3.0561	1.7519	2.9788	4.3863	2.8627	-0.6058	-1.0812
238.2812	0.0917	-2.408	-0.6474	-3.323	-2.574	-1.128	4.0795	1.5083	2.4803	6.0261	3.9864	2.8037	2.6944	-0.1811	-1.2246	-3.9178	-2.0994	-1.0727	-2.4598	-4.4993	-3.5371	-2.014	-2.0316	3.2046	1.6752	2.8296	4.3882	2.8365	-0.3035	-0.7413
242.1875	0.3022	-2.094	-0.3282	-3.0965	-2.4346	-1.0589	3.8843	1.3989	2.1587	5.7297	3.825	2.7779	2.9559	0.0844	-0.8543	-3.5917	-1.8475	-0.7577	-2.1994	-4.214	-3.2532	-1.6646	-1.7786	3.2715	1.5868	2.6716	4.2766	2.7439	-0.0514	-0.454
246.0938	0.4157	-1.7782	-0.061	-2.9011	-2.3399	-1.032	3.6258	1.2879	1.8615	5.3627	3.6053	2.6867	3.0921	0.2705	-0.5567	-3.28	-1.6013	-0.4823	-1.9514	-3.9436	-3.0108	-1.3598	-1.5607	3.2596	1.4924	2.5187	4.0667	2.5989	0.1403	-0.2293
250	0.4441	-1.4683	0.1351	-2.7286	-2.2797	-1.0302	3.3242	1.1903	1.6114	4.9547	3.3509	2.5453	3.106	0.378	-0.3502	-2.9849	-1.3486	-0.2587	-1.7128	-3.6913	-2.8165	-1.1086	-1.3847	3.179	1.4014	2.3862	3.7829	2.42	0.2654	-0.0721
253.9062	0.4106	-1.1831	0.2476	-2.5729	-2.2418	-1.0354	3.0021	1.1204	1.4256	4.5366	3.0861	2.3718	3.011	0.4144	-0.2435	-2.71	-1.085	-0.0941	-1.4848	-3.4609	-2.6731	-0.9152	-1.2535	3.0467	1.3255	2.2875	3.4566	2.2284	0.3211	0.0165
257.8125	0.3445	-0.9458	0.2749	-2.4314	-2.2141	-1.0322	2.6819	1.0895	1.314	4.1385	2.8344	2.1851	2.8298	0.3929	-0.2368	-2.4604	-0.8158	0.0095	-1.2739	-3.2562	-2.5789	-0.7796	-1.1669	2.8843	1.2775	2.233	3.1232	2.046	0.3077	0.0383
261.7188	0.2725	-0.7772	0.2261	-2.3059	-2.1875	-1.0113	2.3851	1.1042	1.2785	3.7879	2.6172	2.0049	2.5927	0.3308	-0.3238	-2.2424	-0.5554	0.0545	-1.0906	-3.0812	-2.5287	-0.6984	-1.1216	2.7158	1.2674	2.2283	2.8197	1.8935	0.2279	-0.0042
265.625	0.211	-0.6891	0.1181	-2.2022	-2.1568	-0.9711	2.1308	1.1651	1.3143	3.508	2.4527	1.8509	2.3344	0.2475	-0.4926	-2.0629	-0.3258	0.0455	-0.9483	-2.9393	-2.5141	-0.6663	-1.1129	2.5651	1.301	2.2738	2.5804	1.7896	0.0858	-0.108
269.5312	0.1611	-0.6819	-0.0294	-2.1286	-2.1209	-0.9174	1.9349	1.2681	1.4114	3.3175	2.3567	1.7427	2.0915	0.1618	-0.7279	-1.9293	-0.1525	-0.014	-0.8605	-2.8336	-2.5258	-0.6769	-1.1352	2.4532	1.378	2.3665	2.4355	1.7495	-0.1136	-0.271
273.4375	0.1072	-0.7459	-0.1998	-2.0941	-2.0826	-0.8617	1.8097	1.4051	1.5581	3.2296	2.3416	1.6995	1.8976	0.09	-1.0116	-1.8487	-0.0599	-0.1232	-0.8388	-2.7668	-2.5544	-0.7236	-1.1836	2.3966	1.4931	2.5014	2.4073	1.7846	-0.3646	-0.4909
277.3438	0.0224	-0.8649	-0.383	-2.1061	-2.0471	-0.8182	1.7627	1.5658	1.7422	3.2514	2.4162	1.7376	1.7803	0.044	-1.3248	-1.8275	-0.0654	-0.285	-0.8897	-2.7406	-2.5924	-0.8002	-1.2539	2.406	1.6376	2.6734	2.5087	1.9017	-0.6603	-0.7644
281.25	-0.1225	-1.021	-0.5761	-2.1687	-2.0209	-0.801	1.7961	1.7391	1.9529	3.3829	2.5833	1.8684	1.7575	0.0305	-1.6499	-1.8691	-0.1748	-0.5031	-1.0125	-2.7555	-2.6342	-0.9011	-1.343	2.4853	1.8026	2.8783	2.7415	2.1014	-0.9925	-1.086
285.1562	-0.3493	-1.1985	-0.7805	-2.2804	-2.0104	-0.8215	1.9052	1.9139	2.1796	3.6158	2.8375	2.0943	1.8361	0.051	-1.972	-1.9726	-0.3797	-0.7784	-1.198	-2.8092	-2.6768	-1.0201	-1.4475	2.6318	1.9803	3.1127	3.0956	2.3778	-1.3501	-1.4459
289.0625	-0.6625	-1.3862	-0.9975	-2.4339	-2.0197	-0.8852	2.0787	2.0798	2.4108	3.9319	3.1633	2.4061	2.0107	0.1026	-2.2788	-2.1312	-0.658	-1.104	-1.4282	-2.8952	-2.7175	-1.1499	-1.5627	2.8362	2.1657	3.3716	3.5487	2.7163	-1.7186	-1.8292
292.9688	-1.0446	-1.5771	-1.2237	-2.6156	-2.0494	-0.99	2.2978	2.226	2.632	4.3032	3.5338	2.7809	2.2646	0.1797	-2.56	-2.3312	-0.9777	-1.4616	-1.6784	-3.0026	-2.7538	-1.2819	-1.6816	3.0833	2.3551	3.6454	4.0665	3.0925	-2.0803	-2.2154
296.875	-1.4575	-1.7677	-1.4488	-2.8069	-2.0963	-1.1262	2.5373	2.3407	2.8232	4.6915	3.911	3.1814	2.5704	0.2745	-2.806	-2.5535	-1.3029	-1.8219	-1.9215	-3.1166	-2.7819	-1.4061	-1.795	3.3509	2.5431	3.9152	4.6018	3.4707	-2.4159	-2.58
300.7812	-1.8501	-1.955	-1.6565	-2.9866	-2.154	-1.2775	2.7664	2.4099	2.9588	5.05	4.248	3.5584	2.8921	0.377	-3.0079	-2.7763	-1.6005	-2.148	-2.132	-3.2211	-2.7977	-1.5127	-1.8931	3.6096	2.7189	4.1504	5.096	3.8051	-2.7076	-2.8969
304.6875	-2.1699	-2.1349	-1.8287	-3.1337	-2.2144	-1.4245	2.9506	2.4181	3.0092	5.3277	4.4939	3.8564	3.1876	0.4751	-3.1581	-2.9778	-1.8438	-2.4025	-2.2907	-3.3009	-2.798	-1.5936	-1.9667	3.8234	2.8644	4.3093	5.482	4.0431	-2.9422	-3.1421
308.5938	-2.3759	-2.2985	-1.9499	-3.2299	-2.2692	-1.5481	3.0559	2.3509	2.9453	5.475	4.6011	4.0213	3.4134	0.5553	-3.2526	-3.1389	-2.0156	-2.5549	-2.3863	-3.3445	-2.7811	-1.6441	-2.0095	3.9533	2.9543	4.3444	5.6919	4.1335	-3.1132	-3.2975
312.5	-2.4467	-2.4319	-2.0099	-3.2611	-2.3115	-1.634	3.0531	2.1986	2.7453	5.4515	4.5338	4.0102	3.5306	0.6039	-3.2918	-3.2447	-2.1068	-2.5875	-2.4153	-3.3449	-2.7473	-1.6625	-2.0178	3.9629	2.9606	4.2114	5.6675	4.0352	-3.2213	-3.3532
316.4062	-2.3836	-2.5164	-2.0052	-3.2193	-2.3365	-1.6751	2.9234	1.9603	2.4007	5.2339	4.2756	3.7998	3.5112	0.6095	-3.2813	-3.2851	-2.1157	-2.499	-2.3804	-3.3	-2.6987	-1.6508	-1.9913	3.8256	2.8587	3.8808	5.3723	3.7269	-3.2725	-3.309
320.3125	-2.2074	-2.5329	-1.9379	-3.1032	-2.3422	-1.673	2.6624	1.6469	1.9213	4.8211	3.8339	3.3916	3.3431	0.5654	-3.2297	-3.2559	-2.0468	-2.3039	-2.2892	-3.2114	-2.638	-1.6137	-1.9326	3.5312	2.6338	3.3464	4.8009	3.2131	-3.2758	-3.1744
324.2188	-1.9513	-2.4687	-1.8142	-2.9198	-2.3306	-1.6375	2.2815	1.2806	1.3364	4.237	3.2411	2.8131	3.033	0.4712	-3.1466	-3.1588	-1.9109	-2.0299	-2.1532	-3.0848	-2.5687	-1.5586	-1.8473	3.0897	2.2861	2.6305	3.9845	2.5259	-3.2405	-2.9672
328.125	-1.6533	-2.3238	-1.6447	-2.6854	-2.3075	-1.5851	1.8079	0.8933	0.6925	3.528	2.5505	2.1146	2.6059	0.3325	-3.04	-3.0038	-1.7258	-1.713	-1.9885	-2.93	-2.4957	-1.4964	-1.7447	2.5308	1.8333	1.7831	2.9895	1.7219	-3.1749	-2.7121
332.0312	-1.3512	-2.1149	-1.4444	-2.4247	-2.2827	-1.5346	1.2811	0.5218	0.0475	2.7575	1.8295	1.3625	2.1009	0.1598	-2.9157	-2.8094	-1.517	-1.3925	-1.8153	-2.7619	-2.4259	-1.4404	-1.6372	1.9007	1.3091	0.8752	1.909	0.8746	-3.0867	-2.438
335.9375	-1.0797	-1.8742	-1.2328	-2.1684	-2.2682	-1.5031	0.7482	0.2025	-0.5378	1.9978	1.15	0.6309	1.5659	-0.0332	-2.7782	-2.6021	-1.3159	-1.1063	-1.6579	-2.6	-2.3692	-1.4061	-1.5402	1.2552	0.7588	-0.0117	0.85	0.0645	-2.9843	-2.1752
339.8438	-0.8686	-1.6442	-1.0326	-1.9495	-2.2756	-1.5015	0.2582	-0.0339	-1.008	1.3203	0.5792	-0.0084	1.0507	-0.2325	-2.6323	-2.4139	-1.1571	-0.8862	-1.5424	-2.4674	-2.3373	-1.409	-1.4698	0.6514	0.2324	-0.7978	-0.0829	-0.6321	-2.8778	-1.9523
343.75	-0.7402	-1.4691	-0.8676	-1.7977	-2.3143	-1.5326	-0.1439	-0.1668	-1.3209	0.7875	0.1712	-0.4944	0.6002	-0.4256	-2.4855	-2.2779	-1.0733	-0.7546	-1.4935	-2.3875	-2.3424	-1.4615	-1.4406	0.1391	-0.2234	-1.4171	-0.803	-1.1536	-2.7793	-1.7931
347.6562	-0.7064	-1.3853	-0.7593	-1.7348	-2.3894	-1.5913	-0.4232	-0.1872	-1.4526	0.4448	-0.0388	-0.7846	0.2484	-0.603	-2.3487	-2.2226	-1.0899	-0.7228	-1.5304	-2.3805	-2.3951	-1.5708	-1.4634	-0.2456	-0.5725	-1.8269	-1.2549	-1.4613	-2.7017	-1.7142
351.5625	-0.767	-1.4139	-0.7232	-1.7716	-2.5014	-1.6674	-0.559	-0.0978	-1.3998	0.3163	-0.0384	-0.8607	0.0142	-0.7599	-2.2373	-2.2669	-1.22	-0.7896	-1.6632	-2.459	-2.5014	-1.7369	-1.5433	-0.486	-0.7946	-2.0125	-1.4213	-1.5445	-2.6567	-1.7232
355.4688	-0.9084	-1.5561	-0.7657	-1.9051	-2.6457	-1.7493	-0.5471	0.0887	-1.1789	0.402	0.1619	-0.7301	-0.1001	-0.895	-2.1692	-2.4157	-1.4603	-0.9424	-1.8896	-2.6249	-2.6609	-1.9521	-1.6782	-0.585	-0.8868	-1.9877	-1.3239	-1.4203	-2.6525	-1.8178
359.375	-1.105	-1.7926	-0.8827	-2.1192	-2.8134	-1.8264	-0.4004	0.3524	-0.8224	0.6786	0.5302	-0.4241	-0.1069	-1.0103	-2.1629	-2.658	-1.7894	-1.1589	-2.1928	-2.8671	-2.8652	-2.2012	-1.8581	-0.5629	-0.8621	-1.7894	-1.017	-1.1295	-2.6924	-1.9868
363.2812	-1.3218	-2.0873	-1.0591	-2.3859	-2.9919	-1.8905	-0.1464	0.6683	-0.3742	1.1028	1.0175	0.0069	-0.0297	-1.1081	-2.2329	-2.9677	-2.1691	-1.4109	-2.5427	-3.1624	-3.0982	-2.4627	-2.0656	-0.4517	-0.7448	-1.4695	-0.5757	-0.7289	-2.7735	-2.2113
367.1875	-1.5208	-2.3941	-1.2712	-2.6704	-3.166	-1.9358	0.1766	1.0084	0.1162	1.6165	1.5638	0.5011	0.1025	-1.19	-2.3848	-3.3073	-2.5497	-1.6678	-2.8995	-3.4778	-3.3377	-2.7112	-2.2771	-0.2877	-0.5641	-1.0844	-0.081	-0.2806	-2.8868	-2.4671
371.0938	-1.6678	-2.6649	-1.4897	-2.9359	-3.3202	-1.9587	0.5246	1.3437	0.599	2.1539	2.1051	0.9945	0.2602	-1.2553	-2.6107	-3.6347	-2.8783	-1.9008	-3.2201	-3.7764	-3.5583	-2.9204	-2.4655	-0.1047	-0.3481	-0.6855	0.3935	0.1569	-3.0183	-2.7268
375	-1.7394	-2.8578	-1.6846	-3.1494	-3.4401	-1.9568	0.8533	1.6463	1.0294	2.649	2.5805	1.4284	0.4174	-1.3016	-2.8872	-3.9093	-3.1086	-2.0854	-3.4655	-4.0225	-3.7354	-3.0668	-2.6044	0.0723	-0.1195	-0.3124	0.7933	0.5369	-3.1496	-2.9628
378.9062	-1.7278	-2.9436	-1.8283	-3.2866	-3.515	-1.9293	1.1233	1.8918	1.3713	3.0427	2.9385	1.7559	0.5539	-1.3248	-3.1769	-4.0991	-3.2093	-2.2037	-3.6076	-4.1878	-3.8492	-3.133	-2.6713	0.2293	0.1074	0.0107	1.088	0.8285	-3.2605	-3.1492
382.8125	-1.6404	-2.9091	-1.899	-3.3346	-3.539	-1.8768	1.3042	2.0611	1.5999	3.2891	3.1415	1.9461	0.6565	-1.3214	-3.4341	-4.1846	-3.1691	-2.245	-3.6339	-4.2549	-3.887	-3.11	-2.651	0.363	0.3262	0.2744	1.2713	1.0175	-3.3308	-3.2634
386.7188	-1.4966	-2.7578	-1.8824	-3.2918	-3.5113	-1.8016	1.3778	2.1424	1.7032	3.3604	3.1698	1.985	0.7179	-1.289	-3.6121	-4.1606	-2.9974	-2.206	-3.5485	-4.219	-3.845	-2.9985	-2.5375	0.4787	0.5365	0.4804	1.3565	1.1047	-3.3431	-3.2887
390.625	-1.3207	-2.5075	-1.7737	-3.1666	-3.4358	-1.7066	1.3395	2.1327	1.6817	3.2491	3.0217	1.8755	0.7367	-1.2276	-3.6725	-4.0356	-2.7211	-2.0894	-3.3693	-4.0875	-3.7277	-2.8076	-2.3345	0.5854	0.741	0.6368	1.3687	1.1011	-3.2854	-3.2154
394.5312	-1.1345	-2.1863	-1.5779	-2.9739	-3.3189	-1.5947	1.1983	2.0375	1.5471	2.9682	2.7128	1.6336	0.7157	-1.1393	-3.5925	-3.8284	-2.3783	-1.9032	-3.1233	-3.8768	-3.546	-2.5538	-2.0547	0.6918	0.9413	0.7526	1.3359	1.0241	-3.1529	-3.0424
398.4375	-0.9514	-1.8282	-1.3097	-2.7317	-3.1681	-1.4679	0.9745	1.8701	1.3193	2.5483	2.2727	1.2853	0.6613	-1.0282	-3.3696	-3.5641	-2.0106	-1.6588	-2.8405	-3.6093	-3.3149	-2.2575	-1.7177	0.802	1.1357	0.8334	1.2812	0.8923	-2.949	-2.777
402.3438	-0.7745	-1.4675	-0.9919	-2.4591	-2.9909	-1.3278	0.6965	1.6489	1.0228	2.0325	1.7403	0.8622	0.582	-0.8993	-3.0236	-3.2695	-1.6563	-1.3707	-2.5475	-3.3086	-3.0506	-1.9403	-1.3478	0.9138	1.3171	0.8792	1.2175	0.7223	-2.686	-2.4349
406.25	-0.5983	-1.1344	-0.6527	-2.1734	-2.7942	-1.1756	0.3962	1.3947	0.6838	1.4707	1.159	0.3977	0.4883	-0.7583	-2.5935	-2.9693	-1.3439	-1.0551	-2.2638	-2.9965	-2.7685	-1.6218	-0.971	1.019	1.4734	0.886	1.1472	0.5278	-2.3831	-2.0388
410.1562	-0.4132	-0.8495	-0.3213	-1.8888	-2.5839	-1.0127	0.1052	1.1288	0.3279	0.9134	0.5727	-0.0743	0.392	-0.6095	-2.1304	-2.6822	-1.0891	-0.7292	-1.9993	-2.6889	-2.48	-1.3169	-0.6113	1.1062	1.5905	0.8484	1.0645	0.3208	-2.0643	-1.6165
414.0625	-0.2113	-0.6211	-0.0224	-1.6146	-2.3642	-0.8412	-0.1478	0.871	-0.0211	0.407	0.0236	-0.5203	0.3066	-0.4544	-1.6874	-2.4193	-0.8931	-0.4093	-1.7547	-2.3945	-2.192	-1.0346	-0.2877	1.165	1.6558	0.7645	0.9615	0.1134	-1.7531	-1.198
417.9688	0.0094	-0.4433	0.2278	-1.354	-2.1374	-0.6627	-0.339	0.6392	-0.3413	-0.0096	-0.4501	-0.9084	0.2473	-0.2911	-1.3085	-2.1829	-0.7445	-0.1088	-1.5234	-2.1134	-1.9053	-0.7769	-0.0116	1.1908	1.6625	0.6387	0.8342	-0.0801	-1.4689	-0.8121
421.875	0.2425	-0.2973	0.425	-1.1045	-1.9027	-0.4781	-0.4501	0.4489	-0.6127	-0.3071	-0.8158	-1.2093	0.2301	-0.1132	-1.0193	-1.9672	-0.6232	0.1639	-1.2946	-1.838	-1.6152	-0.54	0.2149	1.1877	1.6124	0.4831	0.6873	-0.243	-1.2226	-0.4831
425.7812	0.4747	-0.1557	0.5762	-0.8583	-1.6566	-0.2863	-0.4689	0.3129	-0.818	-0.4681	-1.0486	-1.3991	0.2705	0.0884	-0.8222	-1.76	-0.5052	0.4057	-1.0574	-1.5555	-1.3129	-0.3152	0.398	1.1686	1.5167	0.3163	0.5355	-0.3584	-1.0151	-0.2275
429.6875	0.6898	0.011	0.6977	-0.6046	-1.3931	-0.0838	-0.3897	0.24	-0.944	-0.487	-1.1344	-1.4631	0.3807	0.3242	-0.6972	-1.5461	-0.3674	0.6193	-0.8029	-1.2512	-0.9881	-0.0914	0.5499	1.1532	1.3944	0.1602	0.401	-0.4118	-0.839	-0.0522
433.5938	0.8745	0.2276	0.81	-0.3322	-1.1057	0.1342	-0.2146	0.2339	-0.9842	-0.3713	-1.0723	-1.3987	0.5673	0.6028	-0.6086	-1.3107	-0.1918	0.8112	-0.527	-0.9124	-0.6314	0.143	0.6856	1.1635	1.2682	0.0351	0.3085	-0.3958	-0.681	0.0457
437.5	1.0237	0.508	0.9327	-0.0336	-0.79	0.3722	0.0454	0.2914	-0.9409	-0.1416	-0.8769	-1.2187	0.8279	0.9276	-0.5153	-1.0436	0.0317	0.9896	-0.2307	-0.5325	-0.2379	0.397	0.819	1.2179	1.1595	-0.0453	0.2774	-0.3135	-0.5271	0.0776
441.4062	1.1429	0.8512	1.0795	0.2926	-0.4467	0.6314	0.37	0.4018	-0.8267	0.1697	-0.5782	-0.9514	1.1501	1.2945	-0.3816	-0.7421	0.3042	1.162	0.08	-0.113	0.1908	0.6754	0.9597	1.3264	1.0834	-0.0763	0.3166	-0.1802	-0.3672	0.0609
445.3125	1.2474	1.2416	1.2553	0.6403	-0.0825	0.9089	0.7308	0.5473	-0.6638	0.5215	-0.2186	-0.638	1.5124	1.6909	-0.1861	-0.4121	0.6181	1.333	0.3957	0.3355	0.6457	0.9767	1.1114	1.4882	1.0462	-0.0646	0.4204	-0.022	-0.1983	0.0159
449.2188	1.3574	1.6522	1.4557	0.997	0.2904	1.1969	1.0944	0.7061	-0.4804	0.8689	0.1529	-0.3263	1.887	2.0977	0.0738	-0.0667	0.9594	1.5038	0.706	0.7961	1.1117	1.2941	1.2725	1.6919	1.0447	-0.0252	0.5697	0.1283	-0.0254	-0.0369
453.125	1.4919	2.0518	1.6692	1.3466	0.6564	1.4847	1.4279	0.8559	-0.3059	1.1699	0.4882	-0.0624	2.2449	2.4934	0.3838	0.2774	1.3115	1.6726	1.0021	1.2486	1.5706	1.6169	1.4381	1.9193	1.0689	0.0218	0.7372	0.2388	0.1412	-0.0789
457.0312	1.6643	2.4124	1.882	1.6738	1.0005	1.7604	1.704	0.9778	-0.1651	1.3918	0.7488	0.1183	2.5618	2.8588	0.7176	0.605	1.6592	1.8367	1.2794	1.6755	2.0053	1.9337	1.6028	2.1502	1.1056	0.0575	0.8938	0.286	0.2908	-0.0942
460.9375	1.8799	2.7154	2.0826	1.9674	1.3117	2.0135	1.9056	1.0601	-0.0737	1.5157	0.9106	0.1973	2.8218	3.1809	1.0446	0.9063	1.9918	1.9948	1.539	2.0653	2.4034	2.2347	1.7636	2.3671	1.1427	0.069	1.0159	0.2606	0.4168	-0.0706
464.8438	2.1355	2.9549	2.2654	2.2231	1.5842	2.2367	2.027	1.099	-0.0362	1.5388	0.9668	0.1758	3.0196	3.4553	1.3375	1.1797	2.3048	2.1487	1.7871	2.4146	2.7593	2.5136	1.921	2.5582	1.1716	0.0518	1.0902	0.1698	0.5197	-0.0003
468.75	2.4203	3.1372	2.4316	2.4427	1.8179	2.4266	2.0741	1.0977	-0.0471	1.4725	0.9265	0.0726	3.1594	3.6848	1.577	1.4311	2.5992	2.3023	2.0329	2.727	3.0734	2.7678	2.0777	2.7182	1.1885	0.0109	1.1153	0.0346	0.6069	0.1183
472.6562	2.716	3.2769	2.5872	2.6317	2.0166	2.5834	2.0613	1.0639	-0.0936	1.3395	0.811	-0.0811	3.2522	3.8766	1.7552	1.6701	2.8784	2.4604	2.2844	3.0092	3.3501	2.9965	2.2367	2.8471	1.1936	-0.0422	1.0998	-0.1157	0.6893	0.2797
476.5625	2.9987	3.3916	2.7395	2.7967	2.1849	2.7097	2.0073	1.0062	-0.1597	1.168	0.6488	-0.25	3.312	4.0391	1.8751	1.906	3.144	2.6259	2.5443	3.2671	3.5942	3.1991	2.3982	2.9475	1.1889	-0.0931	1.0595	-0.251	0.7772	0.4706
480.4688	3.2425	3.4968	2.8927	2.9419	2.3266	2.8095	1.9316	0.9314	-0.2304	0.987	0.4698	-0.4012	3.3523	4.178	1.9486	2.1435	3.3922	2.7981	2.8066	3.5024	3.8076	3.3729	2.5576	3.0227	1.1767	-0.1286	1.0119	-0.3468	0.8773	0.6724
484.375	3.4246	3.6014	3.0455	3.068	2.4433	2.8866	1.8511	0.8434	-0.295	0.822	0.3015	-0.5109	3.3836	4.295	1.9921	2.3807	3.6136	2.9723	3.0576	3.7116	3.9882	3.5129	2.7058	3.0754	1.1581	-0.1399	0.9737	-0.3893	0.9905	0.8647
488.2812	3.5317	3.7063	3.1903	3.1727	2.5343	2.9438	1.7784	0.7433	-0.3483	0.6914	0.1651	-0.5669	3.413	4.3885	2.0223	2.6094	3.7948	3.14	3.2789	3.8879	4.1317	3.6135	2.8314	3.108	1.1334	-0.124	0.9575	-0.3761	1.1127	1.0293
492.1875	3.5634	3.8053	3.3148	3.2526	2.5986	2.9833	1.7215	0.6307	-0.3913	0.606	0.0736	-0.5685	3.4445	4.4559	2.0526	2.8179	3.9228	3.2917	3.4526	4.0243	4.2336	3.6712	2.9236	3.1237	1.1034	-0.0837	0.9717	-0.3147	1.2361	1.1534
496.0938	3.5324	3.888	3.4056	3.3059	2.6362	3.0064	1.6843	0.5053	-0.4298	0.5681	0.0313	-0.5242	3.4806	4.4966	2.092	2.9944	3.9902	3.4186	3.5673	4.1179	4.2934	3.6876	2.9768	3.128	1.0702	-0.0251	1.0206	-0.2189	1.3517	1.231
500	3.4607	3.9452	3.452	3.3341	2.6504	3.0142	1.6682	0.3689	-0.4722	0.5737	0.0351	-0.4474	3.5244	4.5146	2.1449	3.1312	3.9986	3.5155	3.6218	4.1724	4.3166	3.6714	2.9924	3.1297	1.0385	0.0446	1.1057	-0.1045	1.4515	1.2624
503.9062	3.3733	3.9738	3.4506	3.3437	2.6479	3.0089	1.6728	0.2259	-0.5265	0.6142	0.0767	-0.3522	3.5806	4.5197	2.2124	3.2271	3.9604	3.582	3.6264	4.1988	4.316	3.6387	2.98	3.1401	1.0154	0.1194	1.226	0.0147	1.5304	1.2531
507.8125	3.2919	3.98	3.4068	3.3455	2.6389	2.9936	1.6973	0.0837	-0.5978	0.679	0.1453	-0.2499	3.6555	4.5263	2.293	3.2881	3.8973	3.6225	3.6013	4.214	4.3098	3.6102	2.9549	3.1709	1.0087	0.1956	1.3785	0.1296	1.5872	1.212
511.7188	3.2306	3.9787	3.3347	3.3526	2.6353	2.9729	1.7411	-0.0486	-0.6858	0.7583	0.2307	-0.1471	3.7557	4.5507	2.3833	3.3261	3.8358	3.6441	3.572	4.2378	4.3185	3.6067	2.9352	3.2313	1.025	0.2717	1.5574	0.2361	1.6238	1.1487
515.625	3.196	3.9888	3.2538	3.3771	2.6484	2.9524	1.8035	-0.1615	-0.7847	0.8443	0.3249	-0.0463	3.8862	4.6073	2.4778	3.3565	3.8028	3.6549	3.5637	4.288	4.3611	3.645	2.937	3.3253	1.0675	0.3478	1.7541	0.3345	1.6441	1.072
519.5312	3.1889	4.0272	3.1856	3.4274	2.6869	2.9383	1.8838	-0.2467	-0.8834	0.9318	0.4226	0.0534	4.0478	4.7046	2.5691	3.3935	3.8191	3.6612	3.5952	4.377	4.4502	3.7327	2.971	3.4502	1.1342	0.4237	1.9562	0.4275	1.6524	0.9889
523.4375	3.2077	4.1023	3.148	3.5053	2.7554	2.9367	1.9801	-0.2984	-0.9682	1.0181	0.5209	0.1536	4.2351	4.8427	2.6489	3.4474	3.8957	3.6666	3.6749	4.5083	4.5893	3.8672	3.0409	3.5961	1.2172	0.4982	2.1483	0.5179	1.6528	0.9045
527.3438	3.2496	4.2117	3.1524	3.6055	2.8529	2.9525	2.0896	-0.3136	-1.0257	1.1024	0.6187	0.2542	4.4364	5.0121	2.709	3.5214	4.03	3.6721	3.7986	4.6757	4.7712	4.0354	3.1426	3.747	1.3037	0.567	2.3121	0.6063	1.6484	0.8225
531.25	3.3117	4.3432	3.2013	3.7171	2.9738	2.9884	2.2074	-0.2917	-1.0451	1.1842	0.7157	0.3522	4.6336	5.1953	2.7439	3.6116	4.2065	3.6771	3.9505	4.8644	4.979	4.217	3.2659	3.8834	1.3781	0.6226	2.4286	0.689	1.6418	0.746
535.1562	3.3903	4.4793	3.289	3.8262	3.1087	3.0446	2.3275	-0.234	-1.0209	1.2634	0.811	0.4404	4.8053	5.37	2.7521	3.7084	4.4002	3.6807	4.1083	5.0543	5.1892	4.3894	3.3974	3.985	1.4246	0.6546	2.4791	0.758	1.636	0.6786
539.0625	3.4801	4.6024	3.4032	3.9203	3.2476	3.1192	2.4426	-0.1432	-0.9529	1.3387	0.9029	0.5084	4.9301	5.5138	2.7369	3.8002	4.583	3.6832	4.2494	5.2251	5.377	4.5327	3.5235	4.0346	1.4306	0.6514	2.4484	0.8011	1.6339	0.6244
542.9688	3.5742	4.699	3.5282	3.9913	3.3813	3.2091	2.5452	-0.0234	-0.8465	1.4079	0.9878	0.5443	4.9904	5.6088	2.705	3.8769	4.7314	3.6864	4.3574	5.3605	5.5213	4.6343	3.633	4.021	1.3898	0.6027	2.3272	0.8047	1.6384	0.588
546.875	3.665	4.7617	3.6484	4.0373	3.5036	3.3107	2.6281	0.1195	-0.7116	1.4673	1.0605	0.537	4.9757	5.6446	2.6644	3.9327	4.8316	3.6936	4.4262	5.4518	5.6091	4.6906	3.7191	3.9409	1.3039	0.5029	2.1152	0.7571	1.6512	0.5737
550.7812	3.7465	4.7889	3.7518	4.0623	3.6111	3.4199	2.6851	0.2778	-0.5615	1.5118	1.1137	0.479	4.8842	5.6198	2.6219	3.9671	4.882	3.7078	4.46	5.4987	5.6367	4.7063	3.7798	3.7996	1.1824	0.3536	1.8223	0.652	1.6729	0.5843
554.6875	3.8154	4.7834	3.8312	4.0735	3.7016	3.5314	2.7112	0.4414	-0.4113	1.5349	1.1395	0.3688	4.7236	5.5412	2.5822	3.9847	4.8912	3.7308	4.4702	5.5078	5.6092	4.6916	3.8165	3.6099	1.0411	0.1646	1.4691	0.4914	1.702	0.6198
558.5938	3.8716	4.7513	3.8847	4.0789	3.7737	3.6384	2.7027	0.5984	-0.2777	1.5294	1.1303	0.2116	4.509	5.4207	2.5481	3.9932	4.8736	3.7622	4.4709	5.4905	5.5379	4.6586	3.832	3.3902	0.8992	-0.0464	1.0854	0.2868	1.736	0.6768
562.5	3.9165	4.7004	3.9144	4.0846	3.825	3.7328	2.6577	0.7355	-0.1773	1.4884	1.0803	0.0191	4.2611	5.273	2.521	4.0013	4.844	3.7991	4.4733	5.4588	5.4371	4.6177	3.8297	3.1618	0.7754	-0.2567	0.7062	0.0571	1.7714	0.7489
566.4062	3.9517	4.6393	3.9243	4.0936	3.8521	3.8058	2.5765	0.8388	-0.1258	1.4071	0.9864	-0.1934	4.003	5.1128	2.5017	4.0164	4.8139	3.8374	4.483	5.4234	5.3206	4.5764	3.8119	2.9465	0.6853	-0.4422	0.3683	-0.1741	1.8047	0.8278
570.3125	3.9778	4.576	3.919	4.1058	3.8516	3.8498	2.4618	0.8958	-0.1363	1.2838	0.8496	-0.4089	3.7579	4.9534	2.4908	4.0431	4.7897	3.8721	4.499	5.3914	5.2004	4.5386	3.7811	2.7649	0.6392	-0.5816	0.1052	-0.3824	1.833	0.9053
574.2188	3.9949	4.5173	3.9018	4.1191	3.8213	3.8596	2.3198	0.8966	-0.2169	1.1226	0.6756	-0.611	3.5473	4.8061	2.4881	4.0827	4.7716	3.8994	4.5149	5.3661	5.0853	4.5061	3.7401	2.6349	0.6416	-0.6584	-0.0563	-0.5462	1.8536	0.9741
578.125	4.0025	4.4674	3.8742	4.1305	3.7612	3.8343	2.1604	0.8373	-0.368	0.934	0.4757	-0.7851	3.3892	4.6801	2.4932	4.1326	4.7557	3.9161	4.5217	5.3474	4.981	4.4796	3.6927	2.5707	0.6914	-0.6636	-0.0988	-0.6491	1.8641	1.0287
582.0312	4.001	4.4283	3.8355	4.1377	3.6748	3.7781	1.997	0.7206	-0.5802	0.7352	0.2664	-0.9193	3.2972	4.5829	2.5044	4.1873	4.7351	3.9207	4.5111	5.3329	4.8909	4.4595	3.6438	2.5815	0.783	-0.5958	-0.0165	-0.6816	1.8623	1.0655
585.9375	3.991	4.4	3.7845	4.1391	3.5685	3.6989	1.8453	0.5576	-0.8339	0.5483	0.0685	-1.0036	3.2794	4.5199	2.519	4.2402	4.7033	3.9124	4.4789	5.3197	4.8164	4.4468	3.5987	2.6704	0.9073	-0.4615	0.1845	-0.6412	1.8461	1.0822
589.8438	3.9741	4.3817	3.7203	4.1335	3.4506	3.6065	1.7211	0.3658	-1.1014	0.3976	-0.0952	-1.0313	3.3366	4.494	2.5321	4.2846	4.6568	3.8903	4.4257	5.305	4.7579	4.4418	3.5615	2.8324	1.0523	-0.274	0.4854	-0.5323	1.8141	1.0774
593.75	3.9512	4.3723	3.6442	4.1197	3.3293	3.5098	1.6375	0.1667	-1.3508	0.3049	-0.2031	-0.9988	3.4621	4.5048	2.5366	4.3158	4.5966	3.853	4.3572	5.2875	4.7146	4.4433	3.5334	3.053	1.204	-0.0522	0.8565	-0.3658	1.7658	1.0504
597.6562	3.9213	4.3709	3.5595	4.0963	3.2121	3.4156	1.6031	-0.017	-1.5513	0.2863	-0.2389	-0.908	3.6416	4.5477	2.5238	4.3314	4.5278	3.7985	4.2813	5.2667	4.6847	4.4474	3.5121	3.3083	1.3464	0.1803	1.2592	-0.1587	1.7022	1.0013
601.5625	3.8808	4.3766	3.4704	4.062	3.1048	3.3285	1.6202	-0.1649	-1.6783	0.3488	-0.1933	-0.7661	3.8545	4.6146	2.4853	4.3317	4.4585	3.725	4.2059	5.2435	4.6654	4.4475	3.4917	3.5665	1.4629	0.3964	1.6494	0.0669	1.6263	0.9313
605.4688	3.823	4.3888	3.381	4.0175	3.0129	3.2524	1.6853	-0.2609	-1.7178	0.4897	-0.0667	-0.5866	4.0768	4.6947	2.4163	4.3194	4.3971	3.6328	4.1365	5.2194	4.6534	4.4358	3.4643	3.7921	1.5373	0.5679	1.9835	0.2858	1.5429	0.8441
609.375	3.7411	4.4062	3.2946	3.9666	2.9417	3.1921	1.7905	-0.295	-1.6675	0.6972	0.1315	-0.3871	4.2845	4.7765	2.3187	4.2993	4.3499	3.5256	4.0754	5.1961	4.6458	4.405	3.4222	3.9519	1.5562	0.6688	2.2235	0.4726	1.4591	0.7455
613.2812	3.6321	4.427	3.2152	3.9165	2.897	3.1534	1.9244	-0.2637	-1.5377	0.9512	0.3841	-0.1883	4.4569	4.8493	2.2024	4.277	4.3195	3.4115	4.0223	5.1752	4.6402	4.3507	3.3608	4.0208	1.5113	0.6788	2.3424	0.6049	1.3838	0.645
617.1875	3.5013	4.4487	3.1486	3.8763	2.8832	3.1417	2.0733	-0.1711	-1.349	1.2259	0.6674	-0.0111	4.5779	4.9042	2.084	4.2583	4.304	3.3029	3.9745	5.1579	4.6347	4.2727	3.2799	3.986	1.4005	0.5872	2.3277	0.6668	1.327	0.5542
621.0938	3.3653	4.4676	3.1037	3.8541	2.9015	3.1587	2.2211	-0.0291	-1.1296	1.4915	0.9538	0.1254	4.6372	4.9345	1.9839	4.2475	4.2981	3.2141	3.9289	5.1443	4.6275	4.1751	3.1843	3.8491	1.2291	0.3951	2.1824	0.6508	1.2986	0.4865
625	3.2506	4.48	3.091	3.8541	2.9474	3.2005	2.3498	0.144	-0.911	1.717	1.215	0.206	4.6299	4.9358	1.9207	4.2476	4.2953	3.1588	3.8826	5.1338	4.6168	4.0665	3.0829	3.625	1.0083	0.1153	1.9231	0.5586	1.3064	0.4545
628.9062	3.1875	4.4824	3.1191	3.8752	3.0105	3.2564	2.4414	0.3246	-0.723	1.8733	1.4247	0.2212	4.5564	4.9064	1.9071	4.2592	4.2908	3.1474	3.8346	5.1256	4.6008	3.9579	2.9871	3.3386	0.7537	-0.2291	1.5772	0.3999	1.3548	0.4679
632.8125	3.2021	4.4725	3.1913	3.9108	3.0764	3.3118	2.4794	0.4875	-0.5898	1.9372	1.5624	0.1682	4.422	4.8473	1.9476	4.2818	4.2832	3.1847	3.7859	5.1197	4.5791	3.8614	2.9086	3.0203	0.4832	-0.6085	1.1782	0.1913	1.4429	0.5314
636.7188	3.3066	4.4493	3.3018	3.9506	3.1298	3.3517	2.4514	0.609	-0.5262	1.8943	1.6155	0.0512	4.2361	4.7621	2.0389	4.3136	4.2752	3.2682	3.7402	5.1164	4.5524	3.7874	2.8562	2.7006	0.2146	-0.9908	0.7608	-0.0476	1.5645	0.643
640.625	3.4925	4.4127	3.4357	3.9823	3.1569	3.3645	2.3511	0.67	-0.5373	1.7412	1.5798	-0.1199	4.0109	4.6567	2.1719	4.3505	4.2715	3.3879	3.7021	5.1161	4.5219	3.7427	2.8338	2.4056	-0.036	-1.3457	0.3566	-0.2963	1.7077	0.7933
644.5312	3.729	4.3625	3.5707	3.993	3.1474	3.3437	2.1788	0.6592	-0.6192	1.4854	1.4589	-0.3322	3.7596	4.5369	2.3355	4.3855	4.2752	3.5269	3.675	5.1166	4.4879	3.7275	2.8379	2.1526	-0.2553	-1.6493	-0.0097	-0.5371	1.8569	0.9662
648.4375	3.9681	4.2976	3.6816	3.9698	3.0944	3.2871	1.9407	0.5737	-0.7614	1.1435	1.2623	-0.5715	3.4936	4.4071	2.5176	4.4076	4.2844	3.6634	3.6586	5.1119	4.448	3.735	2.8582	1.9485	-0.4338	-1.8859	-0.3217	-0.7565	1.994	1.1409
652.3438	4.1558	4.2156	3.7442	3.9009	2.9936	3.1949	1.6478	0.4203	-0.9503	0.7387	1.0039	-0.8243	3.2213	4.2687	2.7053	4.4021	4.2905	3.7743	3.6476	5.0917	4.3956	3.751	2.8787	1.7901	-0.566	-2.0498	-0.5723	-0.9469	2.1013	1.2952
656.25	4.2467	4.1124	3.7399	3.777	2.843	3.068	1.3148	0.2132	-1.1713	0.2982	0.7004	-1.0787	2.9481	4.1199	2.884	4.3528	4.28	3.8388	3.6316	5.0424	4.3211	3.757	2.8812	1.6671	-0.65	-2.1434	-0.7602	-1.1053	2.1638	1.4087
660.1562	4.2169	3.9835	3.6587	3.5931	2.643	2.9073	0.9585	-0.0274	-1.4091	-0.1488	0.3714	-1.3237	2.6775	3.958	3.0362	4.2459	4.2381	3.843	3.598	4.9512	4.2139	3.7335	2.8498	1.5671	-0.6869	-2.1745	-0.8876	-1.2313	2.1718	1.4674
664.0625	4.0706	3.8259	3.5008	3.3509	2.3978	2.7143	0.5983	-0.2793	-1.6483	-0.5724	0.039	-1.5477	2.4144	3.7815	3.1419	4.0742	4.1544	3.7825	3.5358	4.8094	4.0666	3.6657	2.7755	1.4795	-0.6797	-2.1523	-0.9559	-1.3236	2.1233	1.4657
667.9688	3.838	3.6399	3.2775	3.0601	2.1162	2.493	0.2558	-0.5203	-1.8724	-0.9434	-0.2722	-1.7377	2.167	3.5928	3.1812	3.8407	4.0275	3.6628	3.4396	4.6167	3.8782	3.5469	2.658	1.4	-0.6325	-2.0843	-0.9634	-1.3779	2.0245	1.4073
671.875	3.5641	3.4315	3.01	2.7384	1.8119	2.2505	-0.0463	-0.7315	-2.0645	-1.2351	-0.5372	-1.8802	1.9483	3.3993	3.1389	3.5595	3.8667	3.4973	3.3118	4.3824	3.6558	3.3806	2.5066	1.3315	-0.5506	-1.9754	-0.9057	-1.3867	1.8889	1.3037
675.7812	3.295	3.2135	2.7264	2.4091	1.5029	1.9983	-0.2852	-0.8979	-2.2087	-1.4249	-0.7325	-1.9621	1.775	3.2134	3.0093	3.2538	3.6897	3.3032	3.1619	4.1244	3.4144	3.18	2.3376	1.2824	-0.4411	-1.8287	-0.7774	-1.3413	1.7353	1.171
679.6875	3.0653	3.0033	2.457	2.0985	1.21	1.751	-0.4408	-1.0095	-2.2922	-1.4968	-0.84	-1.9738	1.665	3.0504	2.8012	2.9518	3.5173	3.0983	3.0036	3.8655	3.1741	2.9642	2.1695	1.2637	-0.3138	-1.6486	-0.5762	-1.236	1.5839	1.0264
683.5938	2.8927	2.82	2.2289	1.8311	0.9543	1.5257	-0.4987	-1.0609	-2.3074	-1.4444	-0.8493	-1.9113	1.6334	2.9259	2.5386	2.6808	3.3673	2.8984	2.8508	3.6296	2.9563	2.7542	2.019	1.2845	-0.182	-1.4432	-0.3064	-1.0712	1.4532	0.8851
687.5	2.7783	2.6796	2.0615	1.6257	0.7544	1.3395	-0.4525	-1.0508	-2.2527	-1.2719	-0.7595	-1.7777	1.689	2.8526	2.2582	2.4624	3.2497	2.7163	2.7143	3.4367	2.7798	2.5683	1.8974	1.3485	-0.0613	-1.2264	0.0185	-0.8569	1.358	0.7582
691.4062	2.7125	2.5904	1.9634	1.4928	0.6245	1.2073	-0.3065	-0.9822	-2.1326	-0.9952	-0.5792	-1.5835	1.8304	2.837	2.0026	2.3087	3.1649	2.5622	2.5994	3.2999	2.657	2.4189	1.8088	1.4511	0.0316	-1.018	0.3749	-0.6125	1.3066	0.6531
695.3125	2.6807	2.5505	1.9313	1.4319	0.5704	1.1378	-0.0766	-0.8618	-1.9575	-0.6407	-0.3253	-1.3455	2.0451	2.8775	1.8107	2.2207	3.1044	2.4434	2.5058	3.2228	2.5911	2.311	1.7504	1.5794	0.0822	-0.8408	0.7305	-0.3642	1.3006	0.5728
699.2188	2.6689	2.5472	1.9509	1.431	0.5876	1.1304	0.2101	-0.7009	-1.7422	-0.2437	-0.0212	-1.0855	2.3087	2.9625	1.7082	2.1882	3.0538	2.3628	2.4284	3.1988	2.5753	2.2412	1.7136	1.7133	0.0803	-0.7176	1.0481	-0.1409	1.3342	0.5175
703.125	2.6652	2.5597	1.9999	1.4683	0.6601	1.1737	0.5175	-0.5155	-1.5056	0.1555	0.305	-0.8279	2.5874	3.0712	1.7002	2.1922	2.9971	2.3186	2.3594	3.2117	2.5933	2.1991	1.6868	1.8282	0.0225	-0.6667	1.2897	0.031	1.3954	0.4848
707.0312	2.6614	2.5633	2.0528	1.5155	0.7622	1.2466	0.8052	-0.3258	-1.269	0.5164	0.6232	-0.5968	2.8427	3.1763	1.7702	2.2085	2.9213	2.3036	2.2906	3.239	2.6221	2.1694	1.6575	1.8994	-0.0875	-0.6978	1.4234	0.1324	1.4674	0.4706
710.9375	2.6512	2.5358	2.0866	1.5441	0.8631	1.3225	1.0352	-0.1536	-1.0536	0.8041	0.9051	-0.4129	3.0373	3.2493	1.8837	2.2133	2.8201	2.3063	2.2151	3.2561	2.6365	2.1348	1.6154	1.9067	-0.2389	-0.8098	1.4287	0.1545	1.5329	0.47
714.8438	2.6291	2.463	2.0861	1.5317	0.9341	1.3764	1.1787	-0.0185	-0.8771	0.9954	1.1282	-0.2903	3.1426	3.2658	1.999	2.1878	2.696	2.3135	2.1291	3.2416	2.6152	2.0804	1.5537	1.839	-0.4163	-0.9899	1.3018	0.1004	1.5768	0.4778
718.75	2.5891	2.3425	2.046	1.4665	0.9543	1.39	1.2218	0.0658	-0.7511	1.0817	1.2791	-0.2339	3.1437	3.211	2.078	2.1229	2.5596	2.3132	2.0323	3.1819	2.5447	1.9958	1.4701	1.6971	-0.6017	-1.2162	1.0573	-0.0159	1.5904	0.4888
722.6562	2.5244	2.1838	1.9706	1.3498	0.9153	1.3559	1.1672	0.0945	-0.6797	1.0705	1.355	-0.2394	3.0426	3.0831	2.0963	2.0198	2.4262	2.2977	1.9276	3.0739	2.4226	1.8776	1.367	1.4939	-0.7773	-1.4607	0.727	-0.1727	1.5727	0.4986
726.5625	2.4297	2.0053	1.8706	1.1939	0.8214	1.2769	1.0333	0.0723	-0.6596	0.9822	1.3633	-0.2944	2.8569	2.8928	2.0471	1.8893	2.3115	2.2652	1.8191	2.9248	2.2572	1.7294	1.2503	1.2527	-0.9278	-1.6943	0.3549	-0.3449	1.5297	0.5035
730.4688	2.3036	1.8291	1.7595	1.018	0.6871	1.164	0.8489	0.0114	-0.6814	0.8455	1.3196	-0.381	2.6165	2.661	1.9409	1.7484	2.2272	2.2192	1.7116	2.75	2.0648	1.5604	1.1284	1.0028	-1.0425	-1.8916	-0.0096	-0.5083	1.4728	0.5014
734.375	2.1516	1.6756	1.6499	0.8429	0.5323	1.0318	0.6478	-0.0712	-0.7314	0.6915	1.2444	-0.4788	2.3578	2.4147	1.7997	1.6159	2.1787	2.1676	1.6097	2.5695	1.8665	1.3839	1.0106	0.7745	-1.1152	-2.0336	-0.32	-0.6425	1.4154	0.4923
738.2812	1.987	1.5585	1.5525	0.6869	0.3778	0.8959	0.4623	-0.157	-0.7932	0.5485	1.1604	-0.5675	2.1177	2.1825	1.6511	1.509	2.1645	2.1194	1.5178	2.4039	1.684	1.2151	0.9062	0.595	-1.1446	-2.1094	-0.5382	-0.7326	1.37	0.4779
742.1875	1.8299	1.4838	1.4749	0.563	0.2418	0.7709	0.3193	-0.2287	-0.8492	0.4387	1.0898	-0.6287	1.929	1.9906	1.5219	1.4402	2.1783	2.0831	1.4416	2.2716	1.5366	1.0698	0.8241	0.485	-1.1327	-2.1157	-0.6392	-0.7689	1.3459	0.462
746.0938	1.7035	1.4493	1.4223	0.4792	0.138	0.6696	0.2364	-0.2726	-0.8828	0.3759	1.0509	-0.6478	1.8159	1.86	1.434	1.4168	2.2114	2.0648	1.3877	2.1864	1.4393	0.9622	0.7718	0.457	-1.0829	-2.0551	-0.6125	-0.7463	1.3482	0.4491
750	1.6293	1.4474	1.3969	0.4387	0.0745	0.6028	0.2206	-0.2797	-0.8811	0.3646	1.056	-0.6158	1.7914	1.8035	1.4009	1.4403	2.2556	2.0674	1.363	2.1559	1.4004	0.9029	0.7547	0.5142	-0.9994	-1.9341	-0.4619	-0.6633	1.3776	0.4441
753.9062	1.6216	1.4672	1.3969	0.4398	0.0528	0.5768	0.2679	-0.2472	-0.838	0.4008	1.1096	-0.5305	1.8554	1.8237	1.4252	1.5066	2.3041	2.0897	1.3726	2.1803	1.4205	0.8962	0.774	0.6503	-0.8861	-1.762	-0.2037	-0.5223	1.43	0.4498
757.8125	1.6829	1.4968	1.4158	0.4762	0.068	0.591	0.3648	-0.1788	-0.7549	0.4737	1.2076	-0.3976	1.995	1.9121	1.4979	1.6066	2.352	2.1264	1.4165	2.2518	1.4916	0.9388	0.8259	0.8499	-0.7475	-1.5503	0.1354	-0.3305	1.4972	0.466
761.7188	1.8009	1.5252	1.4432	0.5364	0.1084	0.6356	0.4908	-0.0843	-0.6411	0.5681	1.3385	-0.2302	2.1862	2.049	1.5998	1.7265	2.3948	2.168	1.4874	2.3553	1.5972	1.0183	0.8997	1.0886	-0.5902	-1.3129	0.5211	-0.1011	1.5675	0.4873
765.625	1.9481	1.5432	1.4654	0.6041	0.1576	0.6915	0.6228	0.0222	-0.5116	0.6681	1.4849	-0.0477	2.3977	2.2065	1.7049	1.8493	2.4273	2.2014	1.5695	2.4694	1.7144	1.1147	0.9782	1.3353	-0.424	-1.0662	0.9145	0.146	1.6263	0.503
769.5312	2.0843	1.5421	1.4686	0.6588	0.196	0.7321	0.7384	0.1254	-0.3841	0.7594	1.6266	0.1267	2.5957	2.3516	1.7855	1.9551	2.4424	2.211	1.6395	2.5693	1.816	1.2021	1.0394	1.5549	-0.2623	-0.8291	1.276	0.3843	1.6587	0.4984
773.4375	2.1622	1.5124	1.4401	0.677	0.203	0.7269	0.8191	0.211	-0.2766	0.831	1.7427	0.2682	2.7482	2.4514	1.8186	2.0233	2.4302	2.1796	1.6691	2.629	1.8739	1.2524	1.059	1.7118	-0.1209	-0.6216	1.5686	0.5835	1.6509	0.4563
777.3438	2.1361	1.4428	1.3708	0.6353	0.1604	0.6468	0.8523	0.2684	-0.2049	0.876	1.8146	0.3542	2.8299	2.4775	1.7896	2.0345	2.3792	2.0906	1.6294	2.625	1.8629	1.2392	1.0146	1.7751	-0.016	-0.4625	1.7628	0.7133	1.5922	0.3609
781.25	1.9711	1.3217	1.2557	0.5141	0.0543	0.4695	0.8322	0.2915	-0.1802	0.891	1.8289	0.3675	2.8256	2.4107	1.6944	1.9731	2.2781	1.9309	1.497	2.5402	1.7648	1.1426	0.89	1.7235	0.0397	-0.3654	1.8405	0.75	1.477	0.2007
785.1562	1.6511	1.1404	1.0955	0.3027	-0.1214	0.1844	0.76	0.2799	-0.2072	0.8767	1.7802	0.301	2.7321	2.2447	1.5387	1.832	2.1201	1.6943	1.2594	2.3672	1.572	0.9538	0.6786	1.5502	0.0401	-0.3354	1.7991	0.682	1.3062	-0.0283
789.0625	1.1845	0.8986	0.8962	0.0038	-0.3628	-0.2035	0.6436	0.2383	-0.2824	0.8378	1.673	0.1598	2.5596	1.9879	1.3356	1.6153	1.9063	1.3847	0.9206	2.1116	1.2912	0.678	0.3865	1.2659	-0.012	-0.3671	1.653	0.5147	1.0871	-0.321
792.9688	0.6041	0.6074	0.6685	-0.3644	-0.6554	-0.6719	0.4966	0.1754	-0.394	0.7821	1.5217	-0.0383	2.3298	1.6628	1.1018	1.3401	1.6477	1.0184	0.502	1.7927	0.9431	0.3348	0.0327	0.8986	-0.1043	-0.4442	1.4325	0.2708	0.8331	-0.6625
796.875	-0.0381	0.2897	0.427	-0.7703	-0.9753	-1.1847	0.3363	0.1026	-0.5241	0.7197	1.3482	-0.2654	2.0725	1.3028	0.855	1.0346	1.3647	0.6219	0.0396	1.4408	0.5598	-0.0445	-0.354	0.49	-0.2172	-0.5432	1.1783	-0.0128	0.5625	-1.0302
