time	FP1	F3	F7	FC3	C3	C5	P3	P7	PO7	PO3	O1	Oz	Pz	CPz	FP2	Fz	F4	F8	FC4	FCz	Cz	C4	C6	P4	P8	PO8	PO4	O2	HEOG_left	HEOG_right
-199.2188	1.2496	0.5569	0.1777	0.2471	0.3473	0.1709	-0.2143	-0.1324	-0.6205	-0.459	-0.4637	-0.3475	0.5503	0.9574	0.9175	0.9438	1.5178	0.7847	1.3572	1.45	1.5236	1.4857	1.1463	1.0279	0.6314	0.3422	0.5956	0.07	0.194	0.6799
-195.3125	0.9369	0.3625	0.1526	0.1601	0.2841	0.0774	-0.1216	-0.0822	-0.398	-0.3618	-0.304	-0.1943	0.5481	0.8453	0.5409	0.6728	1.1376	0.4051	1.1	1.2376	1.3659	1.2922	0.9593	1.0435	0.6809	0.4872	0.6601	0.1528	0.023	0.4139
-191.4062	0.6388	0.1785	0.1214	0.0766	0.2215	-0.0073	-0.0287	-0.0293	-0.1822	-0.2543	-0.1436	-0.04	0.5482	0.7369	0.1854	0.4153	0.7788	0.0571	0.8553	1.0338	1.2121	1.1066	0.782	1.0522	0.722	0.6224	0.7212	0.2335	-0.1298	0.1668
-187.5	0.3654	0.0142	0.0791	0.0009	0.162	-0.0754	0.0633	0.0281	0.0177	-0.1307	0.016	0.1143	0.552	0.6363	-0.1298	0.1844	0.4581	-0.2322	0.6328	0.8477	1.0661	0.9366	0.6222	1.0475	0.7471	0.7383	0.7746	0.3103	-0.251	-0.0465
-183.5938	0.124	-0.1224	0.0251	-0.0623	0.1101	-0.1214	0.1527	0.0904	0.1929	0.01	0.1714	0.2666	0.5603	0.547	-0.3893	-0.0079	0.1896	-0.4428	0.4421	0.688	0.932	0.7896	0.4879	1.0256	0.7515	0.8287	0.8175	0.3829	-0.3332	-0.2151
-179.6875	-0.0804	-0.2246	-0.0357	-0.1077	0.0722	-0.1417	0.2374	0.1568	0.3352	0.1635	0.3181	0.4133	0.5737	0.4732	-0.5817	-0.1508	-0.0167	-0.5628	0.2919	0.563	0.8144	0.6727	0.3862	0.9859	0.734	0.8903	0.8483	0.4524	-0.3746	-0.3323
-175.7812	-0.2435	-0.2869	-0.0939	-0.1295	0.0558	-0.1352	0.3149	0.2248	0.4386	0.3211	0.4509	0.5499	0.5927	0.4191	-0.6995	-0.2352	-0.1548	-0.5896	0.1898	0.4805	0.7183	0.5918	0.3228	0.9314	0.6968	0.9227	0.8666	0.5197	-0.3775	-0.3953
-171.875	-0.361	-0.306	-0.1374	-0.1218	0.0677	-0.1025	0.383	0.291	0.5004	0.4713	0.5641	0.6706	0.617	0.389	-0.7392	-0.2551	-0.2231	-0.5296	0.1404	0.4463	0.648	0.5506	0.3007	0.8671	0.6445	0.927	0.8729	0.5847	-0.3459	-0.4051
-167.9688	-0.4271	-0.2803	-0.1544	-0.0802	0.1129	-0.046	0.44	0.351	0.5215	0.602	0.652	0.7689	0.6457	0.386	-0.7008	-0.208	-0.2247	-0.3966	0.1448	0.4634	0.607	0.5502	0.3193	0.7994	0.5831	0.9058	0.8678	0.6448	-0.2841	-0.3658
-164.0625	-0.4356	-0.2111	-0.1358	-0.0027	0.1925	0.0302	0.4848	0.4004	0.5061	0.7023	0.7097	0.8379	0.6768	0.4117	-0.5872	-0.0964	-0.167	-0.2089	0.1996	0.5308	0.5969	0.588	0.3743	0.7346	0.519	0.8615	0.851	0.6943	-0.1958	-0.284
-160.1562	-0.3801	-0.1017	-0.0768	0.1097	0.3038	0.1206	0.5171	0.4354	0.4609	0.7642	0.7332	0.8714	0.7069	0.4651	-0.4047	0.0726	-0.0602	0.0137	0.2978	0.6429	0.6171	0.6586	0.4587	0.678	0.458	0.7964	0.8218	0.7251	-0.0841	-0.1676
-156.25	-0.2559	0.0426	0.023	0.2523	0.4403	0.219	0.5369	0.4535	0.3936	0.784	0.7203	0.8645	0.7322	0.5424	-0.1623	0.2877	0.0844	0.2536	0.43	0.7901	0.665	0.7544	0.5638	0.633	0.404	0.7127	0.7782	0.7282	0.0478	-0.0246
-152.3438	-0.0617	0.2147	0.16	0.4173	0.5924	0.3187	0.5447	0.4541	0.312	0.7624	0.6708	0.815	0.7483	0.6367	0.1279	0.5345	0.2556	0.4968	0.5857	0.9595	0.7358	0.8661	0.6807	0.6005	0.3591	0.612	0.7185	0.6956	0.196	0.1375
-148.4375	0.1985	0.4065	0.3276	0.5951	0.7489	0.4135	0.5403	0.4375	0.2223	0.7039	0.5871	0.7235	0.7509	0.7387	0.4512	0.7968	0.4439	0.7335	0.7551	1.1364	0.8222	0.9835	0.8015	0.5794	0.3233	0.4962	0.6411	0.6224	0.3552	0.3123
-144.5312	0.5143	0.6086	0.5171	0.7745	0.898	0.4978	0.5233	0.4052	0.1287	0.6158	0.4733	0.5943	0.7365	0.8373	0.7899	1.0579	0.6405	0.9569	0.9289	1.3054	0.9154	1.0959	0.9187	0.5659	0.2948	0.3674	0.5452	0.5081	0.5182	0.4933
-140.625	0.8677	0.8106	0.7182	0.9446	1.0286	0.5675	0.4929	0.3585	0.0327	0.5067	0.3354	0.4345	0.7025	0.9201	1.1244	1.3011	0.8368	1.1613	1.0975	1.4523	1.0048	1.1926	1.0257	0.5546	0.271	0.2285	0.4319	0.3575	0.676	0.6734
-136.7188	1.234	1.0014	0.9188	1.0953	1.1316	0.6202	0.4484	0.2994	-0.0661	0.3852	0.1806	0.254	0.6479	0.9759	1.434	1.5106	1.0225	1.3399	1.2505	1.5648	1.0792	1.2636	1.1154	0.5397	0.249	0.0837	0.3042	0.18	0.8184	0.8437
-132.8125	1.5832	1.17	1.106	1.2175	1.2008	0.6551	0.3899	0.2302	-0.1683	0.2599	0.0173	0.0643	0.5738	0.996	1.6983	1.6724	1.1855	1.4839	1.3764	1.6331	1.128	1.3002	1.1808	0.516	0.2269	-0.0613	0.1678	-0.0103	0.9356	0.9936
-128.9062	1.8833	1.3062	1.2663	1.3042	1.2329	0.6734	0.3199	0.1541	-0.2733	0.1387	-0.145	-0.122	0.4844	0.9766	1.8992	1.7755	1.3123	1.5832	1.4629	1.6511	1.1427	1.2971	1.2153	0.4809	0.2039	-0.1984	0.0313	-0.1969	1.0193	1.1123
-125	2.1044	1.4012	1.3868	1.3499	1.228	0.677	0.2432	0.0758	-0.3776	0.0294	-0.296	-0.2921	0.3866	0.9194	2.0228	1.8124	1.3902	1.6282	1.4995	1.6162	1.1181	1.2528	1.2138	0.4354	0.1812	-0.3181	-0.0941	-0.3621	1.0641	1.1897
-121.0938	2.2226	1.4487	1.456	1.3517	1.1883	0.6679	0.1666	0.001	-0.4741	-0.0608	-0.425	-0.4339	0.2893	0.8315	2.0609	1.7808	1.4101	1.6114	1.4796	1.53	1.0537	1.1702	1.1736	0.3833	0.1614	-0.4099	-0.1962	-0.489	1.0681	1.2181
-117.1875	2.2236	1.4443	1.465	1.309	1.117	0.6469	0.098	-0.0644	-0.5534	-0.1255	-0.5224	-0.5377	0.2018	0.7233	2.0113	1.6829	1.3684	1.5296	1.4021	1.3971	0.9529	1.056	1.0949	0.3307	0.1477	-0.464	-0.2637	-0.5644	1.0329	1.1933
-113.2812	2.1049	1.3862	1.4084	1.2235	1.0174	0.613	0.0446	-0.115	-0.6051	-0.1605	-0.5804	-0.5968	0.1313	0.6062	1.8779	1.5256	1.2678	1.385	1.2722	1.2246	0.8223	0.9191	0.9804	0.2837	0.1428	-0.4734	-0.2888	-0.5806	0.9627	1.1148
-109.375	1.8756	1.274	1.2854	1.0993	0.8923	0.5638	0.011	-0.1476	-0.6205	-0.1649	-0.5949	-0.6089	0.0815	0.4891	1.6694	1.3192	1.1156	1.1848	1.0997	1.0205	0.6701	0.7684	0.8353	0.2459	0.1471	-0.4365	-0.2698	-0.5372	0.863	0.9855
-105.4688	1.5552	1.1097	1.0998	0.9419	0.7434	0.4962	-0.002	-0.1614	-0.5946	-0.1421	-0.5654	-0.5765	0.0514	0.3769	1.3982	1.0756	0.9219	0.9406	0.8966	0.7923	0.5036	0.6107	0.6656	0.2172	0.1583	-0.3575	-0.2124	-0.442	0.7394	0.8119
-101.5625	1.1709	0.8978	0.8601	0.7579	0.5725	0.4075	0.0027	-0.1581	-0.5276	-0.0997	-0.4961	-0.5067	0.035	0.2697	1.0791	0.8072	0.6969	0.6672	0.6748	0.5464	0.3281	0.4495	0.4782	0.1927	0.1712	-0.2473	-0.1291	-0.3104	0.597	0.6027
-97.6562	0.7537	0.6458	0.5791	0.5538	0.382	0.2971	0.0184	-0.1422	-0.4253	-0.0488	-0.3951	-0.41	0.0231	0.1636	0.7281	0.5255	0.4493	0.3805	0.4442	0.2884	0.1463	0.2849	0.2799	0.1636	0.178	-0.1216	-0.0382	-0.1626	0.4398	0.3686
-93.75	0.3343	0.3654	0.2734	0.3368	0.1762	0.168	0.0365	-0.1192	-0.2981	-0.0019	-0.2731	-0.2992	0.0052	0.0527	0.3624	0.2413	0.1864	0.0966	0.2115	0.0234	-0.0412	0.1146	0.0769	0.119	0.1707	0.0011	0.04	-0.0206	0.2718	0.1219
-89.8438	-0.0598	0.0724	-0.0375	0.1151	-0.0371	0.0268	0.0485	-0.0945	-0.1589	0.029	-0.142	-0.187	-0.0277	-0.0682	0.0005	-0.0352	-0.084	-0.1699	-0.0181	-0.242	-0.2343	-0.0644	-0.1253	0.0491	0.142	0.1024	0.0867	0.0958	0.0982	-0.1243
-85.9375	-0.4071	-0.2129	-0.3319	-0.1018	-0.2471	-0.116	0.0481	-0.072	-0.0205	0.0358	-0.013	-0.0846	-0.0815	-0.2018	-0.3388	-0.2935	-0.3521	-0.4067	-0.2401	-0.4991	-0.4307	-0.2531	-0.3217	-0.053	0.0871	0.1665	0.088	0.1722	-0.0732	-0.3556
-82.0312	-0.6927	-0.4686	-0.5886	-0.3026	-0.4404	-0.2478	0.0319	-0.0532	0.1067	0.0151	0.1044	-0.0001	-0.1571	-0.3464	-0.6364	-0.5225	-0.6045	-0.6046	-0.4492	-0.7369	-0.6249	-0.4497	-0.5083	-0.1884	0.0046	0.1825	0.0379	0.202	-0.2318	-0.5575
-78.125	-0.909	-0.6738	-0.789	-0.4755	-0.6036	-0.3559	0.0003	-0.0374	0.2153	-0.0303	0.2033	0.0615	-0.2509	-0.4967	-0.8757	-0.7116	-0.8252	-0.7579	-0.6393	-0.9437	-0.808	-0.6488	-0.6815	-0.3526	-0.1036	0.1452	-0.061	0.1865	-0.3656	-0.7163
-74.2188	-1.0551	-0.8129	-0.921	-0.6098	-0.7257	-0.4308	-0.0434	-0.0231	0.3017	-0.093	0.2788	0.0987	-0.3558	-0.6441	-1.0444	-0.852	-0.9984	-0.8648	-0.8038	-1.1093	-0.9691	-0.8423	-0.8381	-0.5356	-0.2324	0.0564	-0.198	0.1335	-0.4636	-0.8218
-70.3125	-1.1365	-0.8797	-0.9816	-0.6987	-0.801	-0.4673	-0.0944	-0.0094	0.3646	-0.1629	0.3279	0.1124	-0.4632	-0.7787	-1.1382	-0.9392	-1.1112	-0.9274	-0.9376	-1.2269	-1.0977	-1.0213	-0.9753	-0.7241	-0.3746	-0.0761	-0.3569	0.0556	-0.5191	-0.869
-66.4062	-1.1637	-0.8785	-0.9777	-0.7408	-0.8301	-0.4666	-0.1475	0.0037	0.4038	-0.2292	0.3485	0.1052	-0.5642	-0.8913	-1.1611	-0.9746	-1.157	-0.9512	-1.0379	-1.2957	-1.1863	-1.1776	-1.0906	-0.903	-0.521	-0.2389	-0.5184	-0.0331	-0.5314	-0.8599
-62.5	-1.1506	-0.824	-0.9244	-0.7409	-0.8202	-0.4349	-0.1986	0.0141	0.4198	-0.2826	0.3402	0.0812	-0.6512	-0.9745	-1.1258	-0.9657	-1.137	-0.944	-1.1047	-1.3205	-1.232	-1.3049	-1.1813	-1.0579	-0.6617	-0.4144	-0.6636	-0.119	-0.5065	-0.8036
-58.5938	-1.1127	-0.738	-0.8423	-0.7092	-0.783	-0.3826	-0.2446	0.0189	0.4125	-0.3173	0.3043	0.0454	-0.7182	-1.0238	-1.0513	-0.9252	-1.06	-0.9147	-1.1406	-1.311	-1.2372	-1.399	-1.2449	-1.1767	-0.7862	-0.5827	-0.776	-0.1908	-0.456	-0.715
-54.6875	-1.0648	-0.6449	-0.7528	-0.6596	-0.7326	-0.3221	-0.2842	0.0143	0.382	-0.3311	0.2442	0.0033	-0.7615	-1.038	-0.9583	-0.8692	-0.9412	-0.872	-1.1503	-1.2801	-1.2083	-1.4583	-1.2791	-1.2507	-0.8841	-0.7242	-0.8444	-0.2408	-0.3945	-0.6113
-50.7812	-1.0187	-0.5666	-0.6746	-0.6072	-0.683	-0.2654	-0.3175	-0.0027	0.3289	-0.3263	0.165	-0.04	-0.7798	-1.0195	-0.8663	-0.8141	-0.7998	-0.8231	-1.1395	-1.2409	-1.1548	-1.483	-1.2827	-1.2755	-0.947	-0.8225	-0.8638	-0.2658	-0.3372	-0.5095
-46.875	-0.9821	-0.5183	-0.6199	-0.5655	-0.6456	-0.2223	-0.3458	-0.0345	0.2555	-0.3086	0.073	-0.0802	-0.774	-0.9735	-0.7888	-0.7742	-0.6565	-0.7733	-1.1145	-1.2049	-1.0872	-1.4752	-1.2561	-1.2512	-0.9686	-0.8667	-0.8362	-0.2672	-0.2966	-0.4226
-42.9688	-0.9575	-0.506	-0.5934	-0.5449	-0.6279	-0.1993	-0.3709	-0.0814	0.1662	-0.2854	-0.0249	-0.1155	-0.748	-0.9081	-0.7328	-0.7596	-0.5303	-0.7253	-1.0814	-1.1799	-1.016	-1.4383	-1.2019	-1.183	-0.9468	-0.8535	-0.7705	-0.2509	-0.2806	-0.3579
-39.0625	-0.9432	-0.5264	-0.592	-0.5506	-0.633	-0.1991	-0.3945	-0.1421	0.0683	-0.2646	-0.1225	-0.1458	-0.7077	-0.8329	-0.6979	-0.7745	-0.4367	-0.68	-1.0463	-1.1699	-0.9508	-1.3774	-1.1252	-1.0805	-0.8844	-0.7879	-0.6807	-0.2263	-0.2917	-0.3163
-35.1562	-0.9348	-0.5694	-0.6069	-0.5834	-0.6594	-0.2209	-0.4179	-0.2124	-0.0287	-0.2519	-0.214	-0.1735	-0.6611	-0.7587	-0.6787	-0.8179	-0.3862	-0.637	-1.0156	-1.175	-0.8998	-1.2994	-1.0332	-0.957	-0.7888	-0.6826	-0.5834	-0.2048	-0.3264	-0.2939
-31.25	-0.9278	-0.6217	-0.6261	-0.6398	-0.703	-0.261	-0.4408	-0.2863	-0.1141	-0.25	-0.2943	-0.2018	-0.6173	-0.6961	-0.6674	-0.8844	-0.384	-0.5953	-0.9959	-1.1932	-0.8702	-1.2132	-0.9349	-0.8281	-0.672	-0.5552	-0.4951	-0.1972	-0.3765	-0.2836
-27.3438	-0.9193	-0.6715	-0.6385	-0.7142	-0.7576	-0.3139	-0.4615	-0.3555	-0.1773	-0.2573	-0.3587	-0.2339	-0.585	-0.6543	-0.6578	-0.9663	-0.4304	-0.5551	-0.9939	-1.2223	-0.868	-1.1294	-0.8407	-0.7095	-0.5486	-0.4253	-0.4289	-0.2117	-0.4304	-0.2778
-23.4375	-0.9098	-0.712	-0.6366	-0.7996	-0.8167	-0.3732	-0.477	-0.4103	-0.209	-0.2683	-0.4025	-0.2714	-0.5709	-0.6404	-0.6471	-1.056	-0.5218	-0.5187	-1.0167	-1.261	-0.8972	-1.06	-0.7619	-0.615	-0.4342	-0.3114	-0.3928	-0.2521	-0.4756	-0.2719
-19.5312	-0.9031	-0.7428	-0.6193	-0.8898	-0.8745	-0.4325	-0.4832	-0.4409	-0.2028	-0.2745	-0.4217	-0.3141	-0.5793	-0.6582	-0.6385	-1.1482	-0.6525	-0.4917	-1.0699	-1.31	-0.9601	-1.0172	-0.71	-0.5548	-0.3433	-0.2279	-0.3887	-0.3167	-0.5018	-0.2651
-15.625	-0.9061	-0.7705	-0.5915	-0.9796	-0.9264	-0.4864	-0.4766	-0.439	-0.1561	-0.2664	-0.4137	-0.3598	-0.611	-0.7083	-0.6409	-1.2408	-0.8155	-0.482	-1.1576	-1.3724	-1.0565	-1.0117	-0.6964	-0.534	-0.2877	-0.1837	-0.4139	-0.3994	-0.5023	-0.2618
-11.7188	-0.9275	-0.8061	-0.5629	-1.0665	-0.97	-0.5308	-0.4549	-0.399	-0.0709	-0.2358	-0.3779	-0.4052	-0.6643	-0.7885	-0.6671	-1.3358	-1.0036	-0.4989	-1.2811	-1.4532	-1.1843	-1.0516	-0.7299	-0.5532	-0.2752	-0.1822	-0.4621	-0.4912	-0.4757	-0.2702
-7.8125	-0.9754	-0.8619	-0.5449	-1.1503	-1.0053	-0.5643	-0.4185	-0.3203	0.0455	-0.1785	-0.317	-0.4463	-0.7356	-0.8946	-0.7307	-1.4382	-1.2095	-0.55	-1.4378	-1.5578	-1.3396	-1.1404	-0.8156	-0.609	-0.3083	-0.2214	-0.5259	-0.583	-0.4254	-0.2995
-3.9062	-1.0557	-0.9484	-0.5469	-1.2337	-1.0349	-0.5876	-0.3712	-0.2072	0.1818	-0.0949	-0.2369	-0.4803	-0.8203	-1.0211	-0.8425	-1.5539	-1.4253	-0.639	-1.6213	-1.6905	-1.5172	-1.2759	-0.9524	-0.6947	-0.3847	-0.2948	-0.5976	-0.667	-0.3582	-0.3575
0	-1.1699	-1.0706	-0.5732	-1.3212	-1.0633	-0.6037	-0.3198	-0.0695	0.3229	0.0087	-0.1464	-0.5052	-0.9136	-1.1614	-1.0065	-1.6876	-1.6417	-0.7639	-1.8219	-1.8525	-1.7107	-1.4499	-1.1319	-0.8021	-0.497	-0.3932	-0.6703	-0.7388	-0.2823	-0.4471
3.9062	-1.314	-1.2268	-0.6215	-1.4174	-1.0959	-0.6169	-0.2734	0.0786	0.4522	0.122	-0.0564	-0.5207	-1.0108	-1.3084	-1.2178	-1.8403	-1.8482	-0.9157	-2.0267	-2.0399	-1.9122	-1.6482	-1.3388	-0.9218	-0.6335	-0.5051	-0.7383	-0.7966	-0.2057	-0.5643
7.8125	-1.4787	-1.4076	-0.6833	-1.5255	-1.1374	-0.6322	-0.2416	0.22	0.5534	0.2319	0.0226	-0.527	-1.1072	-1.4541	-1.4623	-2.007	-2.0325	-1.0797	-2.2219	-2.243	-2.1116	-1.8527	-1.5524	-1.0439	-0.7802	-0.6185	-0.7965	-0.8404	-0.1351	-0.6982
11.7188	-1.6503	-1.597	-0.7466	-1.6445	-1.19	-0.6536	-0.2326	0.3378	0.6126	0.3259	0.0818	-0.5251	-1.1979	-1.5898	-1.7178	-2.1765	-2.1823	-1.2378	-2.3936	-2.4465	-2.2966	-2.0431	-1.75	-1.1588	-0.9219	-0.7217	-0.8407	-0.8708	-0.075	-0.8319
15.625	-1.8121	-1.7745	-0.7993	-1.7688	-1.2527	-0.6838	-0.2513	0.4174	0.6205	0.3941	0.1164	-0.5151	-1.2777	-1.7064	-1.9578	-2.3325	-2.2872	-1.3713	-2.5298	-2.6311	-2.4532	-2.2003	-1.9105	-1.2578	-1.0449	-0.8049	-0.8677	-0.8875	-0.0281	-0.9457
19.5312	-1.9472	-1.9186	-0.8329	-1.888	-1.3208	-0.7231	-0.2985	0.4486	0.5732	0.4307	0.1256	-0.497	-1.3417	-1.7957	-2.1556	-2.4565	-2.3405	-1.4636	-2.6219	-2.7769	-2.5678	-2.3093	-2.0179	-1.3339	-1.1382	-0.8615	-0.8758	-0.8893	0.0042	-1.0204
23.4375	-2.0404	-2.0107	-0.8449	-1.9892	-1.3871	-0.7699	-0.3708	0.4274	0.4724	0.4343	0.112	-0.4707	-1.386	-1.8518	-2.2886	-2.5311	-2.3408	-1.503	-2.666	-2.8668	-2.6292	-2.3612	-2.0636	-1.3829	-1.1954	-0.8885	-0.8654	-0.8753	0.021	-1.0416
27.3438	-2.0805	-2.0387	-0.8393	-2.0595	-1.4437	-0.8211	-0.4618	0.3554	0.325	0.4069	0.0805	-0.4376	-1.4089	-1.8721	-2.3416	-2.5435	-2.2932	-1.4839	-2.663	-2.8902	-2.6312	-2.3547	-2.0477	-1.4034	-1.2144	-0.8874	-0.8395	-0.8458	0.0209	-1.002
31.25	-2.0619	-1.9992	-0.8245	-2.0898	-1.4833	-0.873	-0.5638	0.2392	0.1415	0.3529	0.0359	-0.4008	-1.4112	-1.8582	-2.3084	-2.4886	-2.2073	-1.4069	-2.6187	-2.8452	-2.5737	-2.2953	-1.9776	-1.3975	-1.1972	-0.8629	-0.8028	-0.804	0.0028	-0.9032
35.1562	-1.9855	-1.8989	-0.8103	-2.0767	-1.5017	-0.9225	-0.669	0.0894	-0.066	0.2771	-0.0188	-0.3665	-1.397	-1.8157	-2.1921	-2.37	-2.0962	-1.2786	-2.5425	-2.7395	-2.4642	-2.1935	-1.8662	-1.3691	-1.149	-0.8217	-0.7617	-0.7558	-0.0337	-0.7548
39.0625	-1.8586	-1.7535	-0.8049	-2.0249	-1.4988	-0.9676	-0.7715	-0.0818	-0.285	0.1844	-0.0824	-0.3424	-1.3724	-1.7535	-2.004	-2.2002	-1.9733	-1.1101	-2.4457	-2.5891	-2.316	-2.0629	-1.7282	-1.3238	-1.0765	-0.7716	-0.7222	-0.7091	-0.0871	-0.5728
42.9688	-1.694	-1.5854	-0.8128	-1.9457	-1.479	-1.0081	-0.8674	-0.2612	-0.5044	0.0792	-0.1561	-0.3371	-1.3448	-1.6825	-1.7622	-1.9991	-1.8509	-0.9155	-2.3395	-2.4167	-2.1473	-1.9172	-1.5785	-1.2672	-0.9871	-0.7192	-0.6892	-0.6721	-0.1531	-0.3764
46.875	-1.5095	-1.4194	-0.8348	-1.8557	-1.4505	-1.0455	-0.9548	-0.4368	-0.7139	-0.034	-0.2414	-0.3576	-1.3211	-1.6142	-1.4901	-1.7909	-1.7384	-0.7102	-2.2342	-2.2469	-1.9783	-1.7685	-1.4294	-1.2044	-0.8877	-0.6698	-0.6654	-0.6505	-0.2246	-0.185
50.7812	-1.3256	-1.2793	-0.8682	-1.7731	-1.4236	-1.0816	-1.0333	-0.5977	-0.9046	-0.1496	-0.3393	-0.4067	-1.3068	-1.5589	-1.2135	-1.6011	-1.6425	-0.5093	-2.1378	-2.1034	-1.8283	-1.6266	-1.2905	-1.1394	-0.7842	-0.6259	-0.6508	-0.6458	-0.2938	-0.0153
54.6875	-1.1648	-1.1844	-0.9092	-1.7145	-1.4085	-1.1185	-1.1023	-0.7355	-1.0675	-0.261	-0.4476	-0.4814	-1.3049	-1.5244	-0.9598	-1.4523	-1.5669	-0.327	-2.0568	-2.0042	-1.7129	-1.4988	-1.1682	-1.0747	-0.6813	-0.5871	-0.6429	-0.6538	-0.3537	0.1195
58.5938	-1.0496	-1.147	-0.9544	-1.6916	-1.4127	-1.1574	-1.1608	-0.8438	-1.1937	-0.3597	-0.5596	-0.5721	-1.3155	-1.5151	-0.7554	-1.3617	-1.514	-0.1759	-1.9966	-1.9605	-1.6421	-1.3902	-1.0674	-1.0119	-0.5825	-0.5498	-0.6373	-0.6642	-0.402	0.21
62.5	-1.001	-1.173	-1.0037	-1.711	-1.4402	-1.1995	-1.2071	-0.9186	-1.2739	-0.4364	-0.6642	-0.6635	-1.3364	-1.532	-0.6248	-1.3394	-1.4858	-0.0679	-1.9626	-1.975	-1.6202	-1.3057	-0.9921	-0.9525	-0.4903	-0.5081	-0.6286	-0.6632	-0.442	0.2496
66.4062	-1.0371	-1.2626	-1.0616	-1.7746	-1.4917	-1.2462	-1.2394	-0.9582	-1.2999	-0.4823	-0.7462	-0.7373	-1.3647	-1.5737	-0.5883	-1.389	-1.4865	-0.0145	-1.9613	-2.0449	-1.6466	-1.2506	-0.9469	-0.8986	-0.4067	-0.4547	-0.6118	-0.6357	-0.4841	0.2328
70.3125	-1.1715	-1.4137	-1.1382	-1.8822	-1.566	-1.3003	-1.2568	-0.9638	-1.2664	-0.4911	-0.7894	-0.776	-1.3985	-1.6389	-0.662	-1.5097	-1.5237	-0.0268	-2.001	-2.1641	-1.7185	-1.2325	-0.9385	-0.8543	-0.3343	-0.3833	-0.5845	-0.5702	-0.5445	0.1546
74.2188	-1.4134	-1.6248	-1.2488	-2.0341	-1.6629	-1.3679	-1.2617	-0.9396	-1.1725	-0.4616	-0.7798	-0.7673	-1.4393	-1.7281	-0.857	-1.7	-1.6105	-0.1164	-2.093	-2.3284	-1.8343	-1.262	-0.9759	-0.8267	-0.2766	-0.29	-0.5483	-0.462	-0.643	0.0098
78.125	-1.7679	-1.8973	-1.4121	-2.2346	-1.7858	-1.4583	-1.2599	-0.8929	-1.0235	-0.3989	-0.7099	-0.7069	-1.4931	-1.8463	-1.1801	-1.9611	-1.7652	-0.2947	-2.251	-2.5389	-1.9959	-1.3532	-1.071	-0.8258	-0.2381	-0.1748	-0.5091	-0.3151	-0.7995	-0.2071
82.0312	-2.237	-2.2368	-1.6473	-2.4918	-1.9426	-1.5843	-1.2621	-0.8342	-0.8305	-0.3145	-0.5802	-0.5999	-1.5704	-2.0025	-1.6354	-2.2992	-2.0104	-0.5724	-2.491	-2.8038	-2.2104	-1.5215	-1.237	-0.8641	-0.224	-0.0418	-0.4767	-0.1419	-1.0302	-0.5013
85.9375	-2.8203	-2.6515	-1.9707	-2.8171	-2.1451	-1.7602	-1.2814	-0.776	-0.6096	-0.2246	-0.3999	-0.4586	-1.6838	-2.2087	-2.2239	-2.7244	-2.3686	-0.9576	-2.828	-3.1371	-2.4882	-1.7811	-1.4853	-0.9533	-0.2381	0.1026	-0.4624	0.0407	-1.3446	-0.8762
89.8438	-3.5147	-3.1494	-2.3918	-3.2213	-2.4059	-1.9985	-1.3307	-0.7308	-0.3783	-0.146	-0.1844	-0.2985	-1.844	-2.4747	-2.9423	-3.2476	-2.856	-1.4527	-3.2722	-3.5542	-2.8398	-2.1396	-1.8218	-1.1012	-0.2808	0.252	-0.4746	0.216	-1.7433	-1.3315
93.75	-4.3123	-3.7326	-2.9101	-3.7094	-2.7335	-2.3056	-1.4189	-0.7093	-0.1533	-0.092	0.0479	-0.1328	-2.0544	-2.8033	-3.7802	-3.8736	-3.475	-2.0506	-3.8232	-4.0651	-3.2697	-2.5925	-2.2421	-1.3073	-0.3474	0.4019	-0.5154	0.3732	-2.2171	-1.8601
97.6562	-5.1972	-4.3923	-3.5124	-4.2748	-3.1269	-2.6774	-1.5461	-0.7173	0.0528	-0.0675	0.2807	0.0323	-2.3068	-3.1847	-4.716	-4.5948	-4.2087	-2.7306	-4.4652	-4.667	-3.7706	-3.1196	-2.7279	-1.5595	-0.4273	0.5518	-0.5774	0.5108	-2.7469	-2.446
101.5625	-6.1416	-5.1042	-4.1713	-4.8948	-3.571	-3.0966	-1.7012	-0.7546	0.2334	-0.0667	0.5033	0.2008	-2.5788	-3.5931	-5.7133	-5.3847	-5.0169	-3.4565	-5.1638	-5.3382	-4.3195	-3.6827	-3.2458	-1.8329	-0.5052	0.7047	-0.6423	0.6389	-3.3038	-3.0617
105.4688	-7.1034	-5.8265	-4.8459	-5.5291	-4.0346	-3.5314	-1.8604	-0.8142	0.3878	-0.0718	0.7132	0.3879	-2.834	-3.9871	-6.7202	-6.1957	-5.8381	-4.1772	-5.8654	-6.0355	-4.8755	-4.228	-3.7492	-2.0907	-0.5639	0.8661	-0.6827	0.778	-3.8508	-3.6685
109.375	-8.0265	-6.5014	-5.4839	-6.1213	-4.4717	-3.9376	-1.9894	-0.8829	0.5207	-0.0556	0.9165	0.6173	-3.0261	-4.3132	-7.6709	-6.9611	-6.5949	-4.8306	-6.5023	-6.696	-5.3826	-4.6913	-4.1826	-2.2889	-0.5875	1.0418	-0.6655	0.9554	-4.3447	-4.2177
113.2812	-8.8437	-7.0602	-6.0261	-6.6047	-4.8256	-4.2633	-2.048	-0.9431	0.6398	0.0148	1.1266	0.9167	-3.1051	-4.5131	-8.4915	-7.6015	-7.2037	-5.3496	-6.9994	-7.2434	-5.7752	-5.0066	-4.4892	-2.3819	-0.5648	1.2359	-0.5575	1.2	-4.7388	-4.6555
117.1875	-9.4833	-7.4319	-6.4131	-6.9114	-5.0368	-4.4555	-1.9963	-0.9761	0.7535	0.1714	1.3598	1.3114	-3.0259	-4.5328	-9.1076	-8.036	-7.5868	-5.6713	-7.2851	-7.5987	-5.9869	-5.1158	-4.6188	-2.3304	-0.4917	1.4484	-0.3316	1.5362	-4.987	-4.9286
121.0938	-9.8779	-7.5544	-6.593	-6.9828	-5.0527	-4.4685	-1.8029	-0.9647	0.8682	0.4392	1.6309	1.8176	-2.7558	-4.3323	-9.4539	-8.1949	-7.6849	-5.7453	-7.3027	-7.6924	-5.9612	-4.9781	-4.5359	-2.1083	-0.3727	1.6739	0.0275	1.9775	-5.0488	-4.9918
125	-9.9745	-7.3864	-6.5292	-6.7803	-4.8369	-4.2722	-1.4519	-0.8975	0.9858	0.8295	1.9473	2.4357	-2.2825	-3.8933	-9.4842	-8.0327	-7.4676	-5.5425	-7.0211	-7.478	-5.6613	-4.5781	-4.2265	-1.7091	-0.2208	1.901	0.5187	2.5214	-4.8947	-4.8159
128.9062	-9.7444	-6.9166	-6.2073	-6.294	-4.3776	-3.8578	-0.9475	-0.7709	1.1026	1.3358	2.3052	3.1478	-1.6173	-3.225	-9.1791	-7.5386	-6.94	-5.0607	-6.4418	-6.9417	-5.0787	-3.9297	-3.7014	-1.1482	-0.0556	2.1127	1.1221	3.1472	-4.5111	-4.3931
132.8125	-9.1892	-6.1679	-5.6382	-5.5462	-3.6913	-3.2415	-0.3153	-0.5904	1.2099	1.9329	2.6877	3.9164	-0.7959	-2.3638	-8.5505	-6.7402	-6.143	-4.3264	-5.6014	-6.1075	-4.2372	-3.075	-2.9955	-0.463	0.0996	2.2878	1.8004	3.8168	-3.9044	-3.7407
136.7188	-8.3429	-5.1954	-4.8566	-4.5888	-2.822	-2.4625	0.4001	-0.3699	1.295	2.579	3.0657	4.6892	0.1263	-1.3696	-7.6411	-5.7014	-5.1468	-3.3921	-4.5661	-5.0353	-3.1909	-2.0787	-2.1627	0.2933	0.2218	2.4042	2.5034	4.479	-3.1016	-2.899
140.625	-7.2676	-4.0783	-3.916	-3.496	-1.8348	-1.5777	1.1423	-0.1291	1.3442	3.2219	3.4028	5.4057	1.0813	-0.3166	-6.5186	-4.5115	-4.0397	-2.3295	-3.4222	-3.8121	-2.0176	-1.0181	-1.2675	1.0586	0.2921	2.4424	3.1751	5.0773	-2.1483	-1.9262
144.5312	-6.0448	-2.9069	-2.8801	-2.3527	-0.8066	-0.6524	1.8511	0.1094	1.3458	3.8068	3.6611	6.0063	1.9982	0.7165	-5.2663	-3.2715	-2.9138	-1.2192	-2.2617	-2.5378	-0.8076	0.0286	-0.3756	1.772	0.2995	2.3893	3.762	5.5585	-1.104	-0.8905
148.4375	-4.7635	-1.7682	-1.8146	-1.2418	0.1854	0.2486	2.4714	0.3246	1.2921	4.2854	3.8089	6.4415	2.813	1.6576	-3.9722	-2.0775	-1.8514	-0.1401	-1.1683	-1.3111	0.349	0.992	0.4552	2.3819	0.2428	2.2408	4.2209	5.8807	-0.0346	0.1392
152.3438	-3.5086	-0.7349	-0.7798	-0.2335	1.0739	1.0695	2.9612	0.4998	1.1823	4.6225	3.8268	6.6789	3.4761	2.4497	-2.7183	-1.008	-0.9145	0.8402	-0.2074	-0.2153	1.3736	1.8199	1.1803	2.8526	0.1307	2.0038	4.5245	6.0201	0.9949	1.1011
156.25	-2.352	0.1425	0.1737	0.6214	1.8087	1.7692	3.2957	0.6253	1.0224	4.8014	3.7116	6.7082	3.9572	3.0555	-1.574	-0.1163	-0.141	1.671	0.5794	0.6901	2.208	2.4798	1.7719	3.1671	-0.0204	1.6961	4.6639	5.9739	1.9268	1.9457
160.1562	-1.3475	0.8367	1.0068	1.2936	2.3603	2.3229	3.4693	0.6992	0.8252	4.8251	3.4781	6.5415	4.2463	3.4588	-0.592	0.5712	0.4543	2.3209	1.1741	1.3729	2.8182	2.9587	2.2173	3.3262	-0.189	1.3444	4.6484	5.7596	2.7158	2.6378
164.0625	-0.5301	1.3408	1.6906	1.773	2.7183	2.7208	3.4932	0.7271	0.6086	4.7142	3.156	6.2103	4.3515	3.6625	0.1925	1.0503	0.8737	2.7761	1.5768	1.8254	3.1937	3.2592	2.5165	3.3455	-0.3531	0.9807	4.5019	5.4113	3.3311	3.1565
167.9688	0.0823	1.6616	2.2055	2.0639	2.8886	2.9651	3.3916	0.7198	0.3933	4.5022	2.7856	5.7601	4.2944	3.6836	0.7603	1.3324	1.1293	3.0376	1.7995	2.0595	3.3441	3.3945	2.678	3.2503	-0.4938	0.6376	4.2574	4.973	3.7564	3.493
171.875	0.4857	1.8133	2.5397	2.179	2.8876	3.0663	3.1959	0.6918	0.2009	4.2289	2.4109	5.2424	4.1048	3.5482	1.1059	1.4366	1.2362	3.1164	1.8599	2.0991	3.2929	3.3838	2.7152	3.0697	-0.5978	0.3436	3.9514	4.4916	3.9891	3.6485
175.7812	0.6867	1.8117	2.6889	2.1352	2.7374	3.039	2.9392	0.6586	0.0513	3.9335	2.0734	4.7074	3.8148	3.2867	1.236	1.3834	1.2076	3.0298	1.7765	1.9728	3.0713	3.2479	2.6436	2.8317	-0.6591	0.1191	3.6181	4.0096	4.0379	3.6319
179.6875	0.6992	1.671	2.656	1.9499	2.4612	2.8989	2.6516	0.6341	-0.0383	3.6486	1.8059	4.1973	3.4543	2.929	1.1657	1.1912	1.0529	2.798	1.5662	1.7088	2.7124	3.0065	2.4784	2.5597	-0.6797	-0.0263	3.2848	3.56	3.9203	3.458
183.5938	0.5414	1.4022	2.4514	1.6388	2.0802	2.661	2.3559	0.6291	-0.0559	3.396	1.6292	3.7422	3.0473	2.5008	0.9158	0.8741	0.778	2.4411	1.2427	1.3304	2.2462	2.6759	2.2335	2.2698	-0.6682	-0.0946	2.9694	3.1634	3.6602	3.1457
187.5	0.2325	1.0134	2.0917	1.2149	1.6117	2.338	2.0655	0.6489	0.0044	3.184	1.5498	3.3575	2.6094	2.0214	0.5094	0.4418	0.386	1.9775	0.8167	0.8537	1.6965	2.2677	1.9199	1.9695	-0.6391	-0.098	2.6788	2.8276	3.2845	2.7163
191.4062	-0.2101	0.5102	1.5978	0.6884	1.0678	1.9399	1.7841	0.693	0.1406	3.0087	1.5611	3.045	2.1475	1.5017	-0.0317	-0.0994	-0.1204	1.4235	0.2956	0.2869	1.0786	1.7885	1.5448	1.6585	-0.6099	-0.0562	2.4098	2.5492	2.8209	2.1913
195.3125	-0.7724	-0.1028	0.993	0.067	0.4562	1.4742	1.5062	0.7546	0.3427	2.8556	1.6459	2.7958	1.6606	0.9444	-0.6886	-0.7452	-0.7367	0.7925	-0.3146	-0.3683	0.3994	1.2406	1.112	1.3301	-0.599	0.0071	2.1515	2.3171	2.2957	1.5918
199.2188	-1.4434	-0.8202	0.3008	-0.6427	-0.2185	0.9471	1.2206	0.8218	0.5929	2.7053	1.7806	2.5951	1.143	0.3465	-1.445	-1.4913	-1.4549	0.0974	-1.0077	-1.1137	-0.3405	0.6242	0.6226	0.9743	-0.6227	0.069	1.8892	2.1162	1.7327	0.9385
203.125	-2.2141	-1.6338	-0.4563	-1.433	-0.9525	0.365	0.9146	0.8801	0.8676	2.5382	1.9398	2.4276	0.5886	-0.2976	-2.2854	-2.3304	-2.2613	-0.6486	-1.7752	-1.9502	-1.1435	-0.0592	0.0779	0.5815	-0.6915	0.1111	1.6093	1.9321	1.1529	0.2517
207.0312	-3.0736	-2.5303	-1.2566	-2.2936	-1.7402	-0.2643	0.5776	0.9141	1.1407	2.3396	2.1009	2.2817	-0.0053	-0.9913	-3.1927	-3.2502	-3.1361	-1.4298	-2.6042	-2.874	-2.0103	-0.8034	-0.5179	0.1469	-0.8085	0.1231	1.3036	1.755	0.5747	-0.4469
210.9375	-4.0069	-3.4899	-2.0788	-3.2095	-2.572	-0.93	0.2049	0.9102	1.3873	2.1038	2.2468	2.1527	-0.6344	-1.7324	-4.1462	-4.2323	-4.0536	-2.2275	-3.4766	-3.8729	-2.9358	-1.5954	-1.1553	-0.3264	-0.9673	0.104	0.9727	1.5819	0.0142	-1.1347
214.8438	-4.9923	-4.4861	-2.9022	-4.1607	-3.4335	-1.6189	-0.2004	0.8585	1.5873	1.8345	2.3684	2.0435	-1.2854	-2.5097	-5.1206	-5.2517	-4.984	-3.0201	-4.3692	-4.9248	-3.9061	-2.414	-1.8182	-0.8259	-1.1527	0.0626	0.6268	1.4181	-0.5149	-1.7883
218.75	-6.0013	-5.4862	-3.7059	-5.1223	-4.3054	-2.3156	-0.6274	0.7536	1.7288	1.5447	2.464	1.9632	-1.9369	-3.3028	-6.088	-6.2782	-5.8961	-3.7838	-5.2547	-5.9985	-4.8972	-3.2313	-2.4838	-1.3303	-1.3429	0.0148	0.2855	1.2761	-1.0016	-2.3855
222.6562	-7.0001	-6.4546	-4.4706	-6.0661	-5.1642	-3.0035	-1.0588	0.5955	1.8087	1.2543	2.5385	1.9241	-2.561	-4.0836	-7.019	-7.2786	-6.76	-4.4954	-6.1041	-7.0561	-5.8763	-4.0148	-3.1249	-1.8119	-1.5124	-0.02	-0.0262	1.1734	-1.4379	-2.9071
226.5625	-7.9519	-7.3557	-5.1792	-6.9623	-5.9845	-3.6663	-1.473	0.3891	1.8321	0.9861	2.6007	1.9378	-3.1267	-4.8186	-7.8858	-8.2193	-7.549	-5.1338	-6.8891	-8.0568	-6.8045	-4.7318	-3.7127	-2.2409	-1.6365	-0.0221	-0.2816	1.1281	-1.8192	-3.3393
230.4688	-8.8214	-8.1582	-5.8183	-7.7827	-6.7402	-4.2885	-1.8472	0.1436	1.8102	0.7626	2.6604	2.0112	-3.6041	-5.4733	-8.6633	-9.0689	-8.2408	-5.6824	-7.5841	-8.9611	-7.6418	-5.3524	-4.2207	-2.589	-1.695	0.0242	-0.4566	1.1553	-2.1447	-3.6756
234.375	-9.5787	-8.838	-6.3793	-8.5022	-7.4072	-4.8558	-2.1599	-0.1291	1.7571	0.6018	2.7256	2.1442	-3.9683	-6.0163	-9.3309	-9.8009	-8.8183	-6.1299	-8.1679	-9.7348	-8.3512	-5.8529	-4.6273	-2.8332	-1.6748	0.1285	-0.5343	1.263	-2.4178	-3.9179
238.2812	-10.2026	-9.3804	-6.8596	-9.1013	-7.9649	-5.3565	-2.3943	-0.4154	1.6864	0.5149	2.8002	2.3277	-4.2021	-6.423	-9.8722	-10.3953	-9.2692	-6.471	-8.6255	-10.3521	-8.9035	-6.2171	-4.9179	-2.959	-1.5716	0.2929	-0.5076	1.4493	-2.6455	-4.0759
242.1875	-10.683	-9.7809	-7.262	-9.5677	-8.3979	-5.7813	-2.5394	-0.7013	1.6094	0.5044	2.8825	2.5446	-4.2989	-6.6787	-10.2761	-10.8405	-9.5872	-6.7061	-8.9481	-10.7981	-9.2804	-6.4374	-5.0854	-2.9611	-1.3902	0.5122	-0.3801	1.7021	-2.8381	-4.1659
246.0938	-11.0209	-10.0454	-7.5942	-9.8971	-8.6976	-6.1241	-2.592	-0.9737	1.5332	0.5637	2.9658	2.771	-4.263	-6.7798	-10.5378	-11.1348	-9.7721	-6.8404	-9.1339	-11.0698	-9.476	-6.5147	-5.1307	-2.8448	-1.1424	0.7749	-0.1661	2	-3.0082	-4.2074
250	-11.2282	-10.1886	-7.8675	-10.0944	-8.8636	-6.3833	-2.5566	-1.221	1.4612	0.6788	3.0395	2.9797	-4.1094	-6.7346	-10.6606	-11.2864	-9.8316	-6.8837	-9.1881	-11.1771	-9.4983	-6.4578	-5.0616	-2.6242	-0.846	1.0655	0.1116	2.3156	-3.1695	-4.2212
253.9062	-11.3258	-10.2332	-8.0947	-10.1733	-8.9041	-6.5619	-2.4448	-1.4337	1.3939	0.8304	3.0916	3.1443	-3.8619	-6.5613	-10.6576	-11.3139	-9.782	-6.8497	-9.124	-11.1416	-9.3674	-6.2832	-4.8928	-2.3216	-0.5214	1.366	0.4251	2.6198	-3.3362	-4.2262
257.8125	-11.3407	-10.2074	-8.2885	-10.1562	-8.8358	-6.668	-2.2738	-1.605	1.3297	0.9975	3.1115	3.243	-3.5506	-6.2869	-10.5529	-11.2445	-9.6485	-6.7559	-8.9618	-10.9948	-9.1146	-6.0141	-4.6447	-1.9641	-0.1897	1.6582	0.7446	2.8855	-3.5225	-4.2391
261.7188	-11.3041	-10.1422	-8.4605	-10.0722	-8.6828	-6.7148	-2.0638	-1.7307	1.2676	1.161	3.0933	3.2625	-3.2081	-5.9437	-10.3811	-11.1121	-9.4639	-6.6237	-8.729	-10.7749	-8.7783	-5.6796	-4.3429	-1.5821	0.1291	1.9251	1.0418	3.0916	-3.7416	-4.2737
265.625	-11.2483	-10.0683	-8.6209	-9.9542	-8.4743	-6.7187	-1.8356	-1.8092	1.208	1.3071	3.0377	3.2005	-2.8656	-5.5661	-10.1845	-10.9535	-9.2662	-6.4778	-8.4585	-10.522	-8.401	-5.3126	-4.0169	-1.2054	0.4177	2.1517	1.2937	3.2251	-4.0055	-4.3419
269.5312	-11.2044	-10.0132	-8.7781	-9.8352	-8.2409	-6.6974	-1.6073	-1.8405	1.1548	1.4294	2.9534	3.0672	-2.5497	-5.1874	-10.0086	-10.8045	-9.0938	-6.3449	-8.1866	-10.2744	-8.0237	-4.9473	-3.6978	-0.8612	0.6618	2.3263	1.4839	3.2826	-4.3231	-4.454
273.4375	-11.1992	-9.9983	-8.9384	-9.7439	-8.0106	-6.6675	-1.3927	-1.8264	1.1147	1.5293	2.8568	2.8833	-2.2795	-4.8359	-9.8953	-10.6963	-8.9812	-6.2517	-7.9488	-10.0637	-7.6823	-4.6162	-3.4154	-0.5714	0.851	2.4404	1.6048	3.269	-4.699	-4.6178
277.3438	-11.2531	-10.0361	-9.1064	-9.7003	-7.8055	-6.6411	-1.1995	-1.7698	1.097	1.6147	2.7687	2.6773	-2.0647	-4.5321	-9.8761	-10.6515	-8.9533	-6.2213	-7.7763	-9.9118	-7.4025	-4.346	-3.1945	-0.3507	0.9792	2.4893	1.6568	3.1961	-5.1318	-4.8378
281.25	-11.3771	-10.1298	-9.2837	-9.7136	-7.6385	-6.6245	-1.0297	-1.6752	1.1108	1.697	2.7107	2.4803	-1.9054	-4.2871	-9.9671	-10.6817	-9.0215	-6.2688	-7.6906	-9.8289	-7.1973	-4.1545	-3.0517	-0.2051	1.0445	2.4723	1.6479	3.08	-5.6134	-5.1131
285.1562	-11.572	-10.273	-9.4686	-9.7806	-7.5128	-6.618	-0.8808	-1.5488	1.1625	1.7882	2.7	2.3203	-1.7933	-4.1016	-10.1658	-10.7864	-9.1827	-6.3986	-7.7003	-9.813	-7.0661	-4.0472	-2.9923	-0.1315	1.0497	2.3928	1.5925	2.938	-6.1287	-5.4363
289.0625	-11.8286	-10.4521	-9.6563	-9.887	-7.4221	-6.6165	-0.7471	-1.3985	1.2535	1.8979	2.7461	2.2181	-1.7137	-3.9667	-10.4526	-10.9541	-9.4197	-6.6022	-7.7988	-9.8508	-6.9951	-4.0168	-3.0091	-0.1176	1.0027	2.2596	1.5089	2.7875	-6.6572	-5.7928
292.9688	-12.1296	-10.6488	-9.8397	-10.0111	-7.3533	-6.6118	-0.6222	-1.2344	1.3792	2.0317	2.8485	2.1855	-1.6475	-3.8659	-10.795	-11.1646	-9.7048	-6.8588	-7.965	-9.9212	-6.9604	-4.0437	-3.0833	-0.1436	0.9161	2.0867	1.4185	2.645	-7.1754	-6.1629
296.875	-12.4528	-10.8427	-10.0108	-10.1272	-7.2898	-6.595	-0.4989	-1.0674	1.5304	2.1909	2.9981	2.2251	-1.5743	-3.7776	-11.1541	-11.3918	-10.004	-7.1385	-8.1661	-9.9978	-6.9325	-4.0988	-3.1868	-0.1839	0.8067	1.8936	1.3437	2.5262	-7.6598	-6.5243
300.7812	-12.7745	-11.0139	-10.162	-10.2101	-7.2139	-6.5579	-0.3703	-0.908	1.6957	2.3741	3.18	2.3326	-1.4737	-3.6777	-11.4912	-11.6073	-10.2819	-7.4073	-8.3623	-10.0531	-6.8801	-4.1474	-3.2869	-0.2105	0.6945	1.7042	1.3061	2.4458	-8.0902	-6.8553
304.6875	-13.0715	-11.1439	-10.2868	-10.2381	-7.1086	-6.4937	-0.2288	-0.7642	1.8649	2.5787	3.3778	2.499	-1.3275	-3.5424	-11.7732	-11.7819	-10.5053	-7.6316	-8.512	-10.0609	-6.7745	-4.1538	-3.3504	-0.1963	0.6007	1.5445	1.3247	2.4164	-8.4515	-7.1382
308.5938	-13.322	-11.216	-10.379	-10.1947	-6.9591	-6.3964	-0.0665	-0.6405	2.0313	2.8025	3.5763	2.7123	-1.1208	-3.3505	-11.9754	-11.8881	-10.646	-7.7838	-8.5776	-9.9981	-6.5927	-4.0868	-3.3488	-0.1185	0.5445	1.4385	1.4133	2.4471	-8.7351	-7.3611
312.5	-13.5062	-11.2153	-10.4323	-10.0688	-6.7528	-6.2606	0.1246	-0.5366	2.192	3.0438	3.7644	2.9592	-0.8439	-3.086	-12.0826	-11.9014	-10.6823	-7.8455	-8.5295	-9.8464	-6.3188	-3.9231	-3.2622	0.038	0.5411	1.4045	1.5791	2.5404	-8.9393	-7.519
316.4062	-13.6063	-11.1294	-10.4399	-9.8552	-6.4803	-6.0814	0.3508	-0.4487	2.3475	3.3008	3.9347	3.2248	-0.4935	-2.74	-12.0891	-11.8022	-10.6	-7.8095	-8.3497	-9.5926	-5.9462	-3.6513	-3.0819	0.2789	0.5985	1.4521	1.8206	2.6918	-9.0686	-7.6131
320.3125	-13.6085	-10.9492	-10.3947	-9.5538	-6.1362	-5.8549	0.6155	-0.3705	2.4987	3.5702	4.0832	3.4928	-0.0736	-2.3117	-11.9971	-11.578	-10.3928	-7.6798	-8.033	-9.2304	-5.4765	-3.2726	-2.8109	0.5998	0.7173	1.5798	2.128	2.8891	-9.1331	-7.6504
324.2188	-13.506	-10.6705	-10.2911	-9.1689	-5.72	-5.58	0.9175	-0.2954	2.6451	3.8466	4.2075	3.7468	0.4043	-1.8087	-11.8166	-11.2259	-10.0629	-7.4706	-7.5876	-8.7605	-4.92	-2.8002	-2.4631	0.9879	0.8899	1.7766	2.4843	3.1146	-9.1474	-7.6426
328.125	-13.3016	-10.2959	-10.1267	-8.7092	-5.2371	-5.2589	1.2509	-0.2182	2.7835	4.1227	4.3067	3.9725	0.9227	-1.2458	-11.564	-10.7532	-9.6212	-7.2034	-7.0329	-8.1913	-4.293	-2.257	-2.0601	1.4243	1.1028	2.0241	2.8687	3.3489	-9.1287	-7.605
332.0312	-13.01	-9.8351	-9.9041	-8.1867	-4.6984	-4.8982	1.6062	-0.1358	2.9081	4.3901	4.3811	4.1596	1.4614	-0.6425	-11.2614	-10.1779	-9.0872	-6.9039	-6.3973	-7.5378	-3.6155	-1.6707	-1.6275	1.8877	1.3398	2.301	3.2607	3.575	-9.096	-7.5558
335.9375	-12.6575	-9.3053	-9.6317	-7.6158	-4.1197	-4.5084	1.9715	-0.0479	3.0125	4.6421	4.4336	4.3053	2.0004	-0.0195	-10.9353	-9.5269	-8.4882	-6.5984	-5.7145	-6.8208	-2.9087	-1.0697	-1.1906	2.358	1.5845	2.5877	3.6439	3.7826	-9.0676	-7.5147
339.8438	-12.2791	-8.7293	-9.3229	-7.0128	-3.5199	-4.103	2.3355	0.0449	3.0915	4.8751	4.4703	4.4156	2.523	0.6039	-10.615	-8.8325	-7.8571	-6.311	-5.0196	-6.0644	-2.192	-0.4785	-0.771	2.8192	1.824	2.8695	4.0086	3.97	-9.0595	-7.501
343.75	-11.913	-8.1334	-8.9942	-6.3943	-2.9184	-3.6965	2.6892	0.1416	3.1441	5.0897	4.5012	4.5045	3.0185	1.213	-10.3294	-8.1286	-7.2294	-6.0605	-4.3454	-5.2934	-1.4816	0.085	-0.3844	3.261	2.05	3.1387	4.3531	4.144	-9.0829	-7.5313
347.6562	-11.5942	-7.5431	-8.6625	-5.7762	-2.3329	-3.3019	3.0273	0.2432	3.1752	5.2914	4.5388	4.5915	3.4822	1.7985	-10.1032	-7.4457	-6.6382	-5.8587	-3.7184	-4.5308	-0.7896	0.6109	-0.0394	3.6795	2.2594	3.394	4.6817	4.3177	-9.1416	-7.6163
351.5625	-11.3472	-6.9794	-8.3414	-5.1713	-1.7765	-2.9281	3.3491	0.3534	3.1963	5.4889	4.5965	4.6972	3.9158	2.3575	-9.9526	-6.8069	-6.1094	-5.7091	-3.1563	-3.7949	-0.1233	1.0976	0.2627	4.0761	2.4528	3.6384	5.0025	4.5061	-9.2308	-7.7582
355.4688	-11.1814	-6.4553	-8.0387	-4.5888	-1.2559	-2.5782	3.6581	0.4786	3.2237	5.6923	4.6858	4.8388	4.3254	2.892	-9.8821	-6.2248	-5.6575	-5.607	-2.6658	-3.0975	0.5144	1.5503	0.5267	4.4562	2.6334	3.8769	5.3236	4.7218	-9.3365	-7.949
359.375	-11.0886	-5.9749	-7.7546	-4.0329	-0.7718	-2.2489	3.9607	0.627	3.2758	5.9113	4.814	5.0257	4.7201	3.4077	-9.883	-5.7013	-5.2833	-5.5405	-2.2427	-2.4433	1.1235	1.9783	0.7621	4.8269	2.8044	4.1128	5.6502	4.9707	-9.4371	-8.1712
363.2812	-11.0448	-5.5329	-7.4822	-3.5035	-0.3191	-1.9318	4.2646	0.8066	3.3694	6.153	4.9829	5.2573	5.1092	3.9113	-9.9344	-5.2281	-4.9748	-5.4931	-1.8743	-1.8307	1.7062	2.3922	0.9806	5.1943	2.9677	4.346	5.983	5.2501	-9.5072	-8.4006
367.1875	-11.0154	-5.1174	-7.2094	-2.9968	0.1108	-1.6158	4.5765	1.0227	3.5157	6.4209	5.1876	5.5229	5.4997	4.4085	-10.0071	-4.7904	-4.7106	-5.4464	-1.5426	-1.2531	2.2653	2.8005	1.1936	5.5612	3.1232	4.5712	6.3174	5.5479	-9.5216	-8.6103
371.0938	-10.9623	-4.7132	-6.923	-2.5063	0.5276	-1.29	4.9001	1.2764	3.7181	6.7138	5.4181	5.8042	5.8947	4.9018	-10.069	-4.3703	-4.4648	-5.3841	-1.2289	-0.7011	2.8022	3.2073	1.4091	5.9258	3.2678	4.7788	6.6445	5.8451	-9.4606	-8.7763
375	-10.8524	-4.3055	-6.6117	-2.0252	0.9399	-0.9465	5.2354	1.5636	3.9713	7.0261	5.6607	6.0792	6.2924	5.3899	-10.0906	-3.9506	-4.2129	-5.2948	-0.9181	-0.1655	3.3174	3.611	1.6303	6.2808	3.3963	4.9566	6.9524	6.1194	-9.3134	-8.8816
378.9062	-10.6632	-3.8839	-6.2704	-1.5477	1.3534	-0.5824	5.5785	1.8749	4.2625	7.3486	5.9007	6.3266	6.6859	5.8668	-10.0508	-3.5181	-3.9376	-5.1737	-0.6016	0.3616	3.8092	4.004	1.8546	6.6145	3.5018	5.0916	7.2288	6.3495	-9.08	-8.9185
382.8125	-10.3873	-3.4439	-5.9006	-1.0711	1.7701	-0.2003	5.922	2.1976	4.5737	7.6698	6.1252	6.5302	7.0651	6.3236	-9.9394	-3.0655	-3.6312	-5.0228	-0.2787	0.8843	4.275	4.3748	2.0744	6.9124	3.5769	5.173	7.4627	6.5192	-8.7707	-8.8889
386.7188	-10.0322	-2.9883	-5.5112	-0.5965	2.1883	0.1925	6.2571	2.5178	4.8844	7.9779	6.325	6.6821	7.4184	6.7497	-9.7584	-2.5929	-3.2968	-4.85	0.0445	1.4029	4.7116	4.7101	2.2789	7.1607	3.6148	5.1939	7.6462	6.62	-8.4038	-8.8023
390.625	-9.6176	-2.5262	-5.1149	-0.1292	2.6032	0.5856	6.5749	2.8222	5.1749	8.2629	6.496	6.7829	7.7361	7.1349	-9.5202	-2.107	-2.9461	-4.6665	0.3568	1.9132	5.1164	4.9976	2.4566	7.3484	3.6105	5.1532	7.7757	6.6524	-8.0015	-8.6721
394.5312	-9.1712	-2.0716	-4.7264	0.322	3.0071	0.9675	6.8676	3.1004	5.4283	8.5174	6.6393	6.8416	8.0113	7.4706	-9.2441	-1.6203	-2.5966	-4.4839	0.6455	2.4075	5.487	5.2291	2.5987	7.4707	3.5621	5.0556	7.8517	6.6248	-7.5865	-8.5129
398.4375	-8.7229	-1.641	-4.3589	0.7451	3.3909	1.327	7.1293	3.3453	5.632	8.737	6.7591	6.8724	8.2411	7.7511	-8.9525	-1.1494	-2.2672	-4.312	0.8984	2.875	5.8216	5.4013	2.7009	7.529	3.4714	4.9117	7.8789	6.5516	-7.1795	-8.3376
402.3438	-8.3005	-1.2516	-4.0226	1.1272	3.7439	1.6546	7.3553	3.5531	5.779	8.9197	6.861	6.8913	8.4264	7.9732	-8.6672	-0.7133	-1.9761	-4.1579	1.1062	3.3031	6.1181	5.5164	2.7641	7.5312	3.3443	4.7358	7.8646	6.4499	-6.7968	-8.1558
406.25	-7.9254	-0.9186	-3.724	1.4554	4.0556	1.9428	7.5418	3.7228	5.8673	9.064	6.9495	6.9119	8.5695	8.1364	-8.4062	-0.331	-1.738	-4.0255	1.2626	3.6785	6.3738	5.5802	2.7936	7.4893	3.1898	4.544	7.8171	6.3365	-6.45	-7.9731
410.1562	-7.6106	-0.6535	-3.4663	1.7192	4.3156	2.1868	7.6849	3.8546	5.8992	9.1683	7.0257	6.9428	8.6731	8.2418	-8.182	-0.0194	-1.5635	-3.9158	1.3651	3.9893	6.5856	5.601	2.7973	7.416	3.0189	4.351	7.7443	6.2252	-6.145	-7.7914
414.0625	-7.3593	-0.4621	-3.2497	1.9117	4.5161	2.3839	7.7805	3.95	5.8802	9.2297	7.0868	6.9854	8.7377	8.2917	-8.0003	0.2096	-1.4585	-3.8273	1.4138	4.2259	6.75	5.5865	2.7834	7.3223	2.8424	4.1675	7.6514	6.1246	-5.8825	-7.6093
417.9688	-7.1654	-0.3445	-3.0725	2.031	4.6519	2.5336	7.8245	4.0107	5.8174	9.244	7.1265	7.0337	8.7614	8.2889	-7.86	0.3504	-1.4241	-3.7567	1.4115	4.3825	6.8639	5.5428	2.7585	7.2148	2.6695	3.9993	7.5407	6.0374	-5.6589	-7.4236
421.875	-7.0155	-0.2942	-2.9313	2.0807	4.7221	2.6372	7.8136	4.0387	5.7184	9.2058	7.1356	7.0751	8.7398	8.237	-7.7535	0.4052	-1.4562	-3.6983	1.3631	4.4579	6.9251	5.4736	2.7266	7.0952	2.5069	3.8468	7.4113	5.9608	-5.4673	-7.2295
425.7812	-6.8903	-0.2996	-2.8211	2.0692	4.7301	2.6976	7.7457	4.0366	5.5901	9.1106	7.104	7.093	8.6671	8.1398	-7.6672	0.3841	-1.5455	-3.6443	1.2754	4.456	6.933	5.3808	2.6898	6.9609	2.3591	3.7066	7.2601	5.8875	-5.2993	-7.0218
429.6875	-6.7678	-0.3449	-2.736	2.0089	4.6828	2.7188	7.6219	4.007	5.4383	8.9552	7.0226	7.07	8.5388	8.0019	-7.5833	0.3041	-1.6776	-3.5843	1.1576	4.3858	6.8891	5.266	2.6492	6.8076	2.2281	3.5733	7.0834	5.8073	-5.1464	-6.7953
433.5938	-6.626	-0.4122	-2.6688	1.9146	4.5902	2.7065	7.4462	3.9535	5.2673	8.7393	6.8852	6.991	8.353	7.829	-7.4814	0.1874	-1.833	-3.5069	1.0211	4.2608	6.7976	5.1318	2.606	6.6314	2.1149	3.4415	6.879	5.7093	-5.0006	-6.5453
437.5	-6.4454	-0.4836	-2.6122	1.8012	4.4643	2.6674	7.2262	3.8796	5.0809	8.4663	6.6896	6.8465	8.1125	7.6281	-7.3414	0.0582	-1.9895	-3.4004	0.879	4.0976	6.6645	4.9833	2.5628	6.4316	2.0198	3.3081	6.6473	5.5838	-4.8555	-6.268
441.4062	-6.2126	-0.5437	-2.5597	1.6822	4.3171	2.6086	6.9729	3.7888	4.8821	8.1428	6.4388	6.6345	7.8248	7.407	-7.1472	-0.0606	-2.1247	-3.2564	0.7451	3.9142	6.4979	4.8282	2.5234	6.2117	1.943	3.1725	6.3922	5.4236	-4.7076	-5.9622
445.3125	-5.9232	-0.5825	-2.5069	1.5672	4.1599	2.5369	6.699	3.6844	4.674	7.7793	6.1412	6.361	7.5022	7.1741	-6.8907	-0.1516	-2.2203	-3.0718	0.6319	3.7271	6.3062	4.6757	2.4924	5.9792	1.8837	3.0368	6.1213	5.2255	-4.5568	-5.6299
449.2188	-5.583	-0.5964	-2.4531	1.461	4.0017	2.4581	6.4186	3.5694	4.4598	7.3891	5.8105	6.0399	7.1604	6.9381	-6.5742	-0.2055	-2.2652	-2.8506	0.5489	3.5494	6.0977	4.535	2.473	5.7447	1.8406	2.905	5.8449	4.9915	-4.4073	-5.2774
453.125	-5.208	-0.5888	-2.4014	1.3637	3.8493	2.3762	6.1452	3.447	4.2438	6.9882	5.4648	5.6908	6.8168	6.7073	-6.2109	-0.2228	-2.2577	-2.604	0.5009	3.3889	5.8799	4.4133	2.4667	5.5196	1.8106	2.7817	5.5746	4.7285	-4.2668	-4.9152
457.0312	-4.8223	-0.5689	-2.3578	1.271	3.7064	2.2938	5.8909	3.3211	4.0311	6.5943	5.1246	5.3372	6.4885	6.4894	-5.8233	-0.2126	-2.2059	-2.3484	0.4867	3.2478	5.6592	4.3138	2.4715	5.314	1.7896	2.6713	5.3223	4.448	-4.1448	-4.5566
460.9375	-4.454	-0.5495	-2.3305	1.1759	3.574	2.2116	5.6654	3.1957	3.8275	6.2252	4.8103	5.0028	6.1899	6.2907	-5.4392	-0.191	-2.1266	-2.1027	0.4992	3.1224	5.4406	4.2348	2.4824	5.135	1.7729	2.5771	5.0984	4.1646	-4.0511	-4.2166
464.8438	-4.131	-0.5442	-2.3275	1.0702	3.4498	2.1285	5.474	3.0746	3.6387	5.8967	4.5392	4.7087	5.931	6.1146	-5.0875	-0.1773	-2.0423	-1.8841	0.5266	3.0044	5.2273	4.1702	2.4918	4.9857	1.7561	2.501	4.9104	3.8946	-3.9926	-3.9094
468.75	-3.8759	-0.5651	-2.355	0.9457	3.3288	2.0421	5.3173	2.9598	3.4685	5.6196	4.3227	4.4703	5.7157	5.9614	-4.793	-0.1906	-1.9772	-1.7063	0.5534	2.8826	5.0204	4.1099	2.4911	4.8647	1.7365	2.4436	4.7617	3.6537	-3.9716	-3.6465
472.6562	-3.7032	-0.6207	-2.4154	0.7962	3.2036	1.9489	5.1904	2.8506	3.3178	5.398	4.1645	4.2959	5.5407	5.8276	-4.5729	-0.246	-1.9536	-1.5773	0.5633	2.7451	4.8186	4.0421	2.4721	4.7668	1.7134	2.4041	4.6518	3.4552	-3.9846	-3.4349
476.5625	-3.6169	-0.7149	-2.5057	0.618	3.066	1.8447	5.0834	2.7429	3.1833	5.2285	4.0602	4.1853	5.397	5.7067	-4.4346	-0.3523	-1.9878	-1.4991	0.5415	2.5819	4.6191	3.9558	2.4288	4.6843	1.6886	2.3803	4.576	3.3083	-4.022	-3.2759
480.4688	-3.6106	-0.8466	-2.6178	0.4114	2.908	1.7257	4.9835	2.6303	3.0584	5.1014	3.998	4.131	5.2711	5.5906	-4.3748	-0.5101	-2.0876	-1.4677	0.4775	2.387	4.4187	3.8425	2.3587	4.6087	1.6652	2.3686	4.5267	3.2161	-4.0693	-3.1649
484.375	-3.6688	-1.0101	-2.7389	0.1807	2.7245	1.5895	4.8775	2.5057	2.9341	5.0029	3.9621	4.1201	5.1487	5.4711	-4.3811	-0.7115	-2.2505	-1.4738	0.3677	2.1606	4.2156	3.6986	2.263	4.5319	1.6462	2.3643	4.4939	3.1755	-4.1092	-3.0915
488.2812	-3.7688	-1.1956	-2.8534	-0.0653	2.5148	1.4363	4.7545	2.3639	2.8015	4.9189	3.9356	4.1365	5.0169	5.3425	-4.4335	-0.9409	-2.4636	-1.5044	0.2166	1.9094	4.0105	3.526	2.1472	4.4472	1.6333	2.3614	4.467	3.1769	-4.1244	-3.0407
492.1875	-3.8846	-1.39	-2.9458	-0.3139	2.284	1.2701	4.6087	2.2033	2.6537	4.8377	3.9036	4.1641	4.868	5.2028	-4.5068	-1.1765	-2.7044	-1.5433	0.0375	1.6472	3.8083	3.3321	2.0201	4.3503	1.6258	2.3538	4.4358	3.2062	-4.1013	-2.9948
496.0938	-3.9893	-1.5776	-3.0034	-0.5492	2.0433	1.0989	4.4408	2.0276	2.4878	4.7522	3.8561	4.1897	4.7006	5.0548	-4.5735	-1.3926	-2.9425	-1.5731	-0.1486	1.393	3.618	3.1294	1.8928	4.2393	1.6207	2.3363	4.3928	3.2475	-4.0316	-2.9349
500	-4.0587	-1.7409	-3.018	-0.7533	1.8092	0.934	4.2574	1.8447	2.3055	4.6604	3.7888	4.2043	4.5196	4.9062	-4.6066	-1.5625	-3.1429	-1.5772	-0.3163	1.1693	3.452	2.9338	1.7779	4.1152	1.614	2.3058	4.3334	3.2859	-3.9144	-2.8437
503.9062	-4.0739	-1.8617	-2.987	-0.9085	1.601	0.7887	4.0693	1.6649	2.1127	4.5636	3.7025	4.2034	4.3348	4.7675	-4.5827	-1.6618	-3.2708	-1.5409	-0.4392	0.9984	3.3234	2.7626	1.6876	3.9815	1.6018	2.2619	4.2574	3.31	-3.7561	-2.707
507.8125	-4.0234	-1.9236	-2.913	-1.0002	1.4374	0.6756	3.8878	1.4979	1.9174	4.4647	3.6009	4.1861	4.1577	4.6497	-4.4854	-1.672	-3.297	-1.4544	-0.4953	0.8986	3.2433	2.6314	1.6318	3.8433	1.5819	2.207	4.1678	3.3136	-3.568	-2.5162
511.7188	-3.9037	-1.9142	-2.8032	-1.0192	1.3327	0.6043	3.7212	1.35	1.7273	4.3649	3.4886	4.1531	3.9977	4.5608	-4.3075	-1.5837	-3.2031	-1.3133	-0.4705	0.8807	3.2174	2.5517	1.6172	3.7065	1.5539	2.1458	4.0694	3.2952	-3.3648	-2.2693
515.625	-3.7195	-1.8277	-2.6665	-0.9637	1.2935	0.5791	3.5724	1.2223	1.5483	4.2624	3.3684	4.105	3.8599	4.5035	-4.0519	-1.3985	-2.9844	-1.1195	-0.3609	0.9461	3.2445	2.5285	1.6457	3.5764	1.5198	2.0838	3.9679	3.2573	-3.1604	-1.9715
519.5312	-3.4809	-1.6662	-2.5122	-0.8399	1.3174	0.5981	3.4384	1.1108	1.383	4.1518	3.2401	4.0406	3.7435	4.4741	-3.7304	-1.1286	-2.6517	-0.88	-0.1729	1.0863	3.316	2.5598	1.7152	3.457	1.4835	2.0264	3.8678	3.2042	-2.9656	-1.6335
523.4375	-3.2012	-1.4392	-2.3472	-0.6607	1.3933	0.6538	3.3111	1.0082	1.2313	4.0249	3.1007	3.9571	3.6426	4.4636	-3.3599	-0.7951	-2.2291	-0.6057	0.0785	1.2847	3.418	2.6372	1.8199	3.3508	1.4499	1.9775	3.7721	3.14	-2.7858	-1.2694
527.3438	-2.8934	-1.1624	-2.1757	-0.4444	1.504	0.7344	3.1804	0.9061	1.0908	3.8737	2.9454	3.8502	3.548	4.46	-2.9592	-0.4246	-1.7506	-0.3088	0.3722	1.5198	3.5336	2.7474	1.9519	3.2591	1.4244	1.9389	3.6823	3.0673	-2.6202	-0.8935
531.25	-2.5677	-0.8557	-1.9996	-0.2117	1.6289	0.8258	3.0374	0.7981	0.9592	3.6923	2.7696	3.7161	3.4504	4.451	-2.5453	-0.0453	-1.255	-0.0021	0.6839	1.7687	3.6463	2.8749	2.1021	3.182	1.4113	1.911	3.5983	2.9868	-2.4631	-0.5186
535.1562	-2.2304	-0.5403	-1.8193	0.016	1.7479	0.914	2.8768	0.6817	0.8346	3.4798	2.5708	3.5523	3.3429	4.4269	-2.1314	0.3169	-0.7802	0.3028	0.9888	2.0104	3.7426	3.0042	2.2612	3.1189	1.4138	1.8921	3.519	2.8967	-2.3068	-0.155
539.0625	-1.8842	-0.2364	-1.6356	0.2196	1.8446	0.9869	2.6992	0.5592	0.7171	3.2412	2.3504	3.3592	3.2227	4.382	-1.727	0.6412	-0.3588	0.5948	1.2634	2.2278	3.8135	3.1219	2.4201	3.0686	1.4333	1.8801	3.4425	2.7943	-2.1443	0.1897
542.9688	-1.5296	0.0387	-1.4506	0.3836	1.9079	1.0365	2.5108	0.4368	0.6091	2.9876	2.1141	3.1402	3.0916	4.3151	-1.3386	0.913	-0.0143	0.8639	1.4882	2.4088	3.8549	3.2177	2.5697	3.0296	1.4693	1.8722	3.3664	2.6768	-1.9718	0.5095
546.875	-1.1674	0.2724	-1.268	0.4984	1.9331	1.0591	2.3223	0.3237	0.5148	2.7347	1.8717	2.9023	2.9553	4.2291	-0.9717	1.1246	0.2405	1.1002	1.6485	2.5464	3.8672	3.2849	2.7012	2.9995	1.5195	1.8659	3.2877	2.5421	-1.7902	0.7982
550.7812	-0.8005	0.4571	-1.092	0.5607	1.9219	1.0566	2.1469	0.2296	0.44	2.5006	1.636	2.6544	2.8214	4.1292	-0.6323	1.2748	0.4033	1.2946	1.7365	2.6379	3.8539	3.3191	2.8055	2.9747	1.5791	1.8585	3.2028	2.3899	-1.604	1.0492
554.6875	-0.4346	0.5912	-0.927	0.5743	1.8806	1.0351	1.9974	0.1635	0.3903	2.3023	1.4202	2.4067	2.6977	4.0214	-0.327	1.3678	0.4815	1.4391	1.7514	2.6845	3.8201	3.3185	2.874	2.9505	1.6416	1.8466	3.1078	2.2216	-1.4204	1.2558
558.5938	-0.0781	0.6784	-0.7761	0.549	1.8191	1.0041	1.8835	0.1315	0.369	2.1522	1.2358	2.169	2.5892	3.9108	-0.0618	1.412	0.4901	1.5291	1.6998	2.6903	3.7714	3.2829	2.8993	2.9207	1.6985	1.8256	2.9988	2.0404	-1.247	1.4126
562.5	0.2609	0.7275	-0.6406	0.4993	1.7485	0.9741	1.8098	0.136	0.3757	2.0557	1.09	1.9487	2.4975	3.8006	0.1599	1.4197	0.4497	1.5647	1.5947	2.6621	3.7125	3.2137	2.8775	2.8785	1.7402	1.7898	2.8724	1.8497	-1.0897	1.5182
566.4062	0.5766	0.7511	-0.52	0.4422	1.6796	0.9551	1.7753	0.1752	0.4046	2.0095	0.9844	1.7504	2.4199	3.6918	0.3393	1.4052	0.3841	1.552	1.4541	2.609	3.647	3.1147	2.8095	2.8173	1.7575	1.7322	2.7267	1.6534	-0.9516	1.5769
570.3125	0.8675	0.7637	-0.4114	0.3947	1.6212	0.9548	1.7732	0.2435	0.4449	2.0027	0.9146	1.5746	2.3505	3.5839	0.4834	1.3842	0.3181	1.5038	1.2988	2.5419	3.5774	2.9918	2.702	2.7319	1.7426	1.6456	2.5612	1.4541	-0.8322	1.5992
574.2188	1.138	0.7801	-0.3107	0.3714	1.5798	0.9777	1.7927	0.332	0.4821	2.0182	0.8712	1.4185	2.2811	3.4759	0.6053	1.3718	0.2741	1.4373	1.1502	2.4735	3.5055	2.8537	2.5673	2.6194	1.6907	1.5238	2.377	1.2528	-0.728	1.6003
578.125	1.3965	0.8138	-0.2122	0.3829	1.5591	1.0247	1.821	0.4305	0.5013	2.0367	0.8415	1.2761	2.2033	3.3676	0.7213	1.3817	0.2697	1.3723	1.028	2.4165	3.4336	2.7109	2.4218	2.4801	1.6003	1.3622	2.1764	1.0487	-0.6332	1.5967
582.0312	1.6542	0.8752	-0.11	0.4344	1.5601	1.0936	1.8452	0.5281	0.4892	2.0397	0.8115	1.1397	2.11	3.26	0.8486	1.4242	0.3159	1.3273	0.9477	2.3829	3.3643	2.5747	2.2829	2.3169	1.4734	1.1589	1.9621	0.8392	-0.5416	1.6022
585.9375	1.9216	0.9704	0.0017	0.5252	1.5815	1.1794	1.8546	0.6151	0.4373	2.0123	0.7685	1.0013	1.9966	3.1552	1.0011	1.5049	0.4148	1.3167	0.9186	2.381	3.3016	2.4554	2.1666	2.1352	1.3146	0.9151	1.7369	0.6211	-0.4475	1.6254
589.8438	2.2054	1.1004	0.1276	0.6488	1.6199	1.2758	1.8417	0.6837	0.343	1.9454	0.7024	0.854	1.8617	3.0562	1.1861	1.6239	0.5599	1.3486	0.9427	2.4143	3.2496	2.3606	2.0849	1.9424	1.1311	0.6356	1.5036	0.3921	-0.3473	1.668
593.75	2.5067	1.2601	0.2699	0.7944	1.6704	1.375	1.8028	0.7285	0.2097	1.8362	0.6071	0.6937	1.7074	2.9656	1.4023	1.7752	0.7369	1.4234	1.0143	2.4798	3.2115	2.2935	2.0442	1.7466	0.9314	0.3294	1.2655	0.1522	-0.2403	1.7259
597.6562	2.8197	1.4391	0.4271	0.9479	1.7269	1.4693	1.7377	0.7472	0.0456	1.6882	0.481	0.52	1.5387	2.885	1.6401	1.9475	0.9264	1.5351	1.1217	2.5677	3.1886	2.2529	2.0447	1.5567	0.7258	0.0088	1.0273	-0.0948	-0.1291	1.7909
601.5625	3.133	1.6229	0.5937	1.0947	1.7826	1.551	1.6495	0.7399	-0.1384	1.5097	0.3273	0.3364	1.3634	2.8148	1.8833	2.126	1.1068	1.6718	1.2485	2.6634	3.1789	2.2338	2.0818	1.3815	0.5255	-0.3101	0.7956	-0.3412	-0.0197	1.8529
605.4688	3.4315	1.7948	0.7603	1.2222	1.8312	1.6134	1.5433	0.7093	-0.3308	1.3124	0.1523	0.1499	1.1907	2.7542	2.112	2.2943	1.258	1.8181	1.3771	2.7498	3.1774	2.2286	2.1468	1.2292	0.3419	-0.6094	0.579	-0.5764	0.0802	1.9019
609.375	3.6995	1.9396	0.9161	1.3216	1.8673	1.6519	1.4256	0.6597	-0.5216	1.1095	-0.0349	-0.0309	1.0302	2.7021	2.3066	2.4375	1.3647	1.957	1.4911	2.8113	3.1772	2.2301	2.2295	1.1066	0.1863	-0.8706	0.387	-0.788	0.1623	1.9294
613.2812	3.924	2.0467	1.051	1.3906	1.8876	1.6648	1.3032	0.5963	-0.7039	0.9135	-0.2251	-0.1975	0.8904	2.6572	2.4509	2.5445	1.4184	2.0728	1.578	2.8366	3.171	2.2329	2.3194	1.0184	0.0682	-1.0772	0.2286	-0.9642	0.2197	1.9291
617.1875	4.0968	2.1128	1.1587	1.4336	1.8918	1.6541	1.1826	0.5252	-0.874	0.7346	-0.4101	-0.3435	0.7776	2.6189	2.5355	2.6107	1.4188	2.1531	1.6314	2.8225	3.154	2.2347	2.4075	0.9666	-0.0051	-1.217	0.1102	-1.0963	0.2491	1.8974
621.0938	4.2171	2.1443	1.2392	1.4616	1.8831	1.6256	1.0694	0.4527	-1.0305	0.5798	-0.5839	-0.4664	0.6951	2.587	2.5595	2.6388	1.3731	2.1911	1.6513	2.7746	3.1251	2.2367	2.4867	0.9496	-0.0295	-1.2834	0.0344	-1.1801	0.2524	1.8339
625	4.293	2.1566	1.2994	1.4903	1.8683	1.5886	0.9685	0.3852	-1.1723	0.4527	-0.7432	-0.5682	0.6432	2.5619	2.5318	2.6393	1.2948	2.1872	1.644	2.7067	3.0877	2.2426	2.553	0.963	-0.0049	-1.2773	-0.0014	-1.2174	0.2375	1.7427
628.9062	4.3405	2.1719	1.3516	1.5372	1.8572	1.5544	0.8837	0.3291	-1.2971	0.3541	-0.887	-0.6544	0.619	2.5445	2.4696	2.6286	1.2018	2.1483	1.6206	2.6391	3.0499	2.2575	2.6044	1	0.065	-1.2068	-0.0045	-1.216	0.2173	1.6326
632.8125	4.3807	2.214	1.4105	1.6174	1.8604	1.5338	0.8182	0.29	-1.4004	0.283	-1.0155	-0.7328	0.6176	2.536	2.3948	2.6257	1.1128	2.0867	1.5945	2.5936	3.0218	2.286	2.6411	1.0525	0.172	-1.0863	0.014	-1.1884	0.2068	1.5165
636.7188	4.4345	2.302	1.488	1.739	1.8866	1.534	0.7742	0.2716	-1.476	0.2373	-1.1294	-0.811	0.6329	2.5371	2.3287	2.6471	1.0445	2.0166	1.5785	2.5886	3.0134	2.331	2.6644	1.1122	0.3049	-0.9341	0.0412	-1.1492	0.2182	1.4083
640.625	4.5163	2.444	1.5893	1.9002	1.9395	1.556	0.7523	0.2745	-1.5181	0.2147	-1.2285	-0.894	0.6583	2.5478	2.2856	2.7023	1.0086	1.9503	1.5825	2.634	3.0313	2.3924	2.6762	1.1727	0.4507	-0.7691	0.0657	-1.1122	0.2566	1.3192
644.5312	4.6287	2.6334	1.71	2.0879	2.0161	1.5935	0.7519	0.2957	-1.5234	0.2133	-1.3113	-0.9822	0.6887	2.5667	2.2686	2.7904	1.0091	1.8958	1.6109	2.7282	3.0768	2.4672	2.6784	1.2295	0.5962	-0.6079	0.0793	-1.0871	0.3171	1.2538
648.4375	4.7611	2.8497	1.8371	2.2793	2.1065	1.6343	0.7705	0.3281	-1.493	0.2318	-1.3748	-1.0705	0.7206	2.5917	2.2676	2.8991	1.0416	1.8548	1.6617	2.8577	3.1446	2.5493	2.6728	1.2813	0.73	-0.4625	0.0794	-1.0775	0.3859	1.2081
652.3438	4.8912	3.0619	1.9512	2.4472	2.1957	1.6629	0.8048	0.3624	-1.4332	0.2694	-1.4151	-1.1491	0.753	2.6194	2.2624	3.0075	1.0934	1.8237	1.727	2.9999	3.2235	2.6309	2.6609	1.3289	0.8432	-0.3391	0.069	-1.0803	0.4446	1.1697
656.25	4.9912	3.2363	2.0318	2.5654	2.2675	1.6647	0.8502	0.3881	-1.3555	0.3251	-1.4295	-1.206	0.7868	2.6462	2.2286	3.0908	1.1458	1.7947	1.7938	3.1276	3.2991	2.7026	2.6433	1.3742	0.9299	-0.2395	0.0552	-1.0875	0.4756	1.122
660.1562	5.035	3.3437	2.062	2.6151	2.3072	1.6296	0.9018	0.3959	-1.275	0.3969	-1.4178	-1.2307	0.8232	2.6679	2.1452	3.1268	1.178	1.7594	1.8471	3.2159	3.3564	2.7556	2.6203	1.4185	0.9873	-0.1628	0.0464	-1.0887	0.4675	1.0496
664.0625	5.0063	3.3665	2.033	2.5895	2.3064	1.5549	0.954	0.3791	-1.2085	0.4801	-1.3839	-1.2172	0.8629	2.6809	2.0017	3.1012	1.1717	1.7117	1.873	3.2471	3.3834	2.7823	2.592	1.4607	1.0145	-0.1078	0.0489	-1.0751	0.4194	0.9435
667.9688	4.9033	3.3027	1.947	2.4951	2.2638	1.4458	1.0014	0.3352	-1.1712	0.5676	-1.336	-1.1664	0.9048	2.6822	1.8035	3.0118	1.1168	1.6507	1.863	3.2152	3.3739	2.7784	2.5586	1.4971	1.0121	-0.0751	0.0644	-1.0427	0.3414	0.8059
671.875	4.7415	3.1676	1.8184	2.3515	2.1872	1.3154	1.0386	0.2665	-1.174	0.6492	-1.2856	-1.0871	0.9451	2.6702	1.5729	2.8705	1.0155	1.5826	1.8172	3.1279	3.3296	2.7445	2.522	1.5213	0.9819	-0.0679	0.0885	-0.9941	0.2529	0.6515
675.7812	4.5516	2.9911	1.6718	2.1882	2.0913	1.1819	1.0612	0.1793	-1.2213	0.7131	-1.2458	-0.9938	0.9783	2.6459	1.3467	2.7017	0.8841	1.5204	1.7464	3.0056	3.2608	2.6869	2.486	1.5263	0.9259	-0.0916	0.1119	-0.9384	0.179	0.5057
679.6875	4.3739	2.8124	1.538	2.0391	1.9956	1.0651	1.066	0.0829	-1.3107	0.7475	-1.2287	-0.905	0.9978	2.6128	1.1699	2.5389	0.7519	1.482	1.6711	2.8777	3.1849	2.6177	2.4567	1.5062	0.8472	-0.1519	0.1221	-0.8892	0.1449	0.4006
683.5938	4.2513	2.6727	1.4484	1.9366	1.9201	0.9829	1.0508	-0.0127	-1.4336	0.7429	-1.2441	-0.8393	0.9975	2.5768	1.0871	2.4185	0.6554	1.4863	1.6183	2.7773	3.124	2.5528	2.4424	1.4582	0.7495	-0.2528	0.1069	-0.8614	0.1713	0.3682
687.5	4.2198	2.6074	1.4288	1.9059	1.8814	0.9475	1.0149	-0.0995	-1.5782	0.6931	-1.2982	-0.8125	0.9728	2.5443	1.1326	2.373	0.6305	1.5486	1.6159	2.7346	3.1001	2.5095	2.4512	1.384	0.6379	-0.3944	0.0572	-0.8671	0.2694	0.4338
691.4062	4.3017	2.639	1.4938	1.9596	1.889	0.9624	0.9579	-0.1737	-1.7326	0.5964	-1.393	-0.8349	0.9217	2.5215	1.3232	2.4248	0.704	1.6765	1.6864	2.7709	3.1302	2.5027	2.4901	1.2895	0.5189	-0.5711	-0.0304	-0.9128	0.4388	0.6101
695.3125	4.5002	2.7729	1.6425	2.0953	1.9432	1.0219	0.8798	-0.2367	-1.8883	0.4557	-1.527	-0.9096	0.8456	2.5122	1.6528	2.5807	0.8869	1.8678	1.8413	2.8945	3.2225	2.5419	2.5633	1.1843	0.4004	-0.7713	-0.1524	-0.9967	0.6663	0.8936
699.2188	4.798	2.9956	1.8583	2.2959	2.0348	1.1114	0.7809	-0.295	-2.0421	0.2774	-1.6958	-1.0327	0.7486	2.5173	2.0927	2.8307	1.1706	2.1104	2.0774	3.0987	3.3732	2.6301	2.6705	1.0801	0.2921	-0.9777	-0.2995	-1.1086	0.9281	1.2646
703.125	5.1604	3.278	2.1112	2.5325	2.1467	1.2098	0.6615	-0.3586	-2.196	0.0706	-1.8924	-1.194	0.6375	2.5342	2.5958	3.1482	1.5274	2.3847	2.3765	3.3629	3.5671	2.7619	2.8068	0.988	0.2037	-1.1703	-0.4582	-1.2322	1.1929	1.6904
707.0312	5.5409	3.5795	2.3632	2.7696	2.2565	1.2935	0.5229	-0.4376	-2.3549	-0.154	-2.1084	-1.3787	0.5198	2.5571	3.1047	3.4942	1.9151	2.6664	2.7075	3.6558	3.7794	2.9247	2.9624	0.9168	0.1438	-1.3294	-0.6135	-1.348	1.4276	2.1302
710.9375	5.8894	3.8562	2.5752	2.9709	2.3402	1.3402	0.3672	-0.5396	-2.5242	-0.3847	-2.3342	-1.5702	0.4029	2.5775	3.5614	3.8231	2.2838	2.9296	3.0314	3.9399	3.9803	3.099	3.1228	0.8702	0.1176	-1.4403	-0.7526	-1.4385	1.6024	2.5424
714.8438	6.16	4.0673	2.7144	3.1056	2.3765	1.3327	0.1985	-0.6672	-2.7056	-0.6097	-2.5595	-1.7523	0.2923	2.5859	3.9157	4.0894	2.5837	3.1498	3.3071	4.1774	4.1398	3.2612	3.2701	0.8461	0.125	-1.4967	-0.8667	-1.4915	1.696	2.8903
718.75	6.3178	4.1815	2.7585	3.1525	2.35	1.262	0.0221	-0.8167	-2.8959	-0.8174	-2.7731	-1.9113	0.1903	2.5723	4.1319	4.2546	2.7728	3.3058	3.498	4.3354	4.233	3.3858	3.3846	0.8362	0.1595	-1.5027	-0.9533	-1.5033	1.6987	3.1466
722.6562	6.3424	4.1806	2.6987	3.102	2.2537	1.1278	-0.1553	-0.9785	-3.086	-0.9971	-2.9637	-2.0373	0.0963	2.5286	4.1924	4.2924	2.8229	3.3809	3.5775	4.3905	4.2429	3.4488	3.4471	0.8278	0.2085	-1.4718	-1.0157	-1.4789	1.6124	3.2955
726.5625	6.2291	4.0611	2.5395	2.9568	2.0897	0.9385	-0.3261	-1.1394	-3.2629	-1.1398	-3.1201	-2.1243	0.0068	2.4491	4.0977	4.1926	2.723	3.3647	3.5331	4.3324	4.1636	3.432	3.4418	0.8068	0.255	-1.4245	-1.0615	-1.4299	1.4494	3.3333
730.4688	5.988	3.8337	2.2963	2.7303	1.8699	0.7093	-0.4823	-1.2846	-3.4116	-1.2387	-3.231	-2.1699	-0.0829	2.3334	3.8644	3.9625	2.4811	3.2537	3.3688	4.1653	4	3.3264	3.3596	0.7609	0.2815	-1.3828	-1.0999	-1.3712	1.2285	3.2665
734.375	5.6411	3.5217	1.9923	2.4452	1.6139	0.4597	-0.6155	-1.4003	-3.5183	-1.2895	-3.2864	-2.1733	-0.1757	2.1869	3.5217	3.6261	2.1225	3.0529	3.1048	3.908	3.7686	3.1356	3.2	0.6841	0.2736	-1.3646	-1.1381	-1.3158	0.9714	3.1105
738.2812	5.2189	3.1569	1.6544	2.1298	1.3469	0.2109	-0.7174	-1.4766	-3.5723	-1.2909	-3.2778	-2.1342	-0.271	2.0221	3.1079	3.221	1.6864	2.7765	2.7749	3.5913	3.4949	2.8762	2.9731	0.579	0.2241	-1.3786	-1.1782	-1.271	0.7002	2.8877
742.1875	4.7562	2.776	1.3094	1.8147	1.0953	-0.0176	-0.7807	-1.5083	-3.5682	-1.2443	-3.1998	-2.0509	-0.3623	1.8571	2.6654	2.7932	1.2211	2.4479	2.4221	3.2542	3.2108	2.5764	2.6992	0.4575	0.1355	-1.4214	-1.2151	-1.235	0.4348	2.6257
746.0938	4.2882	2.4145	0.9807	1.5283	0.883	-0.21	-0.8	-1.4963	-3.5062	-1.1531	-3.0509	-1.9201	-0.4377	1.7133	2.2361	2.39	0.7771	2.0979	2.0919	2.9377	2.9497	2.272	2.4061	0.3394	0.0203	-1.4779	-1.2369	-1.1974	0.1921	2.3549
750	3.8461	2.1027	0.6868	1.2931	0.728	-0.3561	-0.773	-1.4465	-3.3917	-1.0223	-2.8349	-1.738	-0.4818	1.6116	1.8567	2.0527	0.4003	1.7608	1.8247	2.6784	2.7421	1.9999	2.1252	0.249	-0.1017	-1.524	-1.227	-1.1407	-0.0147	2.105
753.9062	3.4536	1.8611	0.4398	1.123	0.6394	-0.452	-0.7008	-1.3685	-3.2344	-0.8582	-2.5607	-1.5018	-0.4792	1.5686	1.5532	1.8108	0.1252	1.4692	1.6493	2.5026	2.6103	1.7913	1.8859	0.2094	-0.2076	-1.533	-1.1682	-1.0452	-0.1761	1.9009
757.8125	3.1252	1.6986	0.2463	1.0221	0.6177	-0.4992	-0.5884	-1.2735	-3.0463	-0.6671	-2.2425	-1.2122	-0.4184	1.5932	1.3387	1.6773	-0.0293	1.2489	1.5776	2.4225	2.5653	1.6669	1.7111	0.2379	-0.2768	-1.4823	-1.0469	-0.8938	-0.2873	1.7591
761.7188	2.8654	1.6129	0.1076	0.9853	0.6549	-0.5039	-0.4435	-1.1717	-2.8398	-0.4552	-1.8984	-0.8755	-0.2947	1.686	1.2109	1.6479	-0.0625	1.1138	1.6029	2.4353	2.6057	1.6328	1.6133	0.3416	-0.2956	-1.3592	-0.8574	-0.6773	-0.3484	1.685
765.625	2.6704	1.5921	0.0211	1.0011	0.738	-0.4749	-0.2755	-1.0713	-2.626	-0.2284	-1.5483	-0.5039	-0.1119	1.8397	1.1545	1.7034	0.0096	1.0639	1.7023	2.5247	2.7184	1.6814	1.5934	0.5157	-0.2603	-1.1647	-0.6036	-0.3973	-0.3652	1.6734
769.5312	2.5298	1.6187	-0.0195	1.0545	0.8513	-0.4224	-0.0938	-0.9771	-2.4137	0.0086	-1.2118	-0.1153	0.1184	2.0414	1.1437	1.8141	0.1578	1.086	1.8423	2.6655	2.8824	1.7936	1.6419	0.7444	-0.1777	-0.9141	-0.2997	-0.0669	-0.3487	1.7094
773.4375	2.4292	1.6729	-0.0235	1.1303	0.98	-0.3562	0.0934	-0.8909	-2.2088	0.2517	-0.9057	0.2699	0.3793	2.2759	1.148	1.9461	0.3462	1.1564	1.9856	2.8291	3.0721	1.9442	1.7415	1.004	-0.063	-0.6333	0.0335	0.2917	-0.3144	1.7726
777.3438	2.3529	1.7361	-0.0017	1.2156	1.1122	-0.2843	0.2802	-0.8116	-2.0143	0.4989	-0.6417	0.6322	0.652	2.5286	1.1373	2.0675	0.5381	1.2467	2.0986	2.9891	3.2632	2.1073	1.8716	1.2685	0.064	-0.3528	0.3724	0.6524	-0.2798	1.8404
781.25	2.2858	1.7937	0.0345	1.3011	1.2402	-0.2127	0.4638	-0.7367	-1.8306	0.7494	-0.4242	0.9571	0.9202	2.7879	1.0868	2.1535	0.7033	1.3291	2.1572	3.1255	3.4361	2.261	2.0122	1.5151	0.1838	-0.1001	0.6965	0.9914	-0.2611	1.8925
785.1562	2.2152	1.8363	0.0752	1.3813	1.3605	-0.1447	0.6441	-0.6629	-1.6562	1.0039	-0.2502	1.2386	1.1726	3.0467	0.9816	2.1899	0.8222	1.3825	2.15	3.2273	3.5794	2.3911	2.1475	1.7286	0.2814	0.1059	0.9922	1.293	-0.2702	1.9146
789.0625	2.1328	1.8602	0.1129	1.4542	1.4731	-0.0813	0.8227	-0.587	-1.4882	1.2639	-0.1103	1.48	1.4051	3.3016	0.8183	2.1749	0.8886	1.3957	2.0792	3.293	3.6905	2.4921	2.268	1.9042	0.3497	0.2597	1.2557	1.5525	-0.3114	1.9006
792.9688	2.0348	1.8667	0.1438	1.5205	1.5799	-0.0219	1.0018	-0.5072	-1.3223	1.5304	0.0095	1.6926	1.6199	3.5524	0.6057	2.1171	0.9093	1.3696	1.9584	3.3292	3.7745	2.5665	2.371	2.0471	0.3902	0.3685	1.4919	1.7766	-0.3813	1.8537
796.875	1.9227	1.8611	0.1675	1.5817	1.6837	0.0349	1.1831	-0.4228	-1.1544	1.803	0.124	1.8923	1.8236	3.8001	0.3622	2.0334	0.9009	1.3154	1.809	3.3473	3.8421	2.6226	2.4591	2.1698	0.4112	0.4496	1.7121	1.98	-0.4694	1.7847
