time	FP1	F3	F7	FC3	C3	C5	P3	P7	PO7	PO3	O1	Oz	Pz	CPz	FP2	Fz	F4	F8	FC4	FCz	Cz	C4	C6	P4	P8	PO8	PO4	O2	HEOG_left	HEOG_right
-199.2188	-1.0064	-0.5966	-1.6317	-0.4161	-0.0379	0.0548	0.0041	-0.3037	-0.1322	-0.1605	-0.448	0.4855	0.2293	0.5332	-0.0807	-0.3846	-0.3012	-0.141	-0.0568	-0.314	0.408	0.2629	-0.1013	0.2025	-0.1238	-0.9019	-0.4171	-0.4321	-1.1295	-1.0182
-195.3125	-0.7188	-0.4075	-1.1174	-0.2007	0.0971	0.0898	0.0773	-0.164	0.0016	-0.0474	-0.2411	0.5648	0.3546	0.7066	0.1091	-0.2183	-0.1696	-0.0859	0.0773	-0.1042	0.6115	0.3808	0.1105	0.1243	-0.2912	-0.8396	-0.3481	-0.3713	-0.7557	-0.7935
-191.4062	-0.4693	-0.2542	-0.6626	-0.0223	0.2053	0.1121	0.1204	-0.0498	0.1096	0.0344	-0.0703	0.6189	0.4411	0.8349	0.2584	-0.0895	-0.0683	-0.046	0.1841	0.0629	0.767	0.4681	0.2821	0.0279	-0.448	-0.7792	-0.3003	-0.3233	-0.4341	-0.6065
-187.5	-0.2874	-0.1625	-0.3121	0.0915	0.2673	0.1126	0.1139	0.0195	0.1743	0.064	0.0391	0.6307	0.4624	0.8854	0.3362	-0.0248	-0.0202	-0.0386	0.242	0.1567	0.8397	0.5018	0.3833	-0.0934	-0.5823	-0.7155	-0.2839	-0.2927	-0.2051	-0.4859
-183.5938	-0.1881	-0.1431	-0.0889	0.1274	0.2764	0.0873	0.0525	0.0362	0.1888	0.0344	0.0759	0.5939	0.4087	0.8442	0.3275	-0.0342	-0.0344	-0.0722	0.2425	0.1638	0.8136	0.4741	0.4033	-0.2327	-0.6819	-0.6396	-0.2982	-0.2769	-0.0876	-0.4443
-179.6875	-0.1689	-0.1902	0.0081	0.0888	0.2396	0.0382	-0.0537	0.0044	0.1583	-0.0458	0.0443	0.5144	0.289	0.7181	0.2363	-0.1094	-0.1034	-0.1444	0.1911	0.0908	0.6948	0.3933	0.3519	-0.3699	-0.7357	-0.5401	-0.3311	-0.2661	-0.0766	-0.476
-175.7812	-0.2136	-0.2841	0.0004	-0.0072	0.1734	-0.028	-0.1829	-0.0618	0.0981	-0.156	-0.0378	0.4082	0.1274	0.5313	0.0838	-0.2272	-0.2079	-0.2435	0.104	-0.0395	0.5079	0.2788	0.2536	-0.4784	-0.7356	-0.4062	-0.3635	-0.2457	-0.1475	-0.5603
-171.875	-0.2983	-0.3985	-0.0786	-0.1361	0.0973	-0.1035	-0.3081	-0.1441	0.0283	-0.2697	-0.1449	0.2966	-0.0451	0.3174	-0.0986	-0.3572	-0.3229	-0.3524	0.001	-0.1953	0.2874	0.1537	0.1378	-0.5344	-0.6794	-0.2321	-0.3747	-0.2014	-0.2653	-0.6688
-167.9688	-0.3987	-0.5082	-0.1932	-0.2738	0.0262	-0.1823	-0.4062	-0.2253	-0.032	-0.3629	-0.2509	0.1998	-0.1997	0.1094	-0.278	-0.4708	-0.4265	-0.4546	-0.1011	-0.3456	0.0678	0.0364	0.0287	-0.5258	-0.5734	-0.0218	-0.3502	-0.1242	-0.3949	-0.7731
-164.0625	-0.495	-0.5953	-0.3129	-0.4025	-0.0343	-0.263	-0.4637	-0.2939	-0.0697	-0.4205	-0.3352	0.1317	-0.3179	-0.0684	-0.4279	-0.5484	-0.5052	-0.5387	-0.1931	-0.4672	-0.1244	-0.0642	-0.061	-0.4575	-0.433	0.2098	-0.2865	-0.0146	-0.5079	-0.8517
-160.1562	-0.5741	-0.6514	-0.4161	-0.5129	-0.0884	-0.347	-0.4802	-0.3455	-0.0798	-0.4389	-0.3861	0.0975	-0.3944	-0.205	-0.5327	-0.5824	-0.556	-0.5997	-0.2744	-0.5493	-0.2759	-0.1489	-0.131	-0.3509	-0.281	0.438	-0.1931	0.1173	-0.5861	-0.8927
-156.25	-0.629	-0.6764	-0.4905	-0.6029	-0.1464	-0.4366	-0.4663	-0.3819	-0.0658	-0.4256	-0.4015	0.0937	-0.4367	-0.302	-0.5888	-0.5771	-0.5842	-0.6378	-0.3499	-0.593	-0.3862	-0.2251	-0.1887	-0.2377	-0.143	0.6324	-0.0898	0.2534	-0.6204	-0.8933
-152.3438	-0.6567	-0.6757	-0.5308	-0.6747	-0.2188	-0.5317	-0.4401	-0.4079	-0.0365	-0.3956	-0.387	0.1105	-0.4605	-0.3705	-0.6014	-0.5448	-0.5993	-0.6549	-0.4257	-0.6085	-0.4646	-0.3013	-0.2431	-0.1521	-0.0424	0.764	-0.0023	0.3715	-0.6084	-0.8568
-148.4375	-0.6565	-0.6569	-0.5372	-0.7316	-0.3115	-0.6278	-0.4204	-0.4291	-0.0037	-0.3659	-0.3529	0.1353	-0.4839	-0.4259	-0.581	-0.5009	-0.6104	-0.6525	-0.5053	-0.6104	-0.5251	-0.383	-0.2996	-0.1215	0.0049	0.8107	0.0446	0.4508	-0.5511	-0.7893
-144.5312	-0.629	-0.6273	-0.5128	-0.7759	-0.4221	-0.7164	-0.4221	-0.4495	0.0219	-0.3514	-0.3108	0.1568	-0.5216	-0.4822	-0.5392	-0.46	-0.6228	-0.6298	-0.5872	-0.6129	-0.5814	-0.4697	-0.3578	-0.1603	-0.0064	0.7624	0.0327	0.4757	-0.452	-0.697
-140.625	-0.5759	-0.5924	-0.4636	-0.8081	-0.5401	-0.7862	-0.4516	-0.4697	0.0328	-0.3607	-0.2702	0.1667	-0.5804	-0.5478	-0.4854	-0.4319	-0.6363	-0.585	-0.6646	-0.6261	-0.6429	-0.5551	-0.4112	-0.2677	-0.07	0.6238	-0.0445	0.4391	-0.316	-0.5853
-136.7188	-0.5002	-0.555	-0.3967	-0.8258	-0.648	-0.8252	-0.5051	-0.4871	0.0262	-0.3943	-0.2365	0.1622	-0.6572	-0.6231	-0.4253	-0.4196	-0.6461	-0.5161	-0.7274	-0.6532	-0.7119	-0.6287	-0.4505	-0.4281	-0.17	0.4134	-0.1799	0.344	-0.1509	-0.4577
-132.8125	-0.4053	-0.5144	-0.3198	-0.8245	-0.7258	-0.8236	-0.5697	-0.4964	0.004	-0.445	-0.2103	0.1448	-0.739	-0.6999	-0.3603	-0.4192	-0.6441	-0.4222	-0.7638	-0.6894	-0.7826	-0.6781	-0.4652	-0.6149	-0.2842	0.1607	-0.3532	0.2031	0.0325	-0.3169
-128.9062	-0.2949	-0.4663	-0.2394	-0.7976	-0.7547	-0.7748	-0.626	-0.4908	-0.028	-0.4989	-0.1879	0.1195	-0.8062	-0.7629	-0.2883	-0.4208	-0.6215	-0.3046	-0.7636	-0.7224	-0.8424	-0.6913	-0.4473	-0.7958	-0.3886	-0.0998	-0.5348	0.0362	0.2211	-0.1651
-125	-0.172	-0.4037	-0.1594	-0.7378	-0.7214	-0.6772	-0.6531	-0.4638	-0.0625	-0.5396	-0.163	0.0924	-0.8369	-0.7933	-0.2054	-0.4108	-0.5708	-0.1668	-0.7192	-0.7351	-0.8747	-0.6588	-0.3914	-0.9387	-0.4613	-0.3344	-0.6912	-0.1332	0.4005	-0.0051
-121.0938	-0.0391	-0.3192	-0.0809	-0.6387	-0.621	-0.5339	-0.6333	-0.4113	-0.0922	-0.5513	-0.1295	0.0692	-0.8123	-0.7733	-0.1076	-0.3753	-0.4875	-0.0144	-0.6276	-0.709	-0.8623	-0.5751	-0.2962	-1.0173	-0.4862	-0.5163	-0.7919	-0.2817	0.5577	0.1588
-117.1875	0.1014	-0.207	-0.0027	-0.4978	-0.4586	-0.3528	-0.5565	-0.3326	-0.1124	-0.5229	-0.0832	0.0534	-0.7218	-0.6905	0.007	-0.3034	-0.3711	0.1448	-0.4903	-0.629	-0.7919	-0.4393	-0.1635	-1.0146	-0.4538	-0.6283	-0.8148	-0.39	0.6827	0.3211
-113.2812	0.2464	-0.0662	0.0769	-0.318	-0.2487	-0.1461	-0.4227	-0.232	-0.1215	-0.4507	-0.0238	0.046	-0.5655	-0.5413	0.1371	-0.1903	-0.2248	0.3029	-0.3132	-0.487	-0.6576	-0.2561	0.0024	-0.9252	-0.3624	-0.6643	-0.7502	-0.4451	0.7699	0.4749
-109.375	0.3905	0.0982	0.1581	-0.1093	-0.0137	0.0703	-0.2423	-0.1179	-0.1212	-0.3394	0.0456	0.0459	-0.3549	-0.3331	0.278	-0.039	-0.055	0.4518	-0.1058	-0.2851	-0.463	-0.0353	0.1945	-0.7553	-0.2167	-0.6277	-0.6019	-0.4412	0.8178	0.6126
-105.4688	0.5259	0.2744	0.2386	0.1116	0.2199	0.2784	-0.0348	-0.0024	-0.116	-0.2013	0.1182	0.0501	-0.1113	-0.0842	0.4219	0.1399	0.1286	0.5842	0.1192	-0.0362	-0.2215	0.2082	0.402	-0.5215	-0.0269	-0.5291	-0.3859	-0.3802	0.8289	0.7269
-101.5625	0.6425	0.4456	0.3125	0.3238	0.4261	0.4596	0.1752	0.1011	-0.1111	-0.0539	0.1857	0.0549	0.1386	0.1794	0.5582	0.3294	0.3141	0.6934	0.3462	0.2375	0.0453	0.4543	0.6097	-0.2477	0.1923	-0.3843	-0.1277	-0.2707	0.8074	0.8119
-97.6562	0.7296	0.5927	0.3718	0.5058	0.5833	0.5978	0.3626	0.181	-0.1114	0.0845	0.24	0.0563	0.3671	0.4277	0.675	0.5093	0.4879	0.7733	0.558	0.5076	0.311	0.6802	0.7983	0.0383	0.4233	-0.2107	0.1428	-0.1261	0.7581	0.8632
-93.75	0.7776	0.6987	0.4083	0.6402	0.6781	0.6817	0.5064	0.2297	-0.119	0.1985	0.2754	0.0515	0.5509	0.6326	0.7607	0.6594	0.6362	0.8189	0.7379	0.7449	0.549	0.8631	0.947	0.3091	0.6478	-0.0247	0.3961	0.0374	0.6855	0.8791
-89.8438	0.7811	0.7527	0.4166	0.7175	0.7077	0.7079	0.5946	0.2459	-0.1327	0.2796	0.2904	0.0393	0.6753	0.7739	0.8054	0.7641	0.7479	0.8277	0.8724	0.9252	0.7369	0.9843	1.0379	0.5424	0.8492	0.1612	0.6083	0.204	0.5935	0.8607
-85.9375	0.7404	0.7527	0.3962	0.7385	0.6801	0.6828	0.6262	0.2356	-0.147	0.3282	0.2885	0.0216	0.7366	0.8429	0.8032	0.8149	0.816	0.8001	0.9533	1.0334	0.8601	1.0333	1.0606	0.7241	1.0144	0.3398	0.7647	0.3604	0.4863	0.8122
-82.0312	0.6624	0.706	0.3519	0.713	0.6112	0.6205	0.6104	0.2104	-0.1534	0.3526	0.2776	0.0023	0.7419	0.8435	0.7533	0.8119	0.8394	0.7401	0.9788	1.0664	0.9136	1.0093	1.0149	0.8497	1.1351	0.508	0.861	0.4969	0.3687	0.7403
-78.125	0.5584	0.6265	0.2922	0.6566	0.5206	0.5398	0.5635	0.1848	-0.1435	0.3661	0.2673	-0.014	0.706	0.7891	0.66	0.7621	0.8222	0.6541	0.9528	1.0314	0.9008	0.9211	0.9099	0.9232	1.2069	0.6641	0.9018	0.6074	0.2473	0.6537
-74.2188	0.442	0.5302	0.2261	0.5847	0.4257	0.4582	0.5036	0.1717	-0.1115	0.3818	0.2657	-0.0235	0.6463	0.6975	0.5315	0.6768	0.7718	0.5497	0.8822	0.9431	0.8311	0.7833	0.7604	0.9528	1.2274	0.8036	0.8968	0.6882	0.129	0.561
-70.3125	0.3254	0.4309	0.1604	0.5088	0.3379	0.3874	0.4458	0.1795	-0.0568	0.408	0.2767	-0.0256	0.5776	0.5856	0.3785	0.5683	0.6963	0.4342	0.7743	0.8187	0.7167	0.6127	0.5829	0.9476	1.1946	0.9169	0.857	0.7353	0.021	0.4693
-66.4062	0.2182	0.3382	0.0989	0.4348	0.2606	0.3307	0.3988	0.2099	0.0149	0.4456	0.2988	-0.0234	0.5093	0.4649	0.2133	0.4478	0.6028	0.3147	0.6361	0.6743	0.5701	0.4246	0.3912	0.9138	1.107	0.989	0.7909	0.7446	-0.0708	0.3837
-62.5	0.1263	0.2568	0.0432	0.364	0.1913	0.2848	0.3648	0.2586	0.0935	0.4885	0.3259	-0.0231	0.4442	0.3414	0.0487	0.3248	0.4975	0.1976	0.4741	0.5234	0.4032	0.2313	0.1963	0.8545	0.9648	1.0021	0.7036	0.711	-0.1425	0.3069
-58.5938	0.0534	0.1889	-0.0045	0.2963	0.1252	0.243	0.3408	0.3175	0.1669	0.5257	0.3494	-0.0322	0.3806	0.2165	-0.1021	0.2074	0.3863	0.0894	0.2963	0.3763	0.2279	0.0422	0.0068	0.7706	0.7723	0.9414	0.5974	0.631	-0.1917	0.2401
-54.6875	0.0016	0.1358	-0.0406	0.233	0.059	0.2001	0.3217	0.3765	0.2241	0.5458	0.361	-0.0573	0.3147	0.0901	-0.2275	0.1035	0.2753	-0.0038	0.1132	0.241	0.0554	-0.1349	-0.1692	0.6632	0.5399	0.8005	0.4748	0.5043	-0.2189	0.1833
-50.7812	-0.0278	0.0991	-0.0594	0.1777	-0.0068	0.1545	0.302	0.4261	0.2578	0.54	0.3545	-0.1025	0.2435	-0.0372	-0.3185	0.0204	0.1709	-0.0765	-0.062	0.1236	-0.1034	-0.2937	-0.3246	0.5355	0.2848	0.5851	0.34	0.3363	-0.2264	0.1366
-46.875	-0.0348	0.0803	-0.0559	0.1351	-0.0681	0.1092	0.2782	0.4583	0.2653	0.505	0.3268	-0.1684	0.1667	-0.1627	-0.3708	-0.0363	0.0799	-0.1255	-0.2155	0.0284	-0.2394	-0.4287	-0.4532	0.3943	0.0287	0.314	0.2004	0.1387	-0.2192	0.0997
-42.9688	-0.0216	0.0796	-0.0269	0.1094	-0.1195	0.07	0.2485	0.4677	0.2483	0.4431	0.278	-0.252	0.0865	-0.2817	-0.3853	-0.064	0.0079	-0.1496	-0.3348	-0.0423	-0.3459	-0.5355	-0.5517	0.2496	-0.2047	0.0163	0.0665	-0.0714	-0.2037	0.0727
-39.0625	0.0073	0.0951	0.0266	0.1024	-0.1566	0.0425	0.2129	0.4516	0.2114	0.3615	0.2112	-0.3469	0.0074	-0.3885	-0.3683	-0.0642	-0.0413	-0.1509	-0.411	-0.0884	-0.4189	-0.611	-0.6203	0.1135	-0.3937	-0.2732	-0.0499	-0.2735	-0.1868	0.0552
-35.1562	0.0453	0.1224	0.0992	0.1122	-0.1783	0.0298	0.1725	0.4105	0.1605	0.2707	0.1315	-0.4448	-0.0651	-0.4773	-0.3292	-0.0427	-0.066	-0.1337	-0.4408	-0.1123	-0.4578	-0.6533	-0.6624	-0.0014	-0.5222	-0.5205	-0.1375	-0.4468	-0.174	0.0472
-31.25	0.085	0.1551	0.1827	0.134	-0.1872	0.0308	0.1288	0.3481	0.1008	0.1814	0.0454	-0.5363	-0.1261	-0.544	-0.2791	-0.0088	-0.0669	-0.1038	-0.4265	-0.1178	-0.4646	-0.6618	-0.6831	-0.0846	-0.5819	-0.6973	-0.1882	-0.5734	-0.1677	0.0478
-27.3438	0.1197	0.1866	0.2687	0.1612	-0.1887	0.0408	0.0835	0.2711	0.0358	0.1029	-0.0405	-0.6128	-0.1728	-0.5865	-0.2273	0.0272	-0.047	-0.0675	-0.376	-0.11	-0.4434	-0.6371	-0.6876	-0.1295	-0.5728	-0.7851	-0.1983	-0.6413	-0.1659	0.0564
-23.4375	0.145	0.2113	0.3503	0.1869	-0.1894	0.053	0.0379	0.1875	-0.0333	0.0405	-0.12	-0.6682	-0.2046	-0.6054	-0.1804	0.0559	-0.0114	-0.0307	-0.3009	-0.0943	-0.4006	-0.5816	-0.68	-0.1346	-0.5028	-0.7772	-0.1698	-0.6465	-0.1625	0.0714
-19.5312	0.1589	0.2251	0.4229	0.205	-0.195	0.0604	-0.0069	0.1056	-0.107	-0.0051	-0.1886	-0.6997	-0.2241	-0.6038	-0.1414	0.0704	0.0333	0.0011	-0.2154	-0.0761	-0.3444	-0.5005	-0.6631	-0.1049	-0.3863	-0.6789	-0.1096	-0.5932	-0.1485	0.0909
-15.625	0.1612	0.2256	0.4835	0.2108	-0.2097	0.0567	-0.0503	0.0323	-0.187	-0.0378	-0.2437	-0.7087	-0.2363	-0.5878	-0.1105	0.0667	0.0779	0.0224	-0.1347	-0.0607	-0.285	-0.4019	-0.6394	-0.0509	-0.2416	-0.5058	-0.029	-0.4939	-0.1134	0.1124
-11.7188	0.1528	0.211	0.5299	0.201	-0.2352	0.0381	-0.0914	-0.0278	-0.2739	-0.0636	-0.2848	-0.7	-0.2477	-0.5647	-0.0864	0.0432	0.1121	0.0278	-0.0733	-0.0537	-0.2334	-0.2975	-0.6125	0.0131	-0.0887	-0.2809	0.0586	-0.3666	-0.0492	0.133
-7.8125	0.1341	0.1803	0.5603	0.1746	-0.2703	0.0042	-0.1281	-0.0713	-0.365	-0.0879	-0.3122	-0.6804	-0.2636	-0.542	-0.068	0.0005	0.1252	0.013	-0.0435	-0.0602	-0.1999	-0.2018	-0.5872	0.0726	0.0541	-0.0297	0.1402	-0.2311	0.0479	0.1503
-3.9062	0.1057	0.1334	0.5738	0.133	-0.311	-0.0403	-0.1561	-0.0952	-0.4527	-0.1121	-0.3253	-0.656	-0.2861	-0.5253	-0.0545	-0.0587	0.1083	-0.0249	-0.0529	-0.0833	-0.1915	-0.1295	-0.5692	0.1165	0.1737	0.2239	0.2062	-0.1052	0.1743	0.1626
0	0.0684	0.072	0.5716	0.0802	-0.3512	-0.0866	-0.1688	-0.0953	-0.5244	-0.1325	-0.3221	-0.6307	-0.3128	-0.5167	-0.0458	-0.1297	0.0563	-0.0858	-0.1037	-0.1232	-0.2104	-0.0936	-0.5631	0.1397	0.2637	0.4613	0.2522	-0.0009	0.3194	0.1698
3.9062	0.0232	-0.001	0.5566	0.0214	-0.3848	-0.124	-0.1591	-0.0671	-0.5646	-0.1408	-0.2996	-0.6058	-0.3372	-0.515	-0.0418	-0.2065	-0.0308	-0.1666	-0.1924	-0.1778	-0.2536	-0.1025	-0.5721	0.1435	0.3244	0.67	0.2787	0.0759	0.4667	0.1736
7.8125	-0.0281	-0.0822	0.5333	-0.0393	-0.4085	-0.1437	-0.1226	-0.0073	-0.56	-0.1282	-0.2555	-0.5807	-0.3519	-0.5171	-0.0427	-0.2834	-0.1484	-0.2611	-0.3113	-0.2432	-0.3143	-0.1599	-0.597	0.1335	0.3601	0.8422	0.2894	0.1248	0.5973	0.1769
11.7188	-0.083	-0.1681	0.5064	-0.0996	-0.4234	-0.1427	-0.0606	0.0833	-0.505	-0.0896	-0.1911	-0.5561	-0.3515	-0.5202	-0.0485	-0.3561	-0.288	-0.3609	-0.4505	-0.3154	-0.3844	-0.2636	-0.6368	0.1165	0.376	0.9711	0.2883	0.1477	0.6946	0.184
15.625	-0.1375	-0.2549	0.4806	-0.1599	-0.4351	-0.1239	0.0184	0.1975	-0.4054	-0.0275	-0.1129	-0.5351	-0.3356	-0.5236	-0.0583	-0.4221	-0.4389	-0.4568	-0.5999	-0.3913	-0.4567	-0.4068	-0.6891	0.0968	0.3741	1.0484	0.2764	0.146	0.749	0.1991
19.5312	-0.1855	-0.3378	0.4605	-0.2206	-0.4518	-0.0956	0.0989	0.321	-0.2796	0.0466	-0.0328	-0.5245	-0.3099	-0.5287	-0.07	-0.4802	-0.5889	-0.5396	-0.7492	-0.4683	-0.526	-0.5782	-0.751	0.0746	0.3522	1.0635	0.2508	0.1185	0.7607	0.2264
23.4375	-0.2188	-0.4094	0.4506	-0.2804	-0.4806	-0.0676	0.1621	0.434	-0.1558	0.1142	0.0336	-0.5335	-0.2849	-0.5388	-0.0794	-0.5294	-0.725	-0.6014	-0.889	-0.5437	-0.5893	-0.7632	-0.8196	0.0455	0.3037	1.005	0.2048	0.0617	0.7406	0.2695
27.3438	-0.2279	-0.4599	0.4552	-0.3343	-0.5251	-0.0483	0.1894	0.5153	-0.0659	0.1533	0.0703	-0.5714	-0.2731	-0.5574	-0.0803	-0.5673	-0.8351	-0.6359	-1.0095	-0.6134	-0.645	-0.9457	-0.8918	0.0017	0.2205	0.8652	0.1299	-0.0293	0.7081	0.3301
31.25	-0.205	-0.4792	0.4768	-0.3751	-0.5843	-0.0434	0.1672	0.5469	-0.0376	0.1444	0.0649	-0.6442	-0.2864	-0.5878	-0.0664	-0.5907	-0.9091	-0.6403	-1.102	-0.6725	-0.6929	-1.1105	-0.9649	-0.0649	0.0972	0.6446	0.0193	-0.157	0.6858	0.4066
35.1562	-0.1473	-0.46	0.5132	-0.3954	-0.6535	-0.0561	0.0896	0.5186	-0.0875	0.0751	0.0124	-0.752	-0.3331	-0.633	-0.0341	-0.5968	-0.9424	-0.6173	-1.1607	-0.7169	-0.7341	-1.2461	-1.0371	-0.1605	-0.0649	0.3572	-0.1291	-0.3189	0.6921	0.4926
39.0625	-0.062	-0.4037	0.5551	-0.3928	-0.7275	-0.0896	-0.0408	0.4306	-0.2159	-0.0563	-0.0837	-0.8878	-0.4177	-0.6966	0.0137	-0.587	-0.9389	-0.5778	-1.1862	-0.7468	-0.7733	-1.3487	-1.1094	-0.2865	-0.2534	0.0328	-0.3104	-0.5053	0.7342	0.5757
42.9688	0.0302	-0.3243	0.5833	-0.3744	-0.8049	-0.1498	-0.2143	0.2936	-0.4056	-0.2396	-0.2112	-1.0379	-0.5403	-0.7844	0.0637	-0.5703	-0.9145	-0.5429	-1.1889	-0.7694	-0.8204	-1.424	-1.1872	-0.4388	-0.4436	-0.2842	-0.5119	-0.6984	0.8018	0.6356
46.875	0.0949	-0.2503	0.5691	-0.3593	-0.8909	-0.2471	-0.4168	0.1266	-0.6247	-0.4545	-0.351	-1.1846	-0.6981	-0.9046	0.0915	-0.5654	-0.8972	-0.5431	-1.1899	-0.8019	-0.8908	-1.4881	-1.2815	-0.6077	-0.6004	-0.54	-0.7138	-0.8747	0.8655	0.6458
50.7812	0.0869	-0.2223	0.4781	-0.3772	-0.9975	-0.3959	-0.6319	-0.0468	-0.8315	-0.6737	-0.4806	-1.3092	-0.8851	-1.0672	0.0627	-0.6004	-0.9241	-0.6148	-1.2193	-0.8696	-1.0045	-1.5636	-1.4066	-0.7785	-0.6832	-0.6794	-0.8913	-1.0079	0.8798	0.5751
54.6875	-0.0416	-0.2857	0.2762	-0.4624	-1.1406	-0.6104	-0.8425	-0.2019	-0.9819	-0.8662	-0.5766	-1.3949	-1.0921	-1.2793	-0.061	-0.7076	-1.0351	-0.7929	-1.3097	-1.002	-1.1811	-1.6742	-1.5766	-0.9334	-0.6533	-0.6549	-1.0174	-1.0736	0.7923	0.3938
58.5938	-0.3292	-0.4793	-0.0605	-0.6446	-1.3335	-0.8984	-1.031	-0.3162	-1.0364	-1.0016	-0.6171	-1.4281	-1.3048	-1.5412	-0.3129	-0.9158	-1.2632	-1.1021	-1.4885	-1.2245	-1.4333	-1.8374	-1.7989	-1.0525	-0.4826	-0.4363	-1.066	-1.0531	0.5562	0.0803
62.5	-0.7938	-0.824	-0.5373	-0.9384	-1.5803	-1.2546	-1.1784	-0.3714	-0.9663	-1.0532	-0.5843	-1.3994	-1.5025	-1.8406	-0.7113	-1.2411	-1.6251	-1.5471	-1.7684	-1.5503	-1.7606	-2.0568	-2.0692	-1.1157	-0.1601	-0.0164	-1.0154	-0.9363	0.1441	-0.3702
66.4062	-1.424	-1.313	-1.1348	-1.336	-1.8703	-1.6572	-1.2648	-0.3553	-0.7585	-1.0004	-0.4662	-1.3029	-1.6584	-2.1503	-1.2511	-1.6797	-2.1128	-2.1071	-2.1416	-1.9725	-2.1449	-2.3184	-2.3667	-1.1032	0.3044	0.5856	-0.8505	-0.723	-0.4414	-0.9405
70.3125	-2.1754	-1.9093	-1.8074	-1.8048	-2.177	-2.0682	-1.2708	-0.2631	-0.4181	-0.8316	-0.2582	-1.1358	-1.7413	-2.4298	-1.8993	-2.2033	-2.69	-2.7342	-2.5763	-2.4617	-2.5498	-2.5893	-2.6548	-0.9978	0.8801	1.3261	-0.5656	-0.4231	-1.1618	-1.5888
74.2188	-2.9752	-2.5486	-2.4886	-2.2917	-2.4611	-2.4394	-1.1797	-0.0985	0.0317	-0.5455	0.0362	-0.8975	-1.7199	-2.6308	-2.5967	-2.7616	-3.2956	-3.3584	-3.0207	-2.9678	-2.9256	-2.8235	-2.8856	-0.7864	1.5187	2.1417	-0.1647	-0.0543	-1.9456	-2.2513
78.125	-3.733	-3.1509	-3.1016	-2.7327	-2.6774	-2.7218	-0.9819	0.126	0.5533	-0.1519	0.4054	-0.5893	-1.5682	-2.7059	-3.2654	-3.2892	-3.8521	-3.8986	-3.4115	-3.4288	-3.2173	-2.9704	-3.0098	-0.4628	2.1617	2.9587	0.3375	0.361	-2.6979	-2.8496
82.0312	-4.3564	-3.6348	-3.5722	-3.0655	-2.7844	-2.8755	-0.6774	0.3902	1.1002	0.329	0.831	-0.2145	-1.2715	-2.6187	-3.822	-3.7177	-4.2801	-4.2773	-3.6864	-3.7816	-3.3756	-2.9867	-2.9881	-0.0303	2.7487	3.7032	0.9172	0.7986	-3.318	-3.303
85.9375	-4.7681	-3.9335	-3.8429	-3.242	-2.7519	-2.8771	-0.2774	0.6686	1.6245	0.8692	1.2895	0.221	-0.8311	-2.3523	-4.1923	-3.9881	-4.5134	-4.436	-3.7969	-3.9748	-3.3666	-2.8461	-2.8012	0.4963	3.2262	4.3119	1.5433	1.2363	-3.7184	-3.5422
89.8438	-4.9196	-4.0066	-3.8826	-3.2363	-2.567	-2.7236	0.1964	0.9334	2.0836	1.4359	1.7552	0.7074	-0.2656	-1.9138	-4.3262	-4.0626	-4.5133	-4.3474	-3.7189	-3.9785	-3.1788	-2.5466	-2.4561	1.0901	3.5546	4.7403	2.1794	1.6558	-3.8423	-3.5231
93.75	-4.7985	-3.8467	-3.6902	-3.0474	-2.2367	-2.431	0.7145	1.1579	2.446	1.995	2.2019	1.2302	0.3896	-1.3343	-4.206	-3.9307	-4.2755	-4.0211	-3.4568	-3.7894	-2.825	-2.1108	-1.9855	1.7128	3.7118	4.967	2.7873	2.0426	-3.6743	-3.2363
97.6562	-4.4282	-3.4774	-3.292	-2.6964	-1.7849	-2.0283	1.2435	1.3205	2.6941	2.5151	2.6056	1.769	1.0875	-0.6636	-3.8492	-3.6094	-3.8307	-3.5004	-3.0418	-3.429	-2.3387	-1.5809	-1.4408	2.3189	3.6948	4.9942	3.3303	2.3865	-3.2404	-2.7086
101.5625	-3.8585	-2.9454	-2.7329	-2.2184	-1.2472	-1.5498	1.7519	1.4081	2.8243	2.9704	2.9464	2.2997	1.7766	0.0394	-3.3024	-3.1368	-3.2363	-2.8522	-2.5234	-2.9377	-1.7659	-1.0094	-0.8809	2.8615	3.5179	4.844	3.7772	2.6807	-2.5991	-1.9972
105.4688	-3.1533	-2.3086	-2.0657	-1.6538	-0.6632	-1.0269	2.2137	1.4185	2.8454	3.3436	3.2105	2.7965	2.4091	0.7172	-2.6295	-2.5623	-2.5629	-2.1516	-1.9576	-2.3641	-1.1556	-0.4475	-0.3593	3.3001	3.2096	4.5535	4.1064	2.9213	-1.8251	-1.1773
109.375	-2.3763	-1.6233	-1.34	-1.0395	-0.0693	-0.4824	2.612	1.3609	2.7761	3.6265	3.3914	3.236	2.9481	1.3242	-1.8982	-1.9358	-1.8794	-1.4667	-1.3945	-1.7541	-0.5499	0.0646	0.0863	3.6075	2.8084	4.1688	4.3087	3.1077	-0.9926	-0.3269
113.2812	-1.5803	-0.9349	-0.5951	-0.4044	0.5066	0.0706	2.9398	1.2543	2.6397	3.82	3.4907	3.6002	3.372	1.8328	-1.1673	-1.2986	-1.239	-0.8467	-0.8696	-1.1429	0.0223	0.504	0.4393	3.775	2.3585	3.7377	4.3885	3.2422	-0.1615	0.4872
117.1875	-0.8017	-0.273	0.1426	0.2324	1.0473	0.6257	3.1979	1.1238	2.4606	3.9317	3.5164	3.8785	3.675	2.2351	-0.4774	-0.6784	-0.6722	-0.316	-0.399	-0.5513	0.5469	0.8661	0.7029	3.8124	1.9045	3.305	4.3617	3.3295	0.6298	1.2183
121.0938	-0.0608	0.3483	0.8569	0.8591	1.5442	1.1779	3.3917	0.9941	2.2593	3.9721	3.4806	4.0673	3.864	2.5395	0.1515	-0.0895	-0.185	0.1258	0.0187	0.0139	1.0228	1.1607	0.8943	3.7451	1.4862	2.9069	4.2518	3.3748	1.3634	1.8436
125	0.6343	0.9262	1.5376	1.4669	1.994	1.7174	3.5264	0.8844	2.0489	3.951	3.3957	4.1683	3.9531	2.7638	0.7183	0.4645	0.2359	0.4977	0.3964	0.5545	1.456	1.4049	1.0358	3.6066	1.1341	2.568	4.0841	3.3824	2.0364	2.362
128.9062	1.2816	1.4631	2.1747	2.0458	2.394	2.2258	3.6042	0.8035	1.8344	3.8745	3.2714	4.1856	3.9577	2.9274	1.2341	0.9848	0.6146	0.828	0.7502	1.0747	1.8533	1.6158	1.1462	3.4303	0.8661	2.2993	3.8797	3.353	2.6523	2.7869
132.8125	1.8785	1.9605	2.7554	2.5813	2.739	2.6765	3.6217	0.7483	1.6125	3.7435	3.1125	4.1226	3.8902	3.0445	1.7138	1.4719	0.9749	1.144	1.0917	1.5747	2.2166	1.8041	1.2354	3.2426	0.6862	2.0992	3.652	3.2831	3.2127	3.1374
136.7188	2.4182	2.4151	3.2632	3.0544	3.0199	3.0384	3.5715	0.7045	1.3744	3.5543	2.9186	3.9801	3.7575	3.1206	2.1674	1.9215	1.3319	1.4629	1.4221	2.0468	2.5394	1.9714	1.3031	3.0579	0.5856	1.9559	3.4049	3.1651	3.7121	3.4288
140.625	2.8874	2.8167	3.6786	3.4431	3.2249	3.2824	3.4438	0.6519	1.1097	3.301	2.6856	3.7566	3.5617	3.1519	2.5942	2.3223	1.6859	1.7864	1.7311	2.4745	2.8073	2.1103	1.3407	2.8784	0.547	1.8516	3.1348	2.9894	4.1354	3.6668
144.5312	3.2678	3.1486	3.9821	3.7257	3.3419	3.3876	3.2311	0.5691	0.8112	2.979	2.4084	3.4495	3.3024	3.128	2.98	2.6563	2.0216	2.099	1.9987	2.8342	3.0001	2.2082	1.3363	2.6959	0.5492	1.7679	2.8344	2.7477	4.4604	3.8455
148.4375	3.5381	3.3903	4.1554	3.8844	3.3615	3.3457	2.9317	0.4403	0.4789	2.5885	2.0846	3.059	2.9802	3.036	3.2996	2.9015	2.3112	2.3717	2.2002	3.0995	3.097	2.2517	1.2814	2.4979	0.5729	1.6902	2.4978	2.4372	4.6614	3.9492
152.3438	3.6796	3.5212	4.1847	3.9082	3.2796	3.1629	2.5528	0.2602	0.123	2.1381	1.7176	2.5917	2.6003	2.8666	3.5219	3.0359	2.5214	2.569	2.3129	3.2466	3.082	2.2325	1.1755	2.2735	0.6045	1.6117	2.1255	2.0636	4.7164	3.9593
156.25	3.68	3.5245	4.0637	3.7951	3.0987	2.8581	2.1115	0.0362	-0.2361	1.6462	1.3187	2.0636	2.1748	2.6178	3.618	3.0428	2.6209	2.6589	2.3212	3.2595	2.9482	2.1496	1.0291	2.0185	0.6385	1.5342	1.7269	1.6424	4.6129	3.8614
160.1562	3.538	3.3919	3.7962	3.5529	2.8283	2.4599	1.6339	-0.2121	-0.5692	1.1406	0.9078	1.5012	1.7225	2.2981	3.5688	2.9149	2.5883	2.6205	2.2209	3.1341	2.701	2.0111	0.8614	1.7387	0.6766	1.4667	1.32	1.1989	4.3532	3.6517
164.0625	3.2643	3.1258	3.3981	3.1986	2.4841	2.0016	1.1519	-0.4566	-0.8437	0.6555	0.5116	0.9394	1.2673	1.9259	3.3699	2.6563	2.4162	2.4491	2.0185	2.8791	2.358	1.8305	0.6947	1.4492	0.7253	1.4214	0.9285	0.7637	3.9557	3.34
167.9688	2.8809	2.7412	2.8976	2.7578	2.086	1.5173	0.6988	-0.6654	-1.0285	0.2269	0.1594	0.4164	0.8344	1.5271	3.0335	2.2835	2.1126	2.1571	1.7293	2.5148	1.9458	1.6232	0.5462	1.1708	0.7913	1.4091	0.5769	0.3684	3.454	2.9482
171.875	2.4177	2.2652	2.3337	2.2628	1.657	1.0395	0.3051	-0.8088	-1.0992	-0.1124	-0.1202	-0.0315	0.4463	1.1305	2.5859	1.8232	1.6987	1.7699	1.3736	2.0701	1.4963	1.4011	0.4225	0.9257	0.8775	1.4345	0.2858	0.0395	2.8921	2.5055
175.7812	1.9092	1.7356	1.7521	1.7507	1.2218	0.5978	-0.0046	-0.8641	-1.0418	-0.3372	-0.3042	-0.3754	0.1204	0.7629	2.0633	1.3095	1.206	1.3214	0.9736	1.5788	1.0422	1.1716	0.3176	0.7322	0.9804	1.4942	0.069	-0.2055	2.3186	2.0429
179.6875	1.3903	1.1975	1.1997	1.2609	0.8056	0.2177	-0.2135	-0.8182	-0.8544	-0.4332	-0.378	-0.5979	-0.133	0.4461	1.5073	0.7805	0.6728	0.8485	0.5524	1.0767	0.6129	0.9375	0.2172	0.6022	1.0898	1.5768	-0.0678	-0.3608	1.7794	1.5882
183.5938	0.8934	0.6974	0.7183	0.8306	0.4325	-0.0804	-0.3143	-0.6692	-0.5476	-0.3988	-0.3373	-0.6949	-0.3107	0.1935	0.9599	0.2743	0.1405	0.3869	0.134	0.5973	0.232	0.7003	0.1053	0.5403	1.1905	1.6649	-0.1264	-0.4324	1.3105	1.163
187.5	0.4451	0.2769	0.3377	0.4899	0.123	-0.2831	-0.3085	-0.4265	-0.1432	-0.2444	-0.1888	-0.6747	-0.4156	0.0096	0.4599	-0.1755	-0.3504	-0.0316	-0.2569	0.1691	-0.0848	0.4638	-0.0275	0.5439	1.2658	1.7385	-0.1146	-0.4356	0.9342	0.7831
191.4062	0.0646	-0.0344	0.0715	0.257	-0.1091	-0.3853	-0.2066	-0.1086	0.3283	0.0089	0.0512	-0.5566	-0.456	-0.1098	0.0381	-0.5441	-0.7637	-0.3805	-0.5955	-0.187	-0.33	0.2366	-0.1784	0.6056	1.3017	1.7785	-0.045	-0.392	0.6566	0.4593
195.3125	-0.2382	-0.224	-0.0847	0.1349	-0.2584	-0.3916	-0.026	0.2594	0.8317	0.3324	0.3583	-0.3669	-0.4431	-0.1758	-0.2847	-0.8183	-1.0722	-0.6404	-0.8594	-0.461	-0.505	0.0327	-0.3316	0.7145	1.2902	1.7707	0.0665	-0.325	0.4685	0.1989
199.2188	-0.4626	-0.2984	-0.1514	0.1109	-0.3292	-0.3154	0.2103	0.6492	1.3305	0.6929	0.7033	-0.1361	-0.3905	-0.2038	-0.5015	-0.9988	-1.2612	-0.7995	-1.0319	-0.6542	-0.6193	-0.1311	-0.4617	0.8583	1.2311	1.7076	0.2012	-0.2565	0.3498	0.0062
203.125	-0.6176	-0.2826	-0.1608	0.1584	-0.3352	-0.1786	0.4757	1.0321	1.7908	1.0559	1.0544	0.1045	-0.3129	-0.2117	-0.6193	-1.1001	-1.3313	-0.856	-1.1061	-0.78	-0.6891	-0.2386	-0.5406	1.024	1.1316	1.5896	0.339	-0.205	0.274	-0.1177
207.0312	-0.7196	-0.2145	-0.1508	0.242	-0.2966	-0.0083	0.7427	1.3823	2.1843	1.3882	1.3803	0.3245	-0.2261	-0.2171	-0.6579	-1.1482	-1.2988	-0.8182	-1.0878	-0.8618	-0.7361	-0.2792	-0.546	1.1982	1.0042	1.4236	0.4595	-0.1841	0.2132	-0.1761
210.9375	-0.7898	-0.1385	-0.1585	0.3232	-0.2379	0.1659	0.9848	1.6789	2.4903	1.6608	1.653	0.4969	-0.1468	-0.2355	-0.6464	-1.1765	-1.1937	-0.7048	-0.9953	-0.9296	-0.7841	-0.2516	-0.4675	1.3676	0.8628	1.221	0.5439	-0.2034	0.1433	-0.1781
214.8438	-0.8509	-0.0973	-0.2144	0.3668	-0.1837	0.3156	1.1793	1.9077	2.6968	1.851	1.8499	0.5997	-0.0909	-0.2787	-0.6177	-1.2194	-1.055	-0.5424	-0.858	-1.0144	-0.8563	-0.1651	-0.3106	1.5188	0.7203	0.9955	0.5771	-0.268	0.047	-0.1375
218.75	-0.9228	-0.1245	-0.3382	0.3464	-0.1551	0.4177	1.3097	2.0618	2.8016	1.9449	1.9567	0.6178	-0.0723	-0.3533	-0.6023	-1.3059	-0.9238	-0.3619	-0.7107	-1.1423	-0.9701	-0.0383	-0.0947	1.6398	0.5857	0.7609	0.5503	-0.3792	-0.0839	-0.0721
222.6562	-1.0185	-0.2389	-0.5356	0.2481	-0.1665	0.4568	1.3676	2.1426	2.812	1.939	1.9687	0.5457	-0.0995	-0.4597	-0.6222	-1.4538	-0.8357	-0.1928	-0.5871	-1.329	-1.1334	0.1048	0.1514	1.7216	0.4644	0.5307	0.463	-0.534	-0.247	-0.0001
226.5625	-1.1415	-0.4414	-0.7975	0.0732	-0.2229	0.4276	1.3541	2.1587	2.7446	1.8416	1.8919	0.388	-0.1732	-0.5907	-0.6858	-1.665	-0.8133	-0.0581	-0.5126	-1.5753	-1.3412	0.2403	0.3971	1.76	0.3585	0.3173	0.3234	-0.7242	-0.4305	0.0641
230.4688	-1.2844	-0.7147	-1.1013	-0.1628	-0.3194	0.336	1.2796	2.1246	2.6227	1.6714	1.7423	0.1604	-0.2852	-0.7326	-0.7857	-1.9247	-0.862	0.03	-0.4983	-1.8659	-1.5756	0.3509	0.6171	1.7573	0.2683	0.1315	0.1479	-0.9371	-0.6154	0.1133
234.375	-1.4303	-1.0267	-1.4143	-0.4316	-0.4414	0.1982	1.1625	2.0582	2.4735	1.4551	1.5435	-0.113	-0.4184	-0.866	-0.8995	-2.2027	-0.9684	0.0722	-0.5384	-2.1712	-1.8069	0.4297	0.7968	1.7214	0.193	-0.0179	-0.0419	-1.1562	-0.78	0.1495
238.2812	-1.5554	-1.3356	-1.6991	-0.6972	-0.5675	0.0386	1.0264	1.9783	2.3238	1.2237	1.323	-0.4031	-0.5498	-0.9684	-0.9942	-2.4586	-1.1023	0.0816	-0.6109	-2.4516	-1.9993	0.4818	0.9347	1.664	0.1311	-0.1251	-0.2229	-1.364	-0.9043	0.183
242.1875	-1.6336	-1.5967	-1.9188	-0.9201	-0.6723	-0.1136	0.8967	1.9021	2.1963	1.0078	1.1083	-0.6811	-0.6548	-1.0176	-1.0334	-2.6487	-1.2239	0.0801	-0.6827	-2.6643	-2.1165	0.5225	1.0396	1.5975	0.0804	-0.1892	-0.3754	-1.5449	-0.9748	0.2282
246.0938	-1.6423	-1.7696	-2.0434	-1.0641	-0.7306	-0.229	0.7969	1.8442	2.1065	0.8334	0.923	-0.9233	-0.7113	-0.9954	-0.9856	-2.7342	-1.2916	0.0923	-0.7171	-2.7708	-2.1289	0.5719	1.126	1.5322	0.0378	-0.2148	-0.487	-1.6888	-0.9864	0.299
250	-1.5665	-1.8246	-2.0544	-1.1014	-0.7216	-0.2833	0.7458	1.8153	2.062	0.7193	0.7838	-1.115	-0.7044	-0.8907	-0.8324	-2.6886	-1.2717	0.1394	-0.6836	-2.7443	-2.0188	0.6487	1.2072	1.4749	-0.0006	-0.2126	-0.5546	-1.7925	-0.9432	0.4037
253.9062	-1.4025	-1.7471	-1.9479	-1.0168	-0.6315	-0.2615	0.7549	1.8219	2.0622	0.6757	0.6999	-1.2521	-0.6283	-0.7017	-0.5731	-2.5031	-1.1458	0.2336	-0.5646	-2.5747	-1.7842	0.7641	1.2895	1.4275	-0.0398	-0.199	-0.5847	-1.861	-0.8569	0.5427
257.8125	-1.1585	-1.5388	-1.7348	-0.81	-0.4565	-0.1604	0.8271	1.8657	2.1007	0.7034	0.6723	-1.3392	-0.4871	-0.4364	-0.226	-2.1879	-0.9149	0.3756	-0.3605	-2.2704	-1.4388	0.9179	1.3704	1.3889	-0.0856	-0.1933	-0.5905	-1.9053	-0.7441	0.7074
261.7188	-0.8537	-1.2169	-1.4392	-0.4952	-0.2024	0.0116	0.9577	1.9446	2.1678	0.7962	0.6964	-1.3868	-0.2924	-0.1113	0.1739	-1.7709	-0.5993	0.5545	-0.0894	-1.8565	-1.0087	1.0988	1.4398	1.356	-0.1443	-0.2147	-0.5873	-1.9396	-0.6239	0.8817
265.625	-0.515	-0.8111	-1.0941	-0.0984	0.116	0.2374	1.1358	2.0529	2.2532	0.9422	0.7633	-1.4063	-0.0604	0.2507	0.5813	-1.2928	-0.2345	0.7494	0.2171	-1.3707	-0.5286	1.2876	1.4838	1.3257	-0.2218	-0.2784	-0.5884	-1.9769	-0.5151	1.0444
269.5312	-0.1741	-0.3603	-0.7365	0.3451	0.4762	0.4941	1.3466	2.183	2.3489	1.1263	0.8624	-1.4059	0.1909	0.6234	0.9476	-0.8012	0.134	0.9327	0.5194	-0.8575	-0.0363	1.4618	1.4898	1.2961	-0.3225	-0.3918	-0.6012	-2.0255	-0.4342	1.1728
273.4375	0.136	0.0914	-0.4043	0.7944	0.8503	0.7558	1.5734	2.3267	2.4496	1.3318	0.9828	-1.3889	0.4443	0.98	1.2286	-0.3446	0.4593	1.075	0.7779	-0.3631	0.4313	1.6003	1.4503	1.2662	-0.4479	-0.5529	-0.626	-2.0872	-0.394	1.2459
277.3438	0.3841	0.4982	-0.1323	1.2065	1.2076	0.9955	1.7993	2.4753	2.553	1.5412	1.1139	-1.354	0.6844	1.2959	1.3913	0.0331	0.6997	1.1493	0.9599	0.0704	0.8419	1.6882	1.3652	1.2355	-0.5959	-0.7498	-0.6577	-2.157	-0.4035	1.248
281.25	0.5434	0.8173	0.0497	1.5409	1.5172	1.188	2.0095	2.6214	2.6589	1.7383	1.2465	-1.2965	0.8983	1.5512	1.4189	0.2978	0.8263	1.1371	1.0451	0.4095	1.1704	1.7189	1.2418	1.2028	-0.7612	-0.9641	-0.6878	-2.2255	-0.468	1.1708
285.1562	0.5952	1.0145	0.1191	1.7653	1.7535	1.3128	2.1929	2.7587	2.7688	1.91	1.3737	-1.2115	1.0773	1.7335	1.314	0.4296	0.828	1.0321	1.0299	0.6331	1.4019	1.6956	1.0935	1.1661	-0.9359	-1.1753	-0.7081	-2.2822	-0.5888	1.0157
289.0625	0.5316	1.0701	0.0644	1.8612	1.9008	1.3586	2.3447	2.8838	2.8856	2.0491	1.4922	-1.096	1.2176	1.8403	1.0979	0.4257	0.7137	0.8426	0.9275	0.7362	1.5335	1.6304	0.936	1.1234	-1.1128	-1.3664	-0.7125	-2.3186	-0.7642	0.7936
292.9688	0.3584	0.9848	-0.111	1.8298	1.9581	1.3275	2.4683	2.997	3.0129	2.1559	1.6028	-0.9504	1.3219	1.8804	0.8075	0.3029	0.5114	0.5905	0.7663	0.7315	1.5759	1.5427	0.7853	1.0745	-1.2864	-1.5291	-0.698	-2.3302	-0.989	0.5236
296.875	0.0974	0.7834	-0.3863	1.6948	1.9422	1.2372	2.5749	3.1021	3.1547	2.2392	1.71	-0.7788	1.4	1.8742	0.4901	0.0964	0.2644	0.3088	0.586	0.6489	1.5532	1.4569	0.6556	1.0226	-1.4545	-1.6647	-0.6643	-2.3179	-1.2547	0.2303
300.7812	-0.2151	0.5132	-0.7221	1.5012	1.8866	1.1203	2.6823	3.206	3.3136	2.3135	1.8198	-0.5893	1.4678	1.851	0.1967	-0.1427	0.0249	0.0361	0.4317	0.5327	1.501	1.4003	0.5595	0.976	-1.617	-1.7826	-0.612	-2.2871	-1.5476	-0.0599
304.6875	-0.5307	0.2385	-1.0647	1.3086	1.8371	1.0196	2.8105	3.317	3.4887	2.3955	1.9366	-0.3923	1.5451	1.8447	-0.0255	-0.3546	-0.1541	-0.1879	0.3476	0.4357	1.4616	1.3991	0.5073	0.947	-1.7743	-1.8956	-0.542	-2.2456	-1.8477	-0.321
308.5938	-0.7958	0.03	-1.3542	1.1807	1.8437	0.9803	2.9768	3.4418	3.6739	2.4987	2.0596	-0.2004	1.6508	1.8882	-0.1394	-0.4799	-0.227	-0.3289	0.3692	0.4107	1.4778	1.4753	0.5071	0.9489	-1.9263	-2.0161	-0.4554	-2.2029	-2.1284	-0.5307
312.5	-0.96	-0.0493	-1.5349	1.1729	1.9503	1.0406	3.1905	3.5833	3.857	2.6289	2.1812	-0.0274	1.7993	2.0068	-0.1228	-0.4692	-0.1634	-0.363	0.5181	0.5011	1.5853	1.6427	0.5638	0.9926	-2.0729	-2.153	-0.3545	-2.1692	-2.3592	-0.6721
316.4062	-0.9853	0.0442	-1.5667	1.3214	2.1853	1.2235	3.4499	3.7388	4.0208	2.7818	2.2859	0.1122	1.9961	2.214	0.0288	-0.2929	0.048	-0.2803	0.7982	0.7329	1.8065	1.905	0.6786	1.0828	-2.2133	-2.3102	-0.2438	-2.1548	-2.5109	-0.7361
320.3125	-0.8536	0.3255	-1.4335	1.6364	2.5552	1.5321	3.7411	3.8994	4.145	2.943	2.3526	0.2042	2.2369	2.5093	0.3025	0.0547	0.3975	-0.0868	1.196	1.1103	2.1467	2.255	0.8489	1.2163	-2.3466	-2.485	-0.1306	-2.1697	-2.5628	-0.724
324.2188	-0.5718	0.7777	-1.1478	2.1	3.0426	1.9477	4.0403	4.0506	4.21	3.0913	2.3587	0.2358	2.5081	2.8781	0.6701	0.5534	0.8575	0.1966	1.6839	1.6148	2.5928	2.6761	1.0689	1.383	-2.4694	-2.6679	-0.0235	-2.2217	-2.5089	-0.648
328.125	-0.1708	1.3561	-0.7479	2.67	3.6089	2.4335	4.3189	4.175	4.2013	3.2041	2.2859	0.199	2.7898	3.2951	1.0929	1.161	1.3875	0.5387	2.2247	2.2087	3.1153	3.1448	1.3301	1.5681	-2.5747	-2.842	0.0697	-2.3142	-2.3614	-0.5299
332.0312	0.2994	1.996	-0.291	3.2877	4.2013	2.9408	4.5491	4.2568	4.1134	3.2634	2.1264	0.0937	3.0605	3.7277	1.5268	1.8202	1.9407	0.904	2.7776	2.8412	3.6726	3.6327	1.6221	1.7553	-2.6517	-2.9847	0.1444	-2.4433	-2.1487	-0.3963
335.9375	0.7784	2.6248	0.1582	3.8881	4.7618	3.4175	4.7103	4.2852	3.9527	3.2611	1.8872	-0.0696	3.3007	4.1406	1.9288	2.4674	2.4711	1.2596	3.3031	3.4559	4.2167	4.1095	1.933	1.9299	-2.6869	-3.0715	0.2008	-2.5958	-1.9108	-0.2739
339.8438	1.206	3.174	0.5402	4.4099	5.2365	3.8161	4.7919	4.2576	3.737	3.201	1.5914	-0.2694	3.4963	4.5002	2.2622	3.0414	2.9377	1.5799	3.7662	3.9982	4.6992	4.5449	2.2488	2.0803	-2.6686	-3.0814	0.2439	-2.7496	-1.6903	-0.1835
343.75	1.5324	3.5898	0.8113	4.8048	5.5829	4.1006	4.7943	4.18	3.4929	3.0967	1.2747	-0.4761	3.6387	4.7779	2.4999	3.4913	3.3082	1.849	4.1386	4.4225	5.0773	4.9098	2.5527	2.1982	-2.5908	-3.0022	0.2813	-2.8778	-1.5242	-0.1373
347.6562	1.7255	3.8404	0.9504	5.0435	5.7751	4.2505	4.7262	4.0648	3.2491	2.967	0.9779	-0.6573	3.7242	4.9525	2.6263	3.7826	3.56	2.059	4.3988	4.6968	5.3189	5.1788	2.8246	2.278	-2.4575	-2.836	0.3207	-2.9538	-1.4365	-0.138
351.5625	1.7754	3.919	0.9605	5.1183	5.806	4.2627	4.6005	3.9274	3.0304	2.83	0.7382	-0.7846	3.7516	5.0118	2.6379	3.9012	3.6813	2.2075	4.534	4.807	5.4067	5.3324	3.042	2.3155	-2.2839	-2.6003	0.3669	-2.958	-1.4341	-0.1809
355.4688	1.6943	3.8435	0.8662	5.0431	5.6877	4.151	4.4315	3.7828	2.8528	2.6986	0.581	-0.8396	3.7216	4.9537	2.5427	3.8542	3.6723	2.2941	4.5412	4.7582	5.3408	5.3609	3.1835	2.3081	-2.0947	-2.3271	0.4203	-2.8833	-1.5069	-0.2569
359.375	1.5117	3.6505	0.7061	4.8494	5.4482	3.9437	4.2329	3.6426	2.7222	2.5786	0.5152	-0.8171	3.6363	4.7872	2.3589	3.6686	3.5452	2.3194	4.4295	4.5737	5.1382	5.2677	3.2344	2.2546	-1.9203	-2.0564	0.4773	-2.7367	-1.632	-0.356
363.2812	1.2675	3.3878	0.5242	4.5803	5.1273	3.6785	4.0183	3.5148	2.6351	2.4702	0.5337	-0.7245	3.5014	4.5322	2.1123	3.3863	3.3241	2.285	4.2203	4.2915	4.8313	5.0704	3.1907	2.1572	-1.7891	-1.8285	0.5323	-2.5371	-1.7801	-0.4704
367.1875	1.0028	3.1044	0.3599	4.2815	4.7695	3.3965	3.8014	3.4039	2.5833	2.3717	0.6169	-0.5785	3.327	4.2174	1.8322	3.0567	3.0416	2.1952	3.9452	3.9574	4.4622	4.7991	3.0615	2.0227	-1.7216	-1.6751	0.5799	-2.31	-1.9239	-0.5951
371.0938	0.7522	2.8411	0.2408	3.9942	4.4176	3.1349	3.5973	3.3122	2.5574	2.2823	0.7395	-0.4	3.1286	3.8767	1.5469	2.7276	2.7349	2.0598	3.6419	3.6171	4.0763	4.4916	2.8681	1.8629	-1.7253	-1.6125	0.6175	-2.0811	-2.0436	-0.7271
375	0.5386	2.625	0.1788	3.7483	4.1068	2.9219	3.4217	3.2419	2.5513	2.2051	0.8769	-0.2091	2.926	3.5449	1.2806	2.4382	2.4397	1.8946	3.3482	3.3089	3.7157	4.1878	2.6401	1.6944	-1.7927	-1.6387	0.6456	-1.871	-2.1303	-0.8639
378.9062	0.3718	2.4666	0.1701	3.5599	3.8612	2.7734	3.2898	3.1961	2.5635	2.1477	1.0106	-0.0214	2.7405	3.2523	1.0499	2.2135	2.1853	1.7204	3.0958	3.0579	3.413	3.9223	2.4099	1.5358	-1.9039	-1.7355	0.6676	-1.6921	-2.1851	-1.001
382.8125	0.2504	2.3621	0.2003	3.4316	3.6931	2.6932	3.2136	3.1791	2.597	2.1199	1.1305	0.1526	2.5914	3.0207	0.8638	2.0622	1.9909	1.56	2.906	2.8736	3.188	3.7198	2.2067	1.4043	-2.0326	-1.8745	0.6863	-1.5492	-2.2146	-1.1311
386.7188	0.1659	2.2977	0.2506	3.3558	3.6032	2.6757	3.1993	3.1955	2.6578	2.1311	1.2346	0.3074	2.4913	2.8605	0.7242	1.9781	1.8633	1.4335	2.7868	2.7506	3.0455	3.5918	2.051	1.3116	-2.1528	-2.0254	0.7017	-1.4422	-2.226	-1.2434
390.625	0.1079	2.2561	0.3051	3.3192	3.5836	2.7095	3.2453	3.2481	2.7507	2.186	1.326	0.4397	2.4443	2.7706	0.6277	1.944	1.7974	1.3545	2.7332	2.672	2.9769	3.5363	1.9524	1.2608	-2.2457	-2.1644	0.7085	-1.3696	-2.2212	-1.3243
394.5312	0.0684	2.2215	0.3558	3.3068	3.6206	2.7816	3.3411	3.3352	2.8754	2.282	1.4096	0.5472	2.4441	2.7391	0.5677	1.9366	1.7781	1.3273	2.7295	2.6145	2.9623	3.5397	1.9101	1.2451	-2.3036	-2.2792	0.6968	-1.3314	-2.1944	-1.3598
398.4375	0.0446	2.1837	0.4043	3.3057	3.6974	2.8804	3.4682	3.4485	3.0235	2.4075	1.4875	0.6266	2.4757	2.7473	0.5364	1.9317	1.784	1.3475	2.7535	2.5541	2.9759	3.5813	1.9148	1.2494	-2.3302	-2.3707	0.6537	-1.3294	-2.1324	-1.3376
402.3438	0.0386	2.1395	0.4605	3.3067	3.7965	2.9964	3.6023	3.5714	3.1767	2.5426	1.5574	0.674	2.5186	2.7731	0.5254	1.9083	1.7915	1.403	2.7813	2.4708	2.9901	3.6376	1.9525	1.254	-2.3375	-2.4487	0.5682	-1.3656	-2.0185	-1.2498
406.25	0.0551	2.0908	0.5376	3.304	3.9007	3.1218	3.7174	3.681	3.309	2.6625	1.6118	0.686	2.5517	2.7951	0.526	1.8509	1.7781	1.4773	2.7911	2.3513	2.9807	3.686	2.0064	1.2392	-2.3399	-2.5256	0.4359	-1.4387	-1.8375	-1.095
410.1562	0.0977	2.0416	0.6472	3.2936	3.994	3.2482	3.7896	3.7511	3.3911	2.742	1.64	0.6617	2.5572	2.7957	0.5285	1.7496	1.7257	1.5523	2.7659	2.1901	2.9299	3.7083	2.0594	1.1911	-2.3481	-2.6083	0.2621	-1.5408	-1.5818	-0.8799
414.0625	0.1643	1.994	0.7936	3.2712	4.0614	3.3654	3.8013	3.7581	3.3973	2.7611	1.6311	0.6043	2.5249	2.7634	0.5217	1.5995	1.622	1.6116	2.695	1.9884	2.8284	3.692	2.0952	1.1045	-2.365	-2.6922	0.0641	-1.6557	-1.2552	-0.6191
417.9688	0.2456	1.9452	0.9711	3.2301	4.0891	3.46	3.7437	3.6859	3.3118	2.7091	1.5775	0.5215	2.4527	2.6927	0.4936	1.3989	1.4613	1.6426	2.5741	1.7507	2.6744	3.6307	2.1005	0.9836	-2.3847	-2.76	-0.132	-1.7601	-0.8747	-0.3331
421.875	0.3244	1.8864	1.1636	3.1608	4.0654	3.5172	3.6173	3.5305	3.1334	2.5863	1.4777	0.4244	2.3457	2.5831	0.4321	1.1477	1.2441	1.638	2.404	1.4824	2.4719	3.5236	2.0657	0.8405	-2.3951	-2.7854	-0.2961	-1.8278	-0.469	-0.0464
425.7812	0.3782	1.8035	1.3472	3.0515	3.9809	3.5222	3.4306	3.3006	2.8762	2.403	1.3367	0.3251	2.2127	2.4364	0.3266	0.8467	0.9754	1.5951	2.1884	1.1866	2.2273	3.3733	1.9864	0.6908	-2.3834	-2.7414	-0.4014	-1.8364	-0.074	0.2163
429.6875	0.3831	1.6799	1.494	2.8902	3.8301	3.4632	3.1971	3.0158	2.5669	2.1762	1.1654	0.2339	2.0623	2.2543	0.1688	0.4966	0.6623	1.5144	1.9314	0.8626	1.9464	3.1832	1.8623	0.5493	-2.3417	-2.6097	-0.432	-1.7735	0.2731	0.4323
433.5938	0.3184	1.5004	1.5778	2.6676	3.6113	3.3339	2.9322	2.7016	2.2378	1.925	0.9779	0.1567	1.9001	2.037	-0.0459	0.0994	0.3121	1.3971	1.6361	0.5064	1.6328	2.956	1.6964	0.4261	-2.271	-2.389	-0.387	-1.6413	0.541	0.5833
437.5	0.1717	1.256	1.5792	2.3803	3.3285	3.1345	2.65	2.3841	1.9197	1.6668	0.7889	0.0945	1.7274	1.7832	-0.3176	-0.3401	-0.0688	1.2437	1.3042	0.1138	1.289	2.6932	1.4937	0.3255	-2.1817	-2.0979	-0.2811	-1.4574	0.7094	0.6568
441.4062	-0.0576	0.9475	1.4905	2.0339	2.992	2.8735	2.3628	2.0843	1.6357	1.4149	0.6104	0.0438	1.5426	1.493	-0.6405	-0.8117	-0.4737	1.0543	0.9377	-0.3158	0.9183	2.3966	1.2611	0.2457	-2.0904	-1.7726	-0.1415	-1.2511	0.772	0.6474
445.3125	-0.3561	0.5891	1.3186	1.6459	2.6199	2.568	2.0808	1.8158	1.3976	1.1783	0.4511	-0.0013	1.3447	1.1705	-1.002	-1.2979	-0.8935	0.8305	0.5428	-0.7745	0.5293	2.0717	1.0076	0.1824	-2.0151	-1.4593	-0.0002	-1.0568	0.737	0.5576
449.2188	-0.6975	0.2082	1.0853	1.2451	2.2382	2.2429	1.8141	1.5845	1.2075	0.963	0.3159	-0.0457	1.1364	0.8279	-1.3819	-1.7726	-1.3137	0.5782	0.1329	-1.2431	0.138	1.7305	0.7455	0.1307	-1.9696	-1.2029	0.1139	-0.9057	0.6242	0.3976
453.125	-1.046	-0.1577	0.8242	0.8691	1.8787	1.9279	1.574	1.3914	1.0603	0.774	0.2072	-0.0912	0.9267	0.4853	-1.7537	-2.2028	-1.7128	0.3095	-0.2702	-1.6913	-0.2311	1.3925	0.4908	0.089	-1.9585	-1.0367	0.1822	-0.8184	0.4612	0.185
457.0312	-1.3625	-0.4676	0.5742	0.5579	1.5753	1.6531	1.3726	1.2354	0.9495	0.6171	0.1263	-0.1347	0.7306	0.1695	-2.0872	-2.553	-2.0639	0.0428	-0.6372	-2.0813	-0.5485	1.0839	0.2614	0.0598	-1.9757	-0.9735	0.2008	-0.8008	0.2786	-0.0571
460.9375	-1.6122	-0.6853	0.3719	0.3453	1.3578	1.4433	1.2225	1.1163	0.8708	0.4986	0.0749	-0.1688	0.5671	-0.0909	-2.353	-2.7917	-2.3385	-0.1997	-0.9366	-2.3755	-0.785	0.8318	0.0737	0.0495	-2.0058	-1.003	0.1796	-0.8432	0.1059	-0.3028
464.8438	-1.7711	-0.7874	0.244	0.2519	1.2462	1.3134	1.1339	1.0365	0.8244	0.4253	0.055	-0.1838	0.4542	-0.2709	-2.528	-2.8978	-2.5112	-0.3953	-1.1401	-2.5438	-0.918	0.6594	-0.0607	0.0663	-2.0285	-1.0949	0.1383	-0.9241	-0.0323	-0.5259
468.75	-1.829	-0.7677	0.2036	0.2809	1.2468	1.2668	1.1123	1	0.8149	0.4025	0.0686	-0.1706	0.4052	-0.3547	-2.5986	-2.8652	-2.5655	-0.5249	-1.229	-2.571	-0.9373	0.5808	-0.1367	0.1176	-2.0243	-1.2068	0.1002	-1.0159	-0.118	-0.704
472.6562	-1.7905	-0.6375	0.2494	0.4182	1.3513	1.2974	1.1569	1.0112	0.8487	0.4323	0.1166	-0.1231	0.425	-0.3383	-2.5629	-2.7035	-2.496	-0.5763	-1.1966	-2.4586	-0.8462	0.5986	-0.1558	0.2074	-1.9804	-1.2955	0.0855	-1.0919	-0.1414	-0.8209
476.5625	-1.671	-0.4214	0.3676	0.6372	1.5392	1.3921	1.2596	1.0712	0.9305	0.5122	0.1974	-0.0412	0.5085	-0.2301	-2.4301	-2.436	-2.3094	-0.5465	-1.0486	-2.2246	-0.6613	0.7048	-0.1234	0.3337	-1.8937	-1.3275	0.106	-1.1327	-0.1006	-0.8691
480.4688	-1.4926	-0.1502	0.5373	0.9051	1.7821	1.535	1.406	1.1764	1.0586	0.634	0.3058	0.0689	0.6412	-0.0494	-2.2176	-2.094	-2.0234	-0.442	-0.8019	-1.8983	-0.4078	0.8832	-0.0472	0.488	-1.7723	-1.2871	0.1628	-1.1293	-0.0012	-0.8508
484.375	-1.2779	0.1457	0.735	1.1905	2.0496	1.7099	1.5764	1.3165	1.2226	0.7842	0.4319	0.195	0.8019	0.1774	-1.9474	-1.7108	-1.6632	-0.2777	-0.4808	-1.5153	-0.1149	1.1129	0.0642	0.6556	-1.6333	-1.1797	0.2469	-1.085	0.1457	-0.7764
488.2812	-1.0453	0.4423	0.94	1.468	2.3136	1.9023	1.7488	1.4751	1.4025	0.9444	0.5622	0.3206	0.9666	0.4216	-1.6421	-1.3158	-1.2575	-0.0742	-0.114	-1.1103	0.1895	1.3712	0.2016	0.818	-1.4991	-1.0288	0.3415	-1.0133	0.3252	-0.6613
492.1875	-0.8063	0.7255	1.1378	1.7216	2.5527	2.1001	1.9022	1.6316	1.5715	1.0944	0.6804	0.4283	1.1131	0.657	-1.3205	-0.9305	-0.8347	0.1473	0.2701	-0.7121	0.4834	1.6367	0.3557	0.9563	-1.3919	-0.869	0.4275	-0.9335	0.5225	-0.5209
496.0938	-0.5641	0.9906	1.3217	1.9453	2.754	2.2938	2.0191	1.7642	1.7005	1.2144	0.7705	0.503	1.2251	0.8641	-0.9954	-0.5659	-0.4186	0.3692	0.6469	-0.3401	0.7533	1.8922	0.5179	1.0558	-1.3276	-0.7356	0.4882	-0.8649	0.7248	-0.3669
500	-0.3158	1.2408	1.4919	2.1413	2.9141	2.4762	2.0886	1.8529	1.7643	1.2889	0.8196	0.5355	1.2954	1.0332	-0.6727	-0.2232	-0.0251	0.5811	0.9991	-0.0025	0.9949	2.126	0.6822	1.1101	-1.311	-0.6541	0.514	-0.8215	0.9239	-0.205
503.9062	-0.0554	1.4842	1.6535	2.3176	3.0373	2.6421	2.1075	1.8828	1.7475	1.3087	0.8205	0.5247	1.3261	1.1651	-0.3521	0.104	0.339	0.7812	1.3184	0.303	1.2126	2.3335	0.8469	1.1227	-1.3331	-0.6332	0.5052	-0.8077	1.1157	-0.0357
507.8125	0.2221	1.7298	1.8125	2.4852	3.1342	2.7879	2.0805	1.8458	1.6478	1.2728	0.7736	0.4777	1.3275	1.2697	-0.0301	0.4261	0.6752	0.9755	1.6057	0.5861	1.4168	2.5167	1.0151	1.1074	-1.3729	-0.662	0.4723	-0.8168	1.2993	0.1422
511.7188	0.5172	1.9848	1.9732	2.6546	3.2176	2.9115	2.0191	1.7423	1.4763	1.1881	0.6866	0.4088	1.3153	1.3623	0.2966	0.7531	0.9911	1.174	1.8694	0.86	1.6203	2.6826	1.1925	1.085	-1.4018	-0.7132	0.4338	-0.8328	1.4741	0.3287
515.625	0.8237	2.2518	2.1354	2.8331	3.2989	3.0107	1.9384	1.5806	1.2556	1.0683	0.5734	0.3357	1.3058	1.4595	0.6276	1.0905	1.2958	1.3864	2.1205	1.1368	1.8338	2.8403	1.3845	1.0785	-1.392	-0.7515	0.4116	-0.8352	1.6373	0.5185
519.5312	1.128	2.5276	2.2941	3.0225	3.385	3.084	1.8547	1.3759	1.0142	0.9311	0.4511	0.2761	1.3131	1.574	0.9558	1.4367	1.5955	1.6164	2.3689	1.4229	2.0623	2.9977	1.5924	1.1076	-1.3233	-0.7429	0.425	-0.8047	1.7829	0.7003
523.4375	1.4105	2.8024	2.4399	3.2176	3.4761	3.1291	1.782	1.148	0.7817	0.7956	0.3375	0.2435	1.3457	1.712	1.2666	1.7819	1.8898	1.8583	2.6178	1.7166	2.3036	3.1586	1.8101	1.184	-1.1886	-0.665	0.4861	-0.7285	1.9012	0.8564
527.3438	1.6491	3.0604	2.5608	3.4067	3.5663	3.144	1.7305	0.9186	0.5834	0.6798	0.2475	0.2453	1.4059	1.8713	1.5389	2.1091	2.1707	2.0963	2.8626	2.0081	2.5476	3.3212	2.0242	1.3094	-0.9957	-0.5116	0.596	-0.6048	1.9801	0.9671
531.25	1.8229	3.2824	2.6444	3.5739	3.6452	3.1269	1.706	0.7082	0.4367	0.5983	0.1918	0.2819	1.4905	2.0434	1.7495	2.3977	2.4236	2.3079	3.0908	2.2815	2.7793	3.4784	2.2156	1.4754	-0.7647	-0.295	0.746	-0.4425	2.0074	1.0152
535.1562	1.9167	3.4487	2.6795	3.7021	3.7019	3.0782	1.7105	0.5338	0.3498	0.5612	0.1756	0.3473	1.593	2.2159	1.879	2.628	2.6313	2.4689	3.2853	2.5191	2.9824	3.6201	2.364	1.6661	-0.5232	-0.0418	0.9197	-0.26	1.9731	0.9914
539.0625	1.925	3.5434	2.6583	3.7777	3.7285	3.001	1.7426	0.407	0.3211	0.574	0.1988	0.4314	1.7059	2.3763	1.9176	2.7858	2.778	2.5608	3.4292	2.7064	3.1437	3.7358	2.4534	1.8623	-0.3006	0.213	1.099	-0.0805	1.8722	0.8987
542.9688	1.8533	3.558	2.5773	3.7937	3.7226	2.9024	1.7995	0.3335	0.3418	0.6368	0.2567	0.5219	1.8235	2.516	1.869	2.8657	2.8543	2.5757	3.5106	2.8358	3.2562	3.8178	2.4766	2.0452	-0.1219	0.4333	1.268	0.0731	1.7073	0.7525
546.875	1.718	3.4937	2.4394	3.7519	3.689	2.7942	1.8771	0.3132	0.3978	0.745	0.3404	0.6064	1.9427	2.6316	1.7513	2.8726	2.8596	2.5202	3.5264	2.9085	3.3216	3.8637	2.438	2.2003	-0.005	0.589	1.4169	0.1823	1.4901	0.579
550.7812	1.5448	3.363	2.2552	3.664	3.6387	2.6919	1.9701	0.3408	0.4728	0.889	0.4387	0.6741	2.0629	2.7256	1.5944	2.8212	2.8036	2.4147	3.484	2.9346	3.3495	3.8771	2.3534	2.3194	0.042	0.6605	1.5423	0.2367	1.2414	0.4094
554.6875	1.3647	3.1885	2.0431	3.55	3.5869	2.6131	2.0723	0.4069	0.5505	1.0549	0.5385	0.7166	2.1843	2.8046	1.435	2.734	2.7052	2.2904	3.4003	2.9309	3.3556	3.8671	2.2473	2.4013	0.0197	0.6416	1.6454	0.2341	0.9883	0.2752
558.5938	1.2103	3.0004	1.8287	3.4352	3.5499	2.5743	2.1758	0.4993	0.6168	1.2251	0.6257	0.7281	2.3061	2.8771	1.3106	2.6376	2.5899	2.1844	3.2993	2.9175	3.358	3.8473	2.1484	2.4501	-0.0636	0.5384	1.7284	0.1796	0.7611	0.2028
562.5	1.1115	2.832	1.6422	3.3456	3.5418	2.5871	2.2711	0.6038	0.66	1.3797	0.6865	0.7051	2.4244	2.9502	1.2547	2.5587	2.4864	2.132	3.2076	2.9143	3.3735	3.8328	2.0843	2.4732	-0.1945	0.3668	1.791	0.0831	0.589	0.2108
566.4062	1.092	2.7149	1.5142	3.304	3.5722	2.6551	2.3476	0.7055	0.6713	1.4984	0.7079	0.6463	2.5317	3.0278	1.2918	2.5207	2.4227	2.1606	3.1507	2.9379	3.4142	3.8385	2.0776	2.4782	-0.3571	0.1476	1.8288	-0.0443	0.4957	0.308
570.3125	1.1668	2.6754	1.472	3.3267	3.6444	2.7732	2.395	0.7901	0.6445	1.5631	0.6798	0.5517	2.6175	3.1098	1.4354	2.5414	2.4219	2.285	3.1494	3.0002	3.4865	3.8763	2.1428	2.4707	-0.5354	-0.0979	1.8327	-0.193	0.4967	0.4934
574.2188	1.3409	2.7306	1.5346	3.4212	3.7564	2.9288	2.4051	0.8448	0.5765	1.5612	0.5962	0.423	2.6709	3.1933	1.6874	2.6314	2.5	2.5058	3.2172	3.1078	3.591	3.9544	2.2849	2.453	-0.7147	-0.3515	1.7925	-0.3564	0.5973	0.7573
578.125	1.6091	2.8868	1.7097	3.5862	3.9015	3.1054	2.3745	0.8608	0.4684	1.4883	0.4576	0.2642	2.6842	3.274	2.0388	2.7938	2.6643	2.8107	3.3591	3.2626	3.7242	4.0761	2.4997	2.4251	-0.883	-0.5996	1.701	-0.5302	0.7921	1.083
582.0312	1.9561	3.1379	1.9903	3.8121	4.0699	3.2863	2.3054	0.8341	0.3263	1.3503	0.2726	0.083	2.6554	3.3485	2.4712	3.0241	2.9118	3.1776	3.5712	3.4623	3.8804	4.2396	2.7741	2.3857	-1.031	-0.8331	1.5582	-0.7112	1.0655	1.4495
585.9375	2.3575	3.4653	2.3543	4.0814	4.2495	3.4566	2.2068	0.7672	0.1623	1.1636	0.0577	-0.109	2.5902	3.4154	2.9587	3.3101	3.2299	3.5792	3.8408	3.6996	4.0527	4.4375	3.0871	2.3341	-1.1519	-1.0448	1.3741	-0.8946	1.3928	1.8337
589.8438	2.7819	3.839	2.7655	4.3709	4.4269	3.6042	2.092	0.6684	-0.0063	0.953	-0.1636	-0.296	2.5015	3.4752	3.4701	3.6327	3.5967	3.9867	4.1476	3.963	4.2336	4.6576	3.4119	2.2712	-1.2419	-1.2281	1.1688	-1.0723	1.7417	2.2122
593.75	3.1941	4.2214	3.1783	4.654	4.5887	3.7203	1.977	0.5505	-0.1592	0.7478	-0.3642	-0.46	2.4066	3.5303	3.9715	3.9675	3.9838	4.3734	4.4666	4.2366	4.4148	4.8842	3.7198	2.201	-1.2994	-1.3747	0.9693	-1.2322	2.0762	2.5641
597.6562	3.5598	4.5726	3.5445	4.9047	4.7224	3.7994	1.8771	0.4289	-0.2765	0.5769	-0.5179	-0.5826	2.3248	3.5834	4.4301	4.288	4.3596	4.7169	4.7715	4.5021	4.5878	5.1005	3.9843	2.1294	-1.3246	-1.4757	0.804	-1.36	2.3606	2.8716
601.5625	3.8507	4.8569	3.822	5.1015	4.8186	3.8398	1.8041	0.3186	-0.3427	0.4628	-0.6042	-0.6486	2.2722	3.6366	4.8176	4.5692	4.694	5.0012	5.0389	4.7407	4.744	5.2915	4.1865	2.0638	-1.3203	-1.5228	0.6969	-1.4421	2.5647	3.122
605.4688	4.049	5.0493	3.9817	5.2308	4.8714	3.8443	1.7647	0.2321	-0.35	0.4175	-0.6126	-0.6496	2.2592	3.6902	5.1132	4.7914	4.9626	5.2166	5.2509	4.9361	4.8756	5.4454	4.3172	2.0104	-1.2917	-1.5124	0.6609	-1.4696	2.6678	3.307
609.375	4.1491	5.1393	4.0124	5.2884	4.8791	3.8192	1.7588	0.1768	-0.3012	0.4394	-0.5455	-0.587	2.2867	3.7421	5.306	4.9431	5.1495	5.3595	5.3968	5.0767	4.9759	5.5544	4.3771	1.9721	-1.2487	-1.4487	0.6937	-1.4421	2.6616	3.4233
613.2812	4.1583	5.1316	3.922	5.2791	4.8429	3.7726	1.7797	0.154	-0.2101	0.5128	-0.4191	-0.4736	2.3459	3.7868	5.3959	5.0219	5.2491	5.4316	5.4732	5.1564	5.0401	5.614	4.375	1.9466	-1.2054	-1.3457	0.7772	-1.3702	2.5511	3.4725
617.1875	4.0948	5.0446	3.7349	5.2149	4.7671	3.7121	1.8149	0.1583	-0.0995	0.6114	-0.2607	-0.3329	2.4192	3.8162	5.3931	5.0339	5.2654	5.4395	5.4822	5.1755	5.0652	5.6219	4.3241	1.9268	-1.1799	-1.226	0.8804	-1.2742	2.3552	3.4616
621.0938	3.9844	4.9053	3.487	5.1115	4.658	3.6431	1.8485	0.1792	0.0032	0.7027	-0.1044	-0.1947	2.4841	3.8215	5.3168	4.9924	5.2112	5.3935	5.4315	5.14	5.0513	5.5783	4.239	1.9021	-1.1907	-1.117	0.9663	-1.1806	2.1046	3.4029
625	3.8564	4.7446	3.2199	4.9869	4.5246	3.5686	1.8646	0.2032	0.0713	0.7554	0.0156	-0.0899	2.518	3.7954	5.192	4.9159	5.1057	5.3074	5.3325	5.0612	5.002	5.4865	4.1342	1.8628	-1.2521	-1.0452	1.0004	-1.1161	1.8385	3.3121
628.9062	3.7389	4.5922	2.9737	4.8584	4.3788	3.4902	1.8513	0.2176	0.0848	0.7458	0.0709	-0.0433	2.5043	3.7355	5.0467	4.8262	4.9723	5.1968	5.201	4.955	4.925	5.3544	4.0225	1.8028	-1.3689	-1.0296	0.9599	-1.102	1.5984	3.2065
632.8125	3.6558	4.4728	2.7824	4.7427	4.2349	3.4107	1.8034	0.2135	0.0346	0.6633	0.0448	-0.0686	2.4365	3.6469	4.9084	4.746	4.8366	5.0777	5.0561	4.8412	4.8332	5.196	3.9158	1.7233	-1.534	-1.0777	0.8389	-1.1489	1.421	3.1023
636.7188	3.6241	4.4049	2.6697	4.6552	4.1092	3.3353	1.7247	0.1889	-0.0752	0.5132	-0.0647	-0.1657	2.3207	3.5425	4.8011	4.6971	4.7237	4.9657	4.92	4.7422	4.7435	5.0306	3.8249	1.6336	-1.7277	-1.1838	0.6507	-1.255	1.3317	3.0125
640.625	3.6523	4.3995	2.648	4.6098	4.0178	3.2733	1.6277	0.1489	-0.2285	0.3153	-0.2453	-0.3204	2.1755	3.4419	4.7437	4.6981	4.6561	4.8743	4.815	4.6807	4.6754	4.8818	3.7598	1.5501	-1.9206	-1.3297	0.4249	-1.406	1.3405	2.9466
644.5312	3.741	4.4607	2.718	4.6172	3.9741	3.2364	1.5305	0.1044	-0.4006	0.0997	-0.4729	-0.5079	2.028	3.3673	4.7478	4.7622	4.6501	4.8143	4.7614	4.6766	4.6481	4.7739	3.7287	1.4937	-2.0793	-1.4889	0.2005	-1.5784	1.4414	2.9104
648.4375	3.8827	4.5853	2.8701	4.6831	3.9854	3.2366	1.4531	0.0684	-0.5641	-0.0997	-0.7167	-0.6979	1.9078	3.3386	4.817	4.8938	4.7136	4.7925	4.7726	4.7424	4.6761	4.7264	3.7373	1.485	-2.1735	-1.6318	0.0179	-1.7439	1.6151	2.9063
652.3438	4.0634	4.7631	3.0863	4.8055	4.0504	3.2815	1.4115	0.0519	-0.6952	-0.2526	-0.9451	-0.8607	1.8398	3.3676	4.9466	5.0876	4.8439	4.8101	4.8523	4.8797	4.7658	4.7501	3.7871	1.5389	-2.1826	-1.7317	-0.0905	-1.8749	1.8337	2.9331
656.25	4.2635	4.9766	3.3426	4.9729	4.1585	3.371	1.4138	0.0595	-0.7786	-0.3384	-1.1317	-0.9727	1.8384	3.4545	5.1236	5.3267	5.0267	4.8628	4.992	5.077	4.9124	4.8431	3.8746	1.6599	-2.101	-1.7698	-0.1068	-1.9496	2.0664	2.9861
660.1562	4.4604	5.2024	3.6112	5.1645	4.2908	3.4955	1.4577	0.0884	-0.8103	-0.3494	-1.2586	-1.0202	1.9037	3.5867	5.3285	5.5843	5.2378	4.9399	5.1713	5.3095	5.0996	4.9898	3.9908	1.8392	-1.9401	-1.739	-0.031	-1.956	2.2846	3.057
664.0625	4.6307	5.4132	3.8642	5.3528	4.424	3.6365	1.5319	0.1286	-0.7964	-0.2908	-1.3184	-1.0009	2.0212	3.7409	5.5372	5.8267	5.4461	5.0262	5.3613	5.5433	5.3021	5.1638	4.1221	2.0547	-1.7252	-1.6444	0.1198	-1.8931	2.4655	3.1341
667.9688	4.7537	5.5817	4.0774	5.5086	4.5345	3.7709	1.6192	0.1671	-0.7507	-0.1776	-1.3134	-0.9221	2.1661	3.8882	5.7245	6.0192	5.6197	5.1045	5.5296	5.7403	5.4896	5.332	4.2522	2.2746	-1.4904	-1.5026	0.3157	-1.7707	2.5948	3.2047
671.875	4.8143	5.6852	4.2335	5.6065	4.6036	3.876	1.7015	0.1919	-0.6886	-0.0292	-1.2523	-0.7982	2.3087	4.0006	5.867	6.1315	5.7312	5.1578	5.6469	5.8658	5.633	5.4618	4.3644	2.464	-1.2712	-1.3373	0.5215	-1.6062	2.6667	3.2564
675.7812	4.8047	5.7089	4.3234	5.6297	4.6205	3.9346	1.7648	0.196	-0.6232	0.1356	-1.1475	-0.6457	2.4221	4.057	5.9459	6.1435	5.7621	5.1722	5.6913	5.8945	5.7098	5.527	4.4438	2.5915	-1.0968	-1.1747	0.7045	-1.4209	2.6825	3.2792
679.6875	4.7246	5.6469	4.346	5.5719	4.5827	3.9373	1.8016	0.1798	-0.5608	0.302	-1.0114	-0.4796	2.4874	4.0465	5.9484	6.0477	5.7049	5.1375	5.6516	5.8142	5.7072	5.5117	4.4786	2.6364	-0.9855	-1.0386	0.8405	-1.2355	2.6478	3.2664
683.5938	4.5783	5.5016	4.3044	5.436	4.4944	3.8815	1.8115	0.1508	-0.5008	0.4607	-0.8547	-0.3113	2.4965	3.9698	5.8679	5.8491	5.562	5.0472	5.5263	5.627	5.6229	5.4114	4.4593	2.592	-0.9424	-0.9457	0.9178	-1.067	2.5677	3.214
687.5	4.3722	5.2799	4.2025	5.2301	4.3622	3.7688	1.7985	0.121	-0.4373	0.6064	-0.6858	-0.1481	2.4515	3.8352	5.7039	5.5623	5.3415	4.8982	5.3209	5.3464	5.4625	5.2313	4.378	2.466	-0.9607	-0.903	0.937	-0.9265	2.4442	3.1196
691.4062	4.1115	4.9902	4.0408	4.964	4.1919	3.6012	1.767	0.1026	-0.3632	0.735	-0.5123	0.0049	2.3614	3.6553	5.4604	5.2069	5.0538	4.6896	5.0444	4.9935	5.2364	4.9829	4.2272	2.2772	-1.025	-0.9077	0.9081	-0.8187	2.2743	2.9815
695.3125	3.7992	4.6403	3.8161	4.6457	3.9859	3.3793	1.7191	0.1042	-0.2745	0.8413	-0.3422	0.1431	2.2373	3.4414	5.1457	4.8031	4.7087	4.423	4.7074	4.5917	4.9556	4.6805	4.0023	2.0505	-1.1159	-0.9481	0.8466	-0.743	2.0516	2.797
699.2188	3.4368	4.2372	3.5232	4.2808	3.7434	3.1028	1.6519	0.127	-0.1735	0.9174	-0.1851	0.2607	2.0888	3.2013	4.7704	4.3682	4.3142	4.1032	4.3209	4.163	4.63	4.3394	3.7037	1.8109	-1.2144	-1.0062	0.7685	-0.6945	1.7698	2.5631
703.125	3.0263	3.7887	3.1594	3.8744	3.4618	2.7724	1.5589	0.164	-0.0699	0.9536	-0.0519	0.3508	1.9216	2.9381	4.3464	3.9148	3.8774	3.7381	3.8967	3.7249	4.267	3.9737	3.3399	1.5792	-1.3048	-1.0612	0.6871	-0.6656	1.4275	2.2772
707.0312	2.573	3.3051	2.7292	3.4324	3.1396	2.3935	1.4319	0.2005	0.0211	0.94	0.0467	0.4074	1.7377	2.6519	3.8857	3.4509	3.4051	3.3381	3.4475	3.2883	3.8724	3.5962	2.9282	1.3685	-1.3763	-1.0925	0.6112	-0.6471	1.0314	1.9399
710.9375	2.0875	2.8004	2.2472	2.9648	2.7793	1.9776	1.2646	0.2176	0.0826	0.87	0.1022	0.4281	1.5374	2.3423	3.3999	2.9809	2.9062	2.9156	2.9871	2.8589	3.4511	3.2177	2.4924	1.1843	-1.4233	-1.0836	0.5457	-0.6294	0.598	1.5573
714.8438	1.5871	2.2933	1.7385	2.4866	2.389	1.5429	1.0565	0.1968	0.1002	0.7434	0.1113	0.4157	1.322	2.0121	2.9013	2.5082	2.3924	2.4845	2.5295	2.4384	3.0102	2.8479	2.0599	1.0259	-1.4442	-1.0235	0.4932	-0.6025	0.1518	1.1431
718.75	1.0955	1.8068	1.2369	2.0184	1.9837	1.1133	0.8145	0.1247	0.0666	0.568	0.0774	0.3795	1.0972	1.6699	2.4036	2.0387	1.8798	2.0604	2.0894	2.029	2.5602	2.4957	1.6576	0.8899	-1.4404	-0.9095	0.4562	-0.5582	-0.2777	0.719
722.6562	0.6401	1.3665	0.7802	1.586	1.5855	0.7163	0.5546	-0.0021	-0.0153	0.3609	0.011	0.3342	0.8743	1.3318	1.9245	1.5835	1.3893	1.6614	1.6815	1.6363	2.117	2.1709	1.3083	0.7733	-1.4154	-0.7472	0.4385	-0.4905	-0.6612	0.3128
726.5625	0.2497	0.9988	0.4043	1.2171	1.2217	0.3796	0.3004	-0.1745	-0.1319	0.1463	-0.071	0.2969	0.6708	1.0205	1.4865	1.1607	0.9463	1.3077	1.3212	1.2725	1.7021	1.8847	1.0293	0.6753	-1.3747	-0.5512	0.4446	-0.3975	-0.974	-0.0454
730.4688	-0.0502	0.7273	0.1373	0.9384	0.9218	0.128	0.0804	-0.3707	-0.2596	-0.0466	-0.1481	0.2841	0.5077	0.7626	1.1161	0.7946	0.5784	1.0211	1.0243	0.9564	1.3412	1.6501	0.8313	0.5983	-1.3252	-0.3432	0.4787	-0.2825	-1.1997	-0.3274
734.375	-0.2409	0.5702	-0.0052	0.7707	0.7128	-0.0202	-0.0768	-0.5594	-0.3694	-0.1885	-0.1992	0.3081	0.4062	0.5843	0.8411	0.5131	0.3125	0.822	0.8058	0.7114	1.0606	1.4805	0.7193	0.5466	-1.2751	-0.1489	0.5425	-0.1532	-1.333	-0.5116
738.2812	-0.3142	0.5361	-0.0236	0.7249	0.6135	-0.0566	-0.1476	-0.7052	-0.4323	-0.2546	-0.2069	0.3748	0.3828	0.5055	0.6858	0.3424	0.1697	0.726	0.6779	0.5607	0.8824	1.3878	0.6927	0.5252	-1.2325	0.0072	0.6336	-0.0212	-1.38	-0.5868
742.1875	-0.2744	0.621	0.065	0.7976	0.6297	0.0149	-0.1191	-0.7762	-0.4255	-0.2302	-0.1612	0.4823	0.4444	0.5349	0.6645	0.3004	0.1608	0.739	0.6472	0.5205	0.8195	1.3784	0.7451	0.5375	-1.2039	0.1061	0.7443	0.0996	-1.3572	-0.5545
746.0938	-0.1392	0.807	0.2289	0.9704	0.7513	0.1769	0.0073	-0.7515	-0.338	-0.1134	-0.0616	0.6209	0.5855	0.6665	0.7771	0.3912	0.2822	0.854	0.7116	0.5949	0.8713	1.4511	0.8642	0.5839	-1.1925	0.1392	0.8625	0.1958	-1.2889	-0.4292
750	0.0625	1.0631	0.4265	1.211	0.9526	0.3999	0.2145	-0.6265	-0.1734	0.0827	0.0829	0.7756	0.7877	0.88	1.0065	0.6016	0.5151	1.0505	0.8593	0.7724	1.0227	1.5949	1.0322	0.6612	-1.1974	0.1097	0.9739	0.2564	-1.2035	-0.2364
753.9062	0.2946	1.3489	0.613	1.4774	1.1963	0.645	0.4719	-0.4143	0.0508	0.3324	0.2548	0.9288	1.0224	1.1434	1.3204	0.9018	0.8279	1.2974	1.0694	1.0264	1.2455	1.7896	1.2273	0.7625	-1.2134	0.0324	1.0643	0.275	-1.1281	-0.0082
757.8125	0.5194	1.621	0.7479	1.7256	1.4397	0.8701	0.7409	-0.1438	0.3067	0.6014	0.4326	1.0636	1.2562	1.4184	1.6762	1.25	1.1807	1.558	1.3143	1.3199	1.5034	2.0086	1.4249	0.8782	-1.2319	-0.0698	1.1232	0.2515	-1.0849	0.2222
761.7188	0.7045	1.841	0.8028	1.9175	1.6432	1.0373	0.9823	0.1469	0.5621	0.8534	0.5945	1.1674	1.4577	1.6682	2.0283	1.6001	1.532	1.7968	1.5641	1.6122	1.7583	2.2226	1.6017	0.9974	-1.2434	-0.1711	1.1458	0.1922	-1.087	0.4261
765.625	0.8283	1.9822	0.766	2.0284	1.7771	1.1193	1.1641	0.4178	0.7867	1.0566	0.7228	1.2337	1.6039	1.8633	2.3363	1.9098	1.8452	1.9861	1.7911	1.867	1.9776	2.405	1.7376	1.1097	-1.2394	-0.2478	1.1337	0.1086	-1.1366	0.5843
769.5312	0.8827	2.0345	0.6441	2.0515	1.8268	1.1038	1.2663	0.6347	0.9571	1.1889	0.807	1.263	1.6837	1.986	2.5714	2.1483	2.094	2.1098	1.9735	2.0589	2.1395	2.5357	1.8194	1.2069	-1.2155	-0.2834	1.0946	0.0153	-1.2254	0.689
773.4375	0.8733	2.0041	0.4587	1.9972	1.7936	0.9936	1.284	0.7748	1.0601	1.2404	0.844	1.2613	1.6989	2.0322	2.7198	2.3	2.2642	2.1646	2.0981	2.1764	2.2354	2.6028	1.8404	1.2833	-1.1721	-0.271	1.04	-0.073	-1.3369	0.7438
777.3438	0.8167	1.9105	0.24	1.889	1.6917	0.8034	1.2251	0.8289	1.0923	1.2137	0.8378	1.2384	1.6619	2.0093	2.7823	2.365	2.3541	2.158	2.1602	2.2222	2.2696	2.6035	1.8003	1.3364	-1.1148	-0.2132	0.9822	-0.144	-1.4499	0.7611
781.25	0.7345	1.7796	0.0197	1.7561	1.5429	0.5545	1.1068	0.8005	1.0592	1.1211	0.797	1.2047	1.5903	1.9327	2.7717	2.3558	2.3722	2.1043	2.1631	2.2093	2.2556	2.5423	1.703	1.366	-1.0526	-0.1204	0.9314	-0.1902	-1.544	0.758
785.1562	0.6483	1.6371	-0.1772	1.6256	1.3705	0.2698	0.95	0.7034	0.9726	0.9804	0.7326	1.1693	1.5031	1.8213	2.7076	2.2929	2.3341	2.0202	2.1161	2.1564	2.2114	2.4291	1.5559	1.3744	-0.9949	-0.0063	0.8945	-0.2095	-1.6039	0.751
789.0625	0.5739	1.5028	-0.3371	1.5164	1.1944	-0.0307	0.775	0.5575	0.8482	0.8113	0.6556	1.139	1.4157	1.6934	2.612	2.199	2.2589	1.9218	2.033	2.0834	2.1551	2.2779	1.3698	1.366	-0.9485	0.1157	0.8736	-0.2048	-1.6235	0.7529
792.9688	0.5194	1.3875	-0.4588	1.4363	1.0279	-0.3317	0.5982	0.385	0.7037	0.6315	0.5755	1.1167	1.338	1.564	2.5054	2.0951	2.1666	1.8222	1.9297	2.0069	2.1007	2.1049	1.1587	1.3471	-0.9154	0.236	0.8671	-0.1826	-1.6066	0.7706
796.875	0.4843	1.2929	-0.552	1.3824	0.8767	-0.6234	0.4303	0.207	0.556	0.4553	0.4996	1.103	1.2741	1.4433	2.404	1.9971	2.0753	1.7307	1.8224	1.9386	2.0566	1.9267	0.9395	1.3251	-0.8922	0.3494	0.8704	-0.1515	-1.5662	0.8043
