time	FP1	F3	F7	FC3	C3	C5	P3	P7	PO7	PO3	O1	Oz	Pz	CPz	FP2	Fz	F4	F8	FC4	FCz	Cz	C4	C6	P4	P8	PO8	PO4	O2	HEOG_left	HEOG_right
-199.2188	0.5976	0.5163	-0.377	0.8247	1.1078	0.4529	0.844	0.3206	0.2875	0.4819	0.3588	0.5961	1.7069	2.0538	0.0996	0.9091	0.8441	0.388	0.2288	1.4909	1.6951	1.0537	0.5612	0.9337	0.0778	0.1569	0.3712	0.1393	-0.3122	-0.7943
-195.3125	0.4566	0.3626	-0.4455	0.7791	0.8905	0.3544	0.664	0.2014	0.2524	0.3991	0.3675	0.4601	1.2633	1.705	0.1068	0.8451	0.6821	0.2452	0.1467	1.378	1.5452	0.727	0.3136	0.5854	0.0735	0.0193	0.0853	-0.0123	-0.364	-0.7572
-191.4062	0.3421	0.2213	-0.4962	0.7404	0.6903	0.2675	0.4898	0.0907	0.2138	0.3135	0.3651	0.3362	0.8523	1.373	0.1064	0.7838	0.5321	0.1131	0.0659	1.2728	1.3964	0.4259	0.0909	0.269	0.0728	-0.0935	-0.166	-0.1424	-0.4036	-0.7241
-187.5	0.2758	0.1063	-0.5143	0.7145	0.523	0.2017	0.3286	-0.0059	0.1686	0.2231	0.3412	0.2358	0.5049	1.0758	0.0955	0.7315	0.4111	0.0075	-0.0042	1.1853	1.2538	0.1774	-0.08	0.0164	0.0813	-0.1611	-0.349	-0.2329	-0.4215	-0.6916
-183.5938	0.266	0.0321	-0.4879	0.7065	0.4004	0.1642	0.1863	-0.083	0.1141	0.1273	0.2885	0.1652	0.2419	0.826	0.0786	0.6948	0.3325	-0.0599	-0.055	1.1239	1.123	0.002	-0.1803	-0.1511	0.1014	-0.1744	-0.4424	-0.273	-0.4094	-0.655
-179.6875	0.3063	0.0116	-0.4111	0.7192	0.3293	0.1588	0.0676	-0.1361	0.0497	0.028	0.2043	0.1256	0.0724	0.6304	0.0675	0.6804	0.3049	-0.0833	-0.0793	1.0944	1.0102	-0.0889	-0.2015	-0.2249	0.1325	-0.136	-0.4391	-0.2601	-0.3604	-0.6082
-175.7812	0.3791	0.0528	-0.2857	0.7532	0.3111	0.1848	-0.0236	-0.162	-0.0217	-0.0697	0.0928	0.1151	-0.0045	0.4914	0.0777	0.6935	0.3308	-0.0625	-0.0712	1.1001	0.9226	-0.0933	-0.1455	-0.2077	0.1727	-0.0576	-0.3443	-0.1976	-0.2707	-0.5436
-171.875	0.4607	0.1553	-0.1227	0.8061	0.3426	0.2377	-0.0835	-0.1606	-0.0944	-0.1578	-0.0352	0.1315	0.0025	0.4087	0.1233	0.7366	0.406	-0.002	-0.0259	1.1406	0.8675	-0.0183	-0.0226	-0.1109	0.2199	0.0445	-0.1725	-0.0925	-0.1412	-0.4541
-167.9688	0.529	0.309	0.0583	0.8727	0.4159	0.309	-0.1083	-0.1348	-0.1598	-0.2266	-0.1641	0.1736	0.081	0.3812	0.2126	0.8082	0.5203	0.0914	0.0598	1.2117	0.8511	0.1225	0.151	0.0496	0.2737	0.1545	0.0574	0.0472	0.0202	-0.334
-164.0625	0.5682	0.4942	0.2319	0.9444	0.52	0.387	-0.0955	-0.0916	-0.2088	-0.2664	-0.2771	0.2421	0.2166	0.4072	0.3446	0.902	0.6593	0.21	0.186	1.3049	0.8765	0.3107	0.3558	0.256	0.335	0.2603	0.3246	0.2135	0.1979	-0.1821
-160.1562	0.5717	0.6837	0.371	1.011	0.6404	0.4588	-0.0446	-0.0409	-0.234	-0.2698	-0.3599	0.3377	0.3941	0.483	0.508	1.0068	0.8055	0.3452	0.348	1.4072	0.9421	0.5255	0.57	0.4898	0.4049	0.3552	0.6082	0.3984	0.3693	-0.0033
-156.25	0.542	0.8483	0.4529	1.0611	0.7618	0.5118	0.0416	0.0067	-0.2303	-0.2326	-0.4037	0.4595	0.5974	0.6021	0.6827	1.1072	0.9402	0.4874	0.534	1.5023	1.0402	0.7453	0.7713	0.7321	0.4831	0.4366	0.8869	0.5929	0.5088	0.1907
-152.3438	0.488	0.9615	0.4635	1.0854	0.8692	0.5368	0.1568	0.0435	-0.1961	-0.1544	-0.4061	0.6025	0.8093	0.7529	0.8437	1.1857	1.0453	0.6236	0.7252	1.5724	1.157	0.9484	0.9376	0.9627	0.5653	0.5033	1.1391	0.7852	0.5933	0.3814
-148.4375	0.4211	1.0052	0.4013	1.0785	0.9511	0.5301	0.2921	0.0671	-0.1319	-0.0385	-0.3698	0.7569	1.0121	0.9197	0.9651	1.2253	1.1045	0.7377	0.897	1.6009	1.2745	1.1141	1.0484	1.1606	0.6421	0.5531	1.3427	0.9606	0.6082	0.5463
-144.5312	0.353	0.9734	0.2782	1.0417	1.001	0.4955	0.4375	0.0822	-0.04	0.1094	-0.3007	0.9083	1.1884	1.0828	1.0255	1.2127	1.1059	0.8109	1.0224	1.5751	1.3726	1.2239	1.0875	1.3041	0.6992	0.5799	1.4761	1.1018	0.551	0.6616
-140.625	0.2928	0.8733	0.1173	0.9822	1.0191	0.444	0.5827	0.0995	0.0764	0.2813	-0.206	1.0392	1.323	1.2218	1.0113	1.1408	1.0432	0.8248	1.0773	1.4887	1.4327	1.2627	1.0457	1.3734	0.719	0.5739	1.5205	1.1898	0.4328	0.7073
-136.7188	0.2467	0.7238	-0.0522	0.9121	1.0113	0.3919	0.7191	0.1329	0.2125	0.4673	-0.0929	1.1313	1.4037	1.3179	0.9186	1.0106	0.9177	0.7649	1.0454	1.342	1.4397	1.2208	0.9229	1.3531	0.6843	0.5228	1.4628	1.2066	0.2746	0.6709
-132.8125	0.2176	0.5517	-0.2021	0.8445	0.9868	0.3568	0.839	0.194	0.3618	0.6555	0.0314	1.1689	1.4225	1.3566	0.7536	0.8305	0.7378	0.6242	0.9217	1.1417	1.3842	1.0958	0.7287	1.2349	0.5827	0.4158	1.2987	1.1386	0.1027	0.5508
-128.9062	0.2043	0.3857	-0.3115	0.7895	0.9546	0.3531	0.9362	0.2881	0.5147	0.8316	0.1589	1.1415	1.3751	1.3286	0.5311	0.6146	0.517	0.4062	0.7133	0.8981	1.2627	0.893	0.481	1.0197	0.4109	0.2478	1.0345	0.9799	-0.0573	0.3567
-125	0.2015	0.2505	-0.3712	0.7507	0.92	0.3878	1.0041	0.4111	0.6589	0.9793	0.2802	1.046	1.2608	1.2306	0.2727	0.3797	0.2709	0.1252	0.4384	0.6241	1.0774	0.6257	0.2027	0.7187	0.1775	0.0232	0.6877	0.7365	-0.1863	0.1089
-121.0938	0.1994	0.1609	-0.3847	0.724	0.8826	0.4578	1.0361	0.5494	0.7794	1.0818	0.3842	0.8876	1.0817	1.0648	0.0032	0.1418	0.0152	-0.1949	0.1229	0.3328	0.836	0.3133	-0.0814	0.3526	-0.0977	-0.2418	0.2863	0.4273	-0.2748	-0.1647
-117.1875	0.1857	0.1187	-0.3646	0.6976	0.8352	0.5499	1.0253	0.6823	0.8613	1.1238	0.4592	0.6789	0.8432	0.8384	-0.2519	-0.0857	-0.2364	-0.5237	-0.2035	0.0372	0.5507	-0.0199	-0.3482	-0.0493	-0.3856	-0.5204	-0.1345	0.0833	-0.3233	-0.4335
-113.2812	0.1474	0.1126	-0.3291	0.6558	0.7663	0.6429	0.9657	0.7864	0.891	1.0937	0.4939	0.4377	0.5544	0.5631	-0.47	-0.2936	-0.4724	-0.8291	-0.511	-0.25	0.2378	-0.3474	-0.5779	-0.452	-0.6529	-0.7791	-0.536	-0.2578	-0.3413	-0.668
-109.375	0.0749	0.1218	-0.2951	0.5831	0.6632	0.712	0.8531	0.8398	0.859	0.9862	0.4793	0.1834	0.2284	0.2549	-0.6333	-0.477	-0.6824	-1.081	-0.7734	-0.5162	-0.0835	-0.6428	-0.7561	-0.8185	-0.8672	-0.9834	-0.8819	-0.5578	-0.3431	-0.8445
-105.4688	-0.0339	0.1218	-0.2745	0.4693	0.516	0.7339	0.687	0.826	0.7613	0.8027	0.4099	-0.0665	-0.1175	-0.0672	-0.7314	-0.6336	-0.8569	-1.2553	-0.9706	-0.7488	-0.3923	-0.8825	-0.874	-1.1146	-1.0017	-1.1039	-1.1424	-0.7856	-0.3439	-0.9476
-101.5625	-0.1713	0.0925	-0.2707	0.3133	0.3222	0.693	0.4719	0.7371	0.6001	0.5523	0.2851	-0.2987	-0.462	-0.3811	-0.7611	-0.7614	-0.9865	-1.3367	-1.0897	-0.9351	-0.6674	-1.0474	-0.9281	-1.3125	-1.0394	-1.1214	-1.2987	-0.9222	-0.3548	-0.9712
-97.6562	-0.3187	0.0237	-0.2786	0.1251	0.0891	0.5845	0.2177	0.5745	0.3849	0.2507	0.1098	-0.5048	-0.7805	-0.6634	-0.7273	-0.8572	-1.0625	-1.3199	-1.126	-1.0639	-0.8892	-1.1249	-0.9206	-1.3954	-0.9753	-1.0299	-1.3439	-0.9629	-0.3805	-0.9184
-93.75	-0.4504	-0.0818	-0.2868	-0.0765	-0.1662	0.4161	-0.0597	0.3493	0.1315	-0.0813	-0.1056	-0.6809	-1.0477	-0.8917	-0.6417	-0.9162	-1.078	-1.2109	-1.082	-1.1271	-1.0421	-1.11	-0.8576	-1.3596	-0.8176	-0.8374	-1.2836	-0.9174	-0.4174	-0.8001
-89.8438	-0.5389	-0.2087	-0.281	-0.2673	-0.4187	0.2067	-0.3399	0.0809	-0.1394	-0.4194	-0.3454	-0.8256	-1.2405	-1.0478	-0.5212	-0.9329	-1.0299	-1.0258	-0.967	-1.1217	-1.1169	-1.0068	-0.7484	-1.2153	-0.5876	-0.5648	-1.1341	-0.8059	-0.4553	-0.6326
-85.9375	-0.5628	-0.3335	-0.249	-0.4241	-0.6409	-0.0173	-0.6004	-0.2051	-0.4042	-0.7387	-0.5896	-0.9386	-1.3418	-1.121	-0.3859	-0.9034	-0.9207	-0.7886	-0.7955	-1.0519	-1.113	-0.8288	-0.6045	-0.9854	-0.3165	-0.2427	-0.9197	-0.6554	-0.4799	-0.4352
-82.0312	-0.5131	-0.4303	-0.184	-0.5293	-0.808	-0.2277	-0.8196	-0.4806	-0.6392	-1.0159	-0.8155	-1.0189	-1.3449	-1.1116	-0.2553	-0.8274	-0.7593	-0.5275	-0.5853	-0.9291	-1.0393	-0.5978	-0.4379	-0.7022	-0.0419	0.0923	-0.6697	-0.494	-0.4775	-0.2275
-78.125	-0.3964	-0.4776	-0.0875	-0.5753	-0.9035	-0.3998	-0.9799	-0.7186	-0.824	-1.2316	-0.9998	-1.0641	-1.255	-1.0312	-0.1455	-0.7097	-0.5607	-0.2707	-0.356	-0.7709	-0.9136	-0.3422	-0.2611	-0.4025	0.1988	0.4026	-0.4144	-0.3464	-0.4388	-0.0277
-74.2188	-0.2336	-0.4633	0.0312	-0.5649	-0.9223	-0.5167	-1.0702	-0.8965	-0.9436	-1.3717	-1.1209	-1.0713	-1.0894	-0.902	-0.0674	-0.561	-0.3439	-0.0425	-0.1278	-0.5988	-0.7602	-0.0934	-0.0864	-0.1215	0.3741	0.654	-0.1815	-0.2306	-0.3618	0.1495
-70.3125	-0.0547	-0.3882	0.1571	-0.5108	-0.8713	-0.5723	-1.0868	-0.9987	-0.9898	-1.4279	-1.1622	-1.0377	-0.8752	-0.7528	-0.0252	-0.3972	-0.1294	0.1404	0.08	-0.4354	-0.6062	0.1184	0.0741	0.1114	0.4643	0.8198	0.0073	-0.1554	-0.253	0.2937
-66.4062	0.1087	-0.2663	0.2737	-0.4327	-0.768	-0.5714	-1.0339	-1.0179	-0.9616	-1.3979	-1.1147	-0.9628	-0.6446	-0.6133	-0.0174	-0.2371	0.064	0.2706	0.2504	-0.3013	-0.4771	0.2687	0.209	0.2774	0.4638	0.8847	0.1388	-0.1208	-0.1252	0.3997
-62.5	0.23	-0.1227	0.3675	-0.3535	-0.6363	-0.5272	-0.9222	-0.9547	-0.8648	-1.2851	-0.9778	-0.8499	-0.4294	-0.5088	-0.0376	-0.1004	0.2203	0.3498	0.37	-0.2123	-0.3928	0.3423	0.3087	0.3692	0.3818	0.8461	0.2093	-0.1199	0.0055	0.4671
-58.5938	0.2926	0.0118	0.4307	-0.2961	-0.5025	-0.4581	-0.7666	-0.8174	-0.7104	-1.0978	-0.7605	-0.7065	-0.2555	-0.4552	-0.0769	-0.004	0.3284	0.3869	0.4315	-0.1786	-0.3651	0.3363	0.3669	0.3903	0.2384	0.7151	0.2242	-0.1417	0.1237	0.5002
-54.6875	0.2914	0.107	0.4618	-0.2798	-0.3905	-0.3839	-0.5848	-0.6204	-0.5141	-0.8492	-0.48	-0.5444	-0.1396	-0.457	-0.1256	0.0396	0.3815	0.3937	0.4349	-0.203	-0.396	0.26	0.3813	0.353	0.0606	0.5141	0.1966	-0.1734	0.2174	0.5062
-50.7812	0.2316	0.1396	0.465	-0.3179	-0.319	-0.3217	-0.395	-0.384	-0.2944	-0.5571	-0.1602	-0.3776	-0.0868	-0.507	-0.1752	0.0243	0.3774	0.3818	0.3876	-0.2823	-0.479	0.1332	0.3552	0.2745	-0.1233	0.2743	0.1434	-0.2029	0.2801	0.4934
-46.875	0.1256	0.0976	0.4474	-0.4156	-0.2989	-0.2845	-0.2145	-0.1331	-0.072	-0.2436	0.1707	-0.2209	-0.092	-0.59	-0.2195	-0.0488	0.3174	0.3588	0.3033	-0.4077	-0.601	-0.0187	0.2959	0.1738	-0.2872	0.0309	0.0827	-0.2203	0.3111	0.4701
-42.9688	-0.0098	-0.0168	0.4169	-0.5694	-0.3326	-0.2795	-0.0596	0.1048	0.1322	0.0657	0.4829	-0.0873	-0.1428	-0.6868	-0.2553	-0.1716	0.2066	0.3282	0.1989	-0.5672	-0.7454	-0.1699	0.2137	0.0674	-0.4108	-0.1822	0.0295	-0.2188	0.3153	0.4433
-39.0625	-0.1567	-0.1891	0.3799	-0.7674	-0.4153	-0.3086	0.0555	0.3023	0.298	0.3428	0.7473	0.0125	-0.2232	-0.7795	-0.2823	-0.3306	0.0537	0.29	0.091	-0.7467	-0.8957	-0.3	0.1192	-0.0323	-0.4811	-0.3373	-0.0068	-0.1952	0.3014	0.4183
-35.1562	-0.2978	-0.3959	0.3403	-0.9915	-0.5364	-0.3694	0.1188	0.436	0.4084	0.56	0.9389	0.0715	-0.3183	-0.8558	-0.3026	-0.5082	-0.1293	0.2427	-0.008	-0.9326	-1.0381	-0.3984	0.0208	-0.1192	-0.4928	-0.4178	-0.0243	-0.1512	0.2808	0.3994
-31.25	-0.4188	-0.6109	0.2995	-1.2208	-0.6832	-0.4573	0.1211	0.4896	0.4515	0.6928	1.0398	0.0865	-0.4177	-0.9122	-0.3198	-0.6856	-0.3278	0.1862	-0.0913	-1.1129	-1.1646	-0.4654	-0.0773	-0.1936	-0.4488	-0.4209	-0.0282	-0.0929	0.2646	0.3897
-27.3438	-0.5109	-0.8108	0.2564	-1.4361	-0.8442	-0.5671	0.0567	0.4571	0.4218	0.7235	1.0418	0.0577	-0.5169	-0.9536	-0.3376	-0.8462	-0.5253	0.1243	-0.1595	-1.2791	-1.2732	-0.5114	-0.175	-0.2613	-0.3586	-0.3584	-0.0301	-0.0314	0.2609	0.3914
-23.4375	-0.5716	-0.9803	0.2074	-1.6236	-1.0119	-0.6951	-0.0755	0.3428	0.3214	0.644	0.9477	-0.011	-0.6176	-0.9926	-0.3584	-0.9782	-0.7052	0.0647	-0.2181	-1.4269	-1.3678	-0.5525	-0.2759	-0.3317	-0.2369	-0.2541	-0.0446	0.0189	0.2719	0.4062
-19.5312	-0.6062	-1.1144	0.1471	-1.7764	-1.1837	-0.8389	-0.2714	0.1608	0.1596	0.4575	0.7711	-0.1128	-0.7252	-1.045	-0.3818	-1.0765	-0.8526	0.0186	-0.2749	-1.5564	-1.4565	-0.606	-0.3844	-0.4152	-0.1006	-0.1381	-0.0853	0.0428	0.2923	0.4346
-15.625	-0.6258	-1.2174	0.0696	-1.8946	-1.3609	-0.9968	-0.5208	-0.0676	-0.0478	0.1794	0.5341	-0.2388	-0.8456	-1.1254	-0.4046	-1.1435	-0.956	-0.0023	-0.3365	-1.6712	-1.5483	-0.6841	-0.5029	-0.5198	0.0332	-0.0403	-0.1621	0.0273	0.3108	0.4764
-11.7188	-0.6446	-1.2989	-0.0304	-1.9825	-1.545	-1.1657	-0.807	-0.3166	-0.2799	-0.1645	0.2637	-0.3788	-0.9822	-1.2426	-0.4211	-1.1875	-1.0084	0.0108	-0.4049	-1.7763	-1.65	-0.791	-0.6293	-0.6486	0.1499	0.017	-0.2778	-0.0342	0.3139	0.5298
-7.8125	-0.6755	-1.3691	-0.1548	-2.0459	-1.7339	-1.3384	-1.1084	-0.5597	-0.5141	-0.5408	-0.0122	-0.5226	-1.1334	-1.3966	-0.4253	-1.2203	-1.0083	0.0608	-0.4768	-1.8763	-1.7637	-0.9212	-0.7564	-0.7983	0.2391	0.0231	-0.4274	-0.1398	0.2909	0.5921
-3.9062	-0.7256	-1.4341	-0.3001	-2.0897	-1.9202	-1.5032	-1.4005	-0.7731	-0.7282	-0.9131	-0.2694	-0.6613	-1.2922	-1.5785	-0.4127	-1.2539	-0.9603	0.1436	-0.5452	-1.973	-1.8859	-1.0612	-0.8725	-0.9594	0.2958	-0.019	-0.5996	-0.2785	0.2385	0.6594
0	-0.7936	-1.4939	-0.4566	-2.1167	-2.0904	-1.6443	-1.66	-0.9381	-0.9046	-1.2473	-0.4901	-0.7885	-1.4486	-1.7719	-0.3829	-1.2974	-0.8751	0.2482	-0.6026	-2.065	-2.0082	-1.1933	-0.9649	-1.1188	0.3209	-0.0951	-0.7784	-0.4327	0.1618	0.7269
3.9062	-0.8701	-1.543	-0.6091	-2.1283	-2.2281	-1.7456	-1.8678	-1.0439	-1.0327	-1.5166	-0.6641	-0.9009	-1.5919	-1.9577	-0.3398	-1.3555	-0.7688	0.3587	-0.6449	-2.1481	-2.1203	-1.301	-1.0233	-1.2627	0.32	-0.1845	-0.9476	-0.582	0.0733	0.7887
7.8125	-0.9403	-1.5732	-0.7388	-2.1253	-2.3182	-1.794	-2.013	-1.0882	-1.1098	-1.7047	-0.7881	-0.998	-1.7135	-2.1184	-0.2908	-1.4274	-0.6602	0.4571	-0.6739	-2.2164	-2.213	-1.3731	-1.0432	-1.3801	0.3011	-0.2661	-1.0932	-0.7079	-0.011	0.8384
11.7188	-0.9902	-1.5771	-0.8273	-2.1099	-2.3511	-1.7839	-2.0928	-1.0769	-1.1407	-1.8062	-0.863	-1.0797	-1.808	-2.2417	-0.2447	-1.5082	-0.5683	0.527	-0.697	-2.265	-2.2808	-1.4064	-1.0274	-1.4645	0.2723	-0.3234	-1.2051	-0.7961	-0.0764	0.8692
15.625	-1.0112	-1.5524	-0.8607	-2.086	-2.3261	-1.7185	-2.112	-1.0222	-1.1343	-1.8251	-0.8913	-1.1444	-1.8736	-2.3228	-0.2091	-1.5905	-0.5086	0.5562	-0.7258	-2.2913	-2.3227	-1.406	-0.9856	-1.5148	0.2399	-0.3479	-1.2773	-0.8376	-0.113	0.8755
19.5312	-1.0039	-1.5027	-0.8335	-2.0599	-2.2514	-1.6101	-2.0801	-0.9395	-1.1002	-1.7708	-0.874	-1.1863	-1.911	-2.364	-0.1887	-1.6669	-0.4911	0.5392	-0.7725	-2.2967	-2.3424	-1.3835	-0.9323	-1.5338	0.2065	-0.3396	-1.3065	-0.8281	-0.1194	0.8537
23.4375	-0.9772	-1.4381	-0.7507	-2.039	-2.1428	-1.4772	-2.0073	-0.844	-1.0444	-1.6544	-0.8099	-1.1952	-1.9219	-2.3728	-0.1852	-1.7325	-0.5192	0.4786	-0.8466	-2.2871	-2.347	-1.3543	-0.8842	-1.5263	0.1717	-0.305	-1.2906	-0.767	-0.1025	0.8041
27.3438	-0.9446	-1.3726	-0.6271	-2.0296	-2.0195	-1.3401	-1.9011	-0.7469	-0.9669	-1.4853	-0.6955	-1.1587	-1.9076	-2.3596	-0.1983	-1.7861	-0.5904	0.384	-0.9522	-2.2714	-2.3449	-1.3333	-0.857	-1.4978	0.1324	-0.2548	-1.2285	-0.6571	-0.0761	0.7307
31.25	-0.9203	-1.3211	-0.4845	-2.0351	-1.9	-1.2162	-1.7654	-0.6534	-0.8618	-1.2698	-0.5272	-1.0664	-1.8694	-2.3345	-0.2272	-1.831	-0.6979	0.2697	-1.0871	-2.2607	-2.3443	-1.3322	-0.8625	-1.4533	0.0848	-0.2006	-1.1198	-0.5053	-0.057	0.6418
35.1562	-0.916	-1.2965	-0.347	-2.055	-1.7983	-1.1168	-1.6001	-0.5626	-0.7185	-1.0123	-0.3048	-0.9165	-1.8081	-2.306	-0.2712	-1.8742	-0.8336	0.1514	-1.2432	-2.2664	-2.352	-1.3573	-0.9071	-1.3972	0.0253	-0.1528	-0.9668	-0.3245	-0.06	0.5482
39.0625	-0.9397	-1.3088	-0.2354	-2.0858	-1.7231	-1.0462	-1.4048	-0.4686	-0.5272	-0.7177	-0.0348	-0.7201	-1.7269	-2.2807	-0.3312	-1.9263	-0.9905	0.0417	-1.4101	-2.2994	-2.3733	-1.4095	-0.9913	-1.3343	-0.0479	-0.1194	-0.7767	-0.1343	-0.0942	0.4614
42.9688	-0.9964	-1.3656	-0.1648	-2.1242	-1.6779	-1.0035	-1.1825	-0.3639	-0.2834	-0.3945	0.2672	-0.5045	-1.6324	-2.2643	-0.4102	-2.0007	-1.1664	-0.0534	-1.5781	-2.3695	-2.4129	-1.4863	-1.1111	-1.272	-0.1354	-0.1059	-0.5637	0.0386	-0.1608	0.3905
46.875	-1.09	-1.4743	-0.1428	-2.1706	-1.6646	-0.9869	-0.9437	-0.2437	0.0069	-0.0589	0.5753	-0.3105	-1.5375	-2.2645	-0.5134	-2.1135	-1.3656	-0.1361	-1.7424	-2.4859	-2.476	-1.5854	-1.2606	-1.2217	-0.2363	-0.1157	-0.3506	0.163	-0.2535	0.3394
50.7812	-1.2245	-1.6435	-0.1715	-2.2329	-1.6865	-0.9986	-0.7098	-0.1103	0.3239	0.2633	0.8552	-0.1867	-1.4619	-2.2924	-0.6485	-2.2825	-1.6002	-0.217	-1.9055	-2.6581	-2.5703	-1.7082	-1.4354	-1.2	-0.3497	-0.1512	-0.1676	0.2076	-0.3624	0.3049
54.6875	-1.4051	-1.8823	-0.2506	-2.3266	-1.751	-1.0478	-0.5122	0.0243	0.634	0.5368	1.0681	-0.1788	-1.4307	-2.3637	-0.8236	-2.5244	-1.8878	-0.3129	-2.0772	-2.8951	-2.7061	-1.8622	-1.6356	-1.2284	-0.4755	-0.214	-0.0497	0.1476	-0.4782	0.2766
58.5938	-1.6365	-2.1975	-0.3802	-2.4728	-1.8697	-1.1504	-0.3894	0.1381	0.8931	0.7202	1.1768	-0.3185	-1.4708	-2.4961	-1.0443	-2.8508	-2.2458	-0.4424	-2.2717	-3.2036	-2.8954	-2.0601	-1.8659	-1.3304	-0.6147	-0.305	-0.0311	-0.0298	-0.5956	0.2387
62.5	-1.921	-2.5884	-0.5618	-2.691	-2.0552	-1.3257	-0.3791	0.2027	1.0539	0.7733	1.1537	-0.6133	-1.6043	-2.7048	-1.3105	-3.2625	-2.6839	-0.6206	-2.502	-3.5844	-3.1475	-2.3156	-2.1335	-1.5261	-0.7683	-0.4234	-0.1384	-0.3196	-0.7141	0.1746
66.4062	-2.2533	-3.0413	-0.7964	-2.9907	-2.315	-1.5876	-0.5081	0.1899	1.0753	0.6661	0.9874	-1.0406	-1.8403	-2.9949	-1.6128	-3.7448	-3.1965	-0.853	-2.7727	-4.028	-3.464	-2.6367	-2.4427	-1.8258	-0.9361	-0.5662	-0.3837	-0.6982	-0.8365	0.0721
70.3125	-2.6164	-3.5253	-1.0795	-3.3626	-2.6434	-1.9363	-0.782	0.0801	0.9326	0.3899	0.6871	-1.5481	-2.1675	-3.3536	-1.9311	-4.2638	-3.756	-1.1313	-3.0743	-4.5104	-3.8318	-3.0173	-2.7888	-2.2227	-1.1145	-0.7275	-0.7592	-1.1256	-0.9644	-0.0713
74.2188	-2.9785	-3.9909	-1.3955	-3.7729	-3.0149	-2.3499	-1.1769	-0.129	0.6255	-0.0359	0.2823	-2.0609	-2.5495	-3.7445	-2.235	-4.7671	-4.3126	-1.4306	-3.3795	-4.9902	-4.2184	-3.4315	-3.1522	-2.6884	-1.2955	-0.8994	-1.235	-1.5522	-1.095	-0.245
78.125	-3.2933	-4.3734	-1.7136	-4.1625	-3.3809	-2.7816	-1.6369	-0.4182	0.1821	-0.56	-0.1807	-2.4932	-2.924	-4.1059	-2.4857	-5.1879	-4.7978	-1.7104	-3.6439	-5.409	-4.57	-3.831	-3.4961	-3.1713	-1.4668	-1.0729	-1.7605	-1.927	-1.2175	-0.4237
82.0312	-3.5053	-4.6012	-1.9875	-4.454	-3.6731	-3.1625	-2.0792	-0.7467	-0.3436	-1.1043	-0.6462	-2.7618	-3.2092	-4.356	-2.6405	-5.454	-5.1352	-1.9192	-3.8118	-5.6964	-4.8152	-4.1485	-3.769	-3.6007	-1.6123	-1.239	-2.2697	-2.2053	-1.3124	-0.5712
85.9375	-3.5597	-4.6071	-2.1622	-4.564	-3.8125	-3.4127	-2.4064	-1.0588	-0.8793	-1.5749	-1.0581	-2.7996	-3.3146	-4.4046	-2.6586	-5.4997	-5.2548	-2.0028	-3.8248	-5.7798	-4.8752	-4.3072	-3.9117	-3.8958	-1.7148	-1.3892	-2.6897	-2.3548	-1.353	-0.6456
89.8438	-3.414	-4.3424	-2.1834	-4.42	-3.7246	-3.4558	-2.5256	-1.2952	-1.3471	-1.8789	-1.3679	-2.5658	-3.1586	-4.1702	-2.5072	-5.2783	-5.1083	-1.9154	-3.6335	-5.5972	-4.6775	-4.2348	-3.8686	-3.9799	-1.7595	-1.5169	-2.9521	-2.3589	-1.3102	-0.608
93.75	-3.0488	-3.7889	-2.0109	-3.9774	-3.3566	-3.236	-2.3686	-1.4056	-1.6788	-1.9437	-1.543	-2.0529	-2.686	-3.5984	-2.1683	-4.7732	-4.6814	-1.6302	-3.2095	-5.1113	-4.1727	-3.8798	-3.6005	-3.796	-1.7382	-1.6182	-3.0059	-2.2182	-1.1581	-0.4308
97.6562	-2.474	-2.9669	-1.6286	-3.2328	-2.6927	-2.7328	-1.9092	-1.3612	-1.8293	-1.7331	-1.5711	-1.2894	-1.8838	-2.679	-1.6435	-4.0038	-3.9992	-1.1471	-2.5533	-4.3205	-3.349	-3.2251	-3.0959	-3.3223	-1.6537	-1.6947	-2.8296	-1.9512	-0.8803	-0.1055
101.5625	-1.7293	-1.9361	-1.0504	-2.2291	-1.7628	-1.969	-1.1731	-1.1618	-1.7853	-1.2572	-1.4619	-0.3376	-0.7902	-1.4542	-0.9568	-3.0255	-3.1241	-0.4949	-1.6987	-3.2648	-2.2402	-2.2971	-2.3773	-2.5818	-1.522	-1.7559	-2.4398	-1.5939	-0.4745	0.355
105.4688	-0.8776	-0.7892	-0.3185	-1.0523	-0.6429	-1.0106	-0.2358	-0.8359	-1.5667	-0.5714	-1.2451	0.7141	0.5066	-0.0177	-0.1534	-1.9222	-2.145	0.2725	-0.7092	-2.0232	-0.926	-1.1651	-1.5008	-1.6441	-1.3722	-1.8203	-1.8932	-1.197	0.0448	0.9179
109.375	0.006	0.3616	0.503	0.1821	0.5555	0.0437	0.7898	-0.434	-1.2201	0.2331	-0.9639	1.7633	1.8807	1.4975	0.705	-0.7947	-1.1619	1.0839	0.3309	-0.7048	0.4775	0.0672	-0.5477	-0.6168	-1.2431	-1.9152	-1.2796	-0.8209	0.647	1.5359
113.2812	0.8462	1.4032	1.3395	1.348	1.7034	1.0783	1.7745	-0.0174	-0.8073	1.0481	-0.6662	2.7088	3.188	2.9393	1.5487	0.2551	-0.2695	1.8625	1.3295	0.568	1.8349	1.2772	0.3882	0.3709	-1.176	-2.0719	-0.7077	-0.5272	1.2891	2.1561
117.1875	1.579	2.24	2.1182	2.3304	2.6769	1.9825	2.5969	0.3555	-0.3913	1.7689	-0.3951	3.4659	4.2904	4.1616	2.3106	1.1382	0.4565	2.5373	2.2011	1.677	3.0122	2.3437	1.2168	1.1907	-1.2065	-2.3201	-0.285	-0.3691	1.9216	2.7283
121.0938	2.159	2.81	2.7799	3.0445	3.379	2.669	3.1652	0.6409	-0.0243	2.3134	-0.1807	3.9784	5.0789	5.0477	2.9365	1.7907	0.9692	3.0537	2.8795	2.5266	3.8983	3.1653	1.8661	1.7363	-1.3561	-2.6798	-0.0987	-0.3814	2.4963	3.2119
125	2.5633	3.0927	3.2872	3.4472	3.7551	3.0885	3.4315	0.8167	0.2599	2.6352	-0.0351	4.2252	5.4901	5.528	3.3928	2.1806	1.2525	3.3805	3.3254	3.0573	4.4221	3.676	2.2923	1.942	-1.6269	-3.1547	-0.1985	-0.5734	2.9739	3.5806
128.9062	2.7917	3.1097	3.6286	3.541	3.8005	3.2348	3.3966	0.8832	0.4484	2.7273	0.0483	4.2208	5.5147	5.5886	3.6707	2.3093	1.3194	3.5141	3.5306	3.2527	4.5619	3.8539	2.4848	1.7924	-1.9991	-3.7276	-0.5883	-0.9258	3.3286	3.8241
132.8125	2.8632	2.916	3.8163	3.369	3.5569	3.1416	3.1046	0.8589	0.5459	2.6181	0.0912	4.009	5.1946	5.27	3.784	2.208	1.2042	3.4769	3.5156	3.139	4.3468	3.7212	2.4641	1.3236	-2.4332	-4.3596	-1.2249	-1.393	3.5511	3.9476
136.7188	2.8113	2.586	3.8806	3.0023	3.1007	2.872	2.6288	0.7728	0.5684	2.36	0.1224	3.6525	4.6123	4.6562	3.7639	1.9299	0.954	3.3111	3.3235	2.7769	3.849	3.3384	2.2758	0.6148	-2.8764	-4.994	-2.026	-1.91	3.648	3.9683
140.625	2.6774	2.1983	3.8615	2.5256	2.5264	2.5035	2.0551	0.6553	0.5348	2.0146	0.1689	3.2206	3.8729	3.8584	3.6518	1.5396	0.6197	3.0708	3.0114	2.2496	3.1689	2.7923	1.9812	-0.2258	-3.2714	-5.5636	-2.8843	-2.4031	3.6388	3.9123
144.5312	2.5045	1.8216	3.8001	2.0217	1.9282	2.113	1.4647	0.5307	0.4603	1.6391	0.2478	2.7773	3.0856	2.9963	3.4913	1.104	0.2494	2.8115	2.6421	1.6478	2.4189	2.1823	1.6479	-1.0785	-3.5647	-6.0007	-3.6843	-2.8008	3.5513	3.8097
148.4375	2.3311	1.5059	3.7319	1.5597	1.3862	1.7648	0.9215	0.4134	0.352	1.2758	0.3614	2.3731	2.3471	2.1813	3.322	0.6837	-0.1153	2.5818	2.2762	1.0575	1.7058	1.6068	1.3417	-1.8289	-3.7142	-6.247	-4.3184	-3.0436	3.4175	3.6911
152.3438	2.1883	1.2791	3.6834	1.1877	0.9564	1.5033	0.4659	0.3069	0.2082	0.9479	0.4965	2.0408	1.7305	1.504	3.1756	0.3279	-0.4402	2.4177	1.9665	0.55	1.1188	1.1517	1.1206	-2.3822	-3.6939	-6.2626	-4.7003	-3.0906	3.2686	3.5847
156.25	2.098	1.149	3.6715	0.9314	0.6691	1.3515	0.1154	0.2069	0.0213	0.6611	0.6295	1.7954	1.2812	1.0277	3.0737	0.0726	-0.6979	2.3403	1.7553	0.1776	0.721	0.8821	1.0302	-2.6718	-3.4967	-6.0306	-4.774	-2.9233	3.1329	3.5143
160.1562	2.0728	1.1097	3.7045	0.7965	0.5314	1.3142	-0.1298	0.1066	-0.2169	0.4099	0.7332	1.6379	1.018	0.7867	3.0286	-0.0592	-0.8661	2.3569	1.6721	-0.0275	0.5482	0.8385	1.1014	-2.6637	-3.134	-5.5595	-4.5173	-2.5453	3.0339	3.4986
164.0625	2.1181	1.148	3.7844	0.7743	0.5339	1.3834	-0.2787	0.0022	-0.509	0.1864	0.7867	1.5603	0.9391	0.7888	3.0442	-0.0555	-0.9269	2.4636	1.7331	-0.0513	0.6098	1.0343	1.3481	-2.3559	-2.6341	-4.8809	-3.9415	-1.9805	2.9892	3.5495
167.9688	2.2328	1.2496	3.9086	0.8471	0.6581	1.5438	-0.3406	-0.1028	-0.8457	-0.0108	0.783	1.5519	1.0287	1.0205	3.1176	0.0855	-0.8676	2.6488	1.9407	0.1051	0.8937	1.4578	1.7667	-1.7751	-2.0383	-4.0456	-3.0871	-1.2689	3.0095	3.6718
171.875	2.4114	1.4025	4.0708	0.994	0.8818	1.7774	-0.319	-0.1948	-1.2026	-0.1712	0.7341	1.6029	1.2641	1.4526	3.2413	0.3566	-0.6824	2.8966	2.284	0.4281	1.3713	2.075	2.3355	-0.9706	-1.3954	-3.1164	-2.0173	-0.4616	3.0982	3.8625
175.7812	2.644	1.5978	4.262	1.1946	1.1836	2.066	-0.2094	-0.2521	-1.5393	-0.2697	0.6709	1.7076	1.6212	2.0465	3.4042	0.7417	-0.3747	3.1886	2.7399	0.8942	2.0027	2.8351	3.0168	-0.0069	-0.7559	-2.1607	-0.8101	0.3849	3.2515	4.1103
179.6875	2.9172	1.8284	4.4714	1.4311	1.5439	2.3921	0.0006	-0.2486	-1.8035	-0.2693	0.6394	1.8646	2.0784	2.7601	3.5941	1.2169	0.0421	3.5061	3.2764	1.4724	2.7421	3.6781	3.7609	1.0445	-0.1658	-1.2432	0.4519	1.2151	3.4581	4.397
183.5938	3.2143	2.0868	4.687	1.69	1.9461	2.7394	0.3267	-0.1596	-1.938	-0.1279	0.6923	2.0762	2.6185	3.5526	3.7989	1.7515	0.5449	3.831	3.8561	2.1256	3.5425	4.5421	4.5128	2.114	0.3385	-0.4194	1.6894	1.9791	3.7007	4.7002
187.5	3.5163	2.364	4.897	1.9618	2.3758	3.093	0.7829	0.0329	-1.8905	0.1937	0.8782	2.3449	3.229	4.3878	4.0085	2.3111	1.1036	4.1473	4.4406	2.8141	4.3595	5.3719	5.2206	3.1409	0.7334	0.2694	2.8352	2.6382	3.9577	4.9961
191.4062	3.8046	2.6482	5.0911	2.2406	2.8206	3.4404	1.376	0.3352	-1.6235	0.7218	1.2319	2.6716	3.9006	5.2361	4.2151	2.8609	1.6852	4.4414	4.9948	3.4979	5.1549	6.1241	5.8433	4.0788	1.0088	0.7985	3.8386	3.167	4.2051	5.2629
195.3125	4.0627	2.9266	5.2616	2.5228	3.2704	3.772	2.1004	0.7411	-1.1232	1.4622	1.7667	3.0517	4.6259	6.0746	4.4133	3.3704	2.2587	4.7027	5.4909	4.1408	5.8985	6.7716	6.3563	4.8986	1.1677	1.1605	4.6691	3.5546	4.4206	5.4831
199.2188	4.2786	3.1876	5.4044	2.8062	3.7167	4.0826	2.9365	1.232	-0.4037	2.3955	2.4695	3.4734	5.3961	6.8865	4.5992	3.8166	2.7984	4.9245	5.9101	4.7134	6.5693	7.3035	6.7531	5.5875	1.2243	1.3639	5.3149	3.8034	4.5866	5.6447
203.125	4.4464	3.4222	5.5184	3.0886	4.1518	4.3697	3.8503	1.7792	0.4922	3.4764	3.3013	3.9166	6.1984	7.6583	4.7697	4.1859	3.2864	5.1037	6.2439	5.195	7.1547	7.7231	7.0426	6.1463	1.2012	1.43	5.7801	3.926	4.6926	5.7423
207.0312	4.5658	3.6253	5.6051	3.3652	4.5674	4.6328	4.7956	2.3471	1.4974	4.6367	4.2003	4.3528	7.013	8.3777	4.9209	4.4736	3.7111	5.2402	6.4923	5.5737	7.6484	8.0425	7.2428	6.5842	1.126	1.3888	6.0799	3.9407	4.736	5.7765
210.9375	4.6394	3.7937	5.6663	3.6272	4.9526	4.8703	5.7179	2.8966	2.5284	5.792	5.0894	4.7469	7.8115	9.0301	5.0478	4.6806	4.0649	5.3358	6.6605	5.8443	8.0474	8.277	7.3743	6.9132	1.0274	1.2734	6.2347	3.8664	4.721	5.7534
214.8438	4.6699	3.9234	5.7025	3.8594	5.2922	5.077	6.5588	3.3888	3.495	6.8501	5.8848	5.0603	8.5564	9.597	5.1437	4.8092	4.3411	5.3934	6.7554	6.0051	8.3488	8.4394	7.4541	7.1439	0.9312	1.1151	6.2653	3.7189	4.6553	5.6831
218.75	4.6564	4.0063	5.711	4.0402	5.5667	5.243	7.2611	3.7889	4.3114	7.7214	6.507	5.2559	9.2019	10.0553	5.2009	4.8597	4.5323	5.4162	6.7818	6.0547	8.5469	8.5368	7.4922	7.2826	0.8562	0.9396	6.189	3.5092	4.5474	5.5777
222.6562	4.5927	4.0294	5.6851	4.1433	5.7532	5.3537	7.7746	4.0696	4.907	8.3289	6.8911	5.3042	9.6987	10.3794	5.2111	4.8276	4.6293	5.4071	6.7411	5.9911	8.6332	8.569	7.4908	7.3306	0.8115	0.7644	6.0192	3.2444	4.4041	5.4498
226.5625	4.4692	3.9765	5.6149	4.1423	5.8296	5.3918	8.0611	4.2146	5.2353	8.6182	6.9964	5.1891	9.9999	10.5449	5.167	4.7054	4.6235	5.3683	6.631	5.8119	8.5978	8.5303	7.4452	7.2858	0.7966	0.5985	5.766	2.931	4.2303	5.3098
230.4688	4.2761	3.8319	5.49	4.0166	5.7794	5.3417	8.1002	4.2207	5.2802	8.5659	6.8125	4.9127	10.0694	10.5347	5.0621	4.4856	4.5101	5.3014	6.448	5.5175	8.434	8.4123	7.3475	7.146	0.8025	0.4443	5.4393	2.5785	4.0298	5.1644
234.375	4.0076	3.5866	5.303	3.7581	5.5968	5.1944	7.8938	4.0987	5.0593	8.1844	6.3619	4.4967	9.8905	10.3442	4.8929	4.1656	4.2915	5.2066	6.1905	5.1149	8.1431	8.2092	7.1894	6.913	0.8147	0.3	5.0523	2.2025	3.8069	5.0161
238.2812	3.6655	3.2417	5.052	3.3756	5.2911	4.9517	7.4687	3.8726	4.6221	7.5232	5.698	3.9802	9.4718	9.9864	4.6592	3.752	3.9802	5.0827	5.8624	4.6205	7.7386	7.9214	6.9663	6.5962	0.8174	0.1631	4.6248	1.8256	3.5674	4.8627
242.1875	3.2607	2.811	4.7424	2.8963	4.8875	4.6292	6.8763	3.5766	4.0437	6.6644	4.8971	3.4145	8.8509	9.494	4.3666	3.2632	3.6001	4.9279	5.476	4.0621	7.2494	7.5599	6.6805	6.2153	0.7973	0.0333	4.1837	1.4759	3.3184	4.6987
246.0938	2.812	2.32	4.3864	2.362	4.4263	4.2552	6.1884	3.2516	3.4147	5.7136	4.0493	2.8544	8.0925	8.9178	4.027	2.7291	3.1845	4.7404	5.0524	3.478	6.7186	7.1471	6.3432	5.8006	0.7465	-0.0858	3.7627	1.1827	3.067	4.5167
250	2.3435	1.802	4.0011	1.8238	3.9575	3.8675	5.4901	2.9402	2.8282	4.7871	3.2456	2.3503	7.2824	8.3223	3.6589	2.1878	2.772	4.5207	4.6212	2.9144	6.2001	6.7167	5.9747	5.3914	0.6641	-0.1866	3.3985	0.9716	2.8188	4.3094
253.9062	1.882	1.2932	3.6048	1.3338	3.535	3.5076	4.8696	2.6825	2.3669	3.9967	2.5673	1.9407	6.5171	7.7787	3.2854	1.6808	2.4004	4.2726	4.2169	2.4196	5.7518	6.3099	5.6032	5.0318	0.5559	-0.2593	3.1255	0.8579	2.5763	4.0717
257.8125	1.4535	0.8273	3.2145	0.9379	3.2087	3.214	4.4063	2.5121	2.0919	3.4357	2.0761	1.6486	5.8918	7.3555	2.9309	1.2466	2.1009	4.004	3.8745	2.0385	5.428	5.9702	5.2602	4.7644	0.4333	-0.2944	2.9707	0.8438	2.3392	3.8019
261.7188	1.0818	0.4319	2.8428	0.6692	3.0176	3.0161	4.1611	2.4522	2.0355	3.1668	1.8087	1.4818	5.4877	7.1094	2.617	0.915	1.8936	3.7269	3.624	1.8054	5.2705	5.7369	4.9758	4.6245	0.3108	-0.2856	2.9493	0.9168	2.1046	3.5026
265.625	0.7858	0.1258	2.4967	0.5445	2.984	2.9294	4.1672	2.5121	2.1987	3.216	1.7745	1.4365	5.3609	7.0773	2.3599	0.7028	1.7847	3.4548	3.4854	1.7393	5.3023	5.6376	4.7733	4.633	0.2032	-0.2324	3.0614	1.0525	1.8683	3.1799
269.5312	0.577	-0.083	2.1781	0.5625	3.1103	2.9531	4.4264	2.6855	2.5537	3.5702	1.9577	1.5027	5.5345	7.2696	2.1679	0.6111	1.7678	3.2001	3.4647	1.8393	5.5222	5.683	4.664	4.7927	0.1237	-0.1403	3.2923	1.2205	1.6258	2.8421
273.4375	0.4574	-0.1971	1.8846	0.7044	3.3779	3.071	4.9087	2.95	3.0495	4.182	2.3217	1.6694	5.9958	7.6683	2.0412	0.6255	1.8258	2.9716	3.5523	2.0841	5.905	5.8634	4.6463	5.086	0.082	-0.0211	3.6138	1.3907	1.3732	2.4971
277.3438	0.4188	-0.2295	1.6126	0.9371	3.7504	3.2547	5.5579	3.2704	3.6216	4.9776	2.8155	1.9271	6.6985	8.2291	1.9739	0.7181	1.935	2.7732	3.7243	2.4343	6.4044	6.1504	4.7063	5.4769	0.0829	0.1087	3.9874	1.5399	1.1073	2.151
281.25	0.4442	-0.201	1.3594	1.2187	4.1795	3.4694	6.2999	3.6041	4.201	5.8677	3.3806	2.2679	7.5706	8.8887	1.9554	0.8539	2.0698	2.605	3.9476	2.8384	6.9619	6.5021	4.8227	5.916	0.1262	0.2309	4.3682	1.6553	0.8263	1.8085
285.1562	0.5121	-0.1366	1.1261	1.506	4.6128	3.6808	7.054	3.9086	4.7233	6.7601	3.957	2.6838	8.5257	9.5765	1.9746	0.9968	2.2066	2.4656	4.1871	3.2427	7.5177	6.8722	4.9727	6.3489	0.2065	0.3276	4.7107	1.7353	0.5311	1.4739
289.0625	0.6017	-0.0605	0.9181	1.7628	5.0028	3.8602	7.7444	4.1486	5.1359	7.5696	4.4891	3.1636	9.4774	10.2267	2.0225	1.1176	2.3289	2.3548	4.4132	3.6013	8.0222	7.2206	5.1374	6.7257	0.3151	0.3847	4.9742	1.7876	0.2255	1.1532
292.9688	0.6975	0.0088	0.7435	1.9655	5.3145	3.9884	8.3092	4.3002	5.4017	8.2265	4.9297	3.6911	10.3507	10.79	2.0948	1.2005	2.4298	2.276	4.6093	3.8862	8.4453	7.5223	5.3061	7.0104	0.4414	0.3946	5.1295	1.8257	-0.0826	0.8556
296.875	0.7931	0.0626	0.6104	2.1079	5.5299	4.0569	8.7062	4.3532	5.5008	8.6816	5.2438	4.2445	11.0915	11.2409	2.1932	1.2463	2.5146	2.236	4.7747	4.0929	8.7814	7.7731	5.4775	7.1867	0.5763	0.358	5.1634	1.8645	-0.383	0.5929
300.7812	0.8908	0.1031	0.5232	2.2003	5.6491	4.0657	8.9151	4.3086	5.4288	8.9071	5.4098	4.7962	11.669	11.5785	2.3244	1.2726	2.6003	2.2434	4.9251	4.2411	9.0479	7.9895	5.6588	7.2605	0.7147	0.2841	5.0813	1.9163	-0.6647	0.3779
304.6875	1	0.1419	0.4806	2.2656	5.6867	4.0214	8.9348	4.1749	5.1947	8.8954	5.4197	5.3144	12.0738	11.8218	2.4983	1.3086	2.7125	2.3049	5.0878	4.3694	9.2782	8.2032	5.8622	7.2557	0.8562	0.1894	4.9052	1.9871	-0.918	0.2215
308.5938	1.1332	0.196	0.4747	2.3325	5.6668	3.9336	8.7793	3.9637	4.8163	8.6551	5.2778	5.7645	12.3114	11.9998	2.7234	1.3884	2.8799	2.4219	5.2942	4.5246	9.5107	8.4511	6.1016	7.2063	1.0039	0.0945	4.6675	2.075	-1.1364	0.1302
312.5	1.3014	0.2828	0.4917	2.4287	5.6151	3.8125	8.471	3.6869	4.3174	8.2066	4.9977	6.1108	12.3933	12.1403	3.0025	1.5417	3.1274	2.5891	5.5712	4.7499	9.7773	8.7637	6.387	7.1457	1.1625	0.0203	4.4035	2.1694	-1.3175	0.1038
316.4062	1.51	0.4162	0.5144	2.5744	5.5536	3.6672	8.0357	3.3556	3.725	7.5782	4.5993	6.3187	12.3303	12.2598	3.3299	1.7874	3.4687	2.7947	5.9331	5.0734	10.0936	9.155	6.7203	7.0973	1.3345	-0.016	4.1427	2.252	-1.4628	0.1355
320.3125	1.756	0.6037	0.5252	2.7787	5.4955	3.5047	7.4989	2.9813	3.0674	6.8032	4.1056	6.357	12.1275	12.3579	3.6907	2.1289	3.9027	3.0233	6.3775	5.5016	10.4536	9.616	7.0925	7.0685	1.5193	-0.0036	3.9034	2.2998	-1.5771	0.212
324.2188	2.0267	0.8455	0.5092	3.0391	5.4438	3.3298	6.8829	2.5766	2.3738	5.9184	3.5407	6.2022	11.7847	12.4166	4.0629	2.5539	4.4117	3.2586	6.8841	6.0173	10.8305	10.1143	7.4825	7.0499	1.7114	0.0602	3.6912	2.2888	-1.6682	0.316
328.125	2.3014	1.1356	0.4568	3.3419	5.391	3.1452	6.2075	2.1572	1.6733	4.9638	2.929	5.8441	11.2995	12.4052	4.4203	3.037	4.9637	3.4861	7.4178	6.5832	11.182	10.599	7.8591	7.0192	1.9021	0.1697	3.5017	2.1997	-1.7459	0.4279
332.0312	2.5554	1.4618	0.365	3.6652	5.3221	2.9512	5.4904	1.7409	0.9945	3.9816	2.2958	5.291	10.6722	12.2888	4.7375	3.5431	5.5157	3.6944	7.9334	7.1485	11.4587	11.0099	8.1853	6.9487	2.0806	0.3116	3.3255	2.0232	-1.8221	0.5287
335.9375	2.7644	1.8066	0.2379	3.9813	5.2179	2.7468	4.7494	1.3473	0.3647	3.0159	1.6684	4.5742	9.9116	12.0382	4.9917	4.0324	6.0189	3.8752	8.3829	7.6574	11.6141	11.2896	8.4252	6.8139	2.2363	0.4672	3.1549	1.764	-1.9086	0.6015
339.8438	2.9089	2.1483	0.0855	4.2603	5.0596	2.5293	4.0045	0.9954	-0.1914	2.1117	1.077	3.7489	9.0398	11.6386	5.1658	4.4653	6.4249	4.0226	8.7221	8.0587	11.614	11.3943	8.551	6.6006	2.3599	0.6149	2.988	1.4434	-2.0159	0.6329
343.75	2.9771	2.4624	-0.0775	4.4747	4.8343	2.2969	3.2799	0.7019	-0.6516	1.3132	0.5547	2.8899	8.0943	11.0963	5.2494	4.8068	6.6915	4.1316	8.9171	8.3132	11.4435	11.303	8.5492	6.3099	2.4447	0.7347	2.8317	1.0971	-2.1503	0.6137
347.6562	2.9663	2.7252	-0.2349	4.6032	4.5396	2.0498	2.6055	0.4799	-0.9974	0.6618	0.1362	2.0833	7.128	10.4413	5.2394	5.0316	6.7899	4.1972	8.9497	8.4016	11.1119	11.0219	8.4232	5.9586	2.4866	0.8109	2.7002	0.7707	-2.3122	0.5386
351.5625	2.8839	2.918	-0.3714	4.6354	4.1869	1.7923	2.0166	0.3391	-1.2133	0.1937	-0.1453	1.414	6.2051	9.725	5.1401	5.1284	6.7096	4.2139	8.8211	8.3281	10.6529	10.5843	8.1926	5.577	2.4842	0.8355	2.6116	0.5112	-2.4947	0.4064
355.4688	2.7459	3.0318	-0.475	4.5747	3.8024	1.5345	1.5521	0.2859	-1.288	-0.0629	-0.262	0.9522	5.3952	9.0147	4.9639	5.1026	6.4623	4.1752	8.5527	8.1211	10.121	10.0452	7.8887	5.2043	2.4387	0.8099	2.5834	0.3577	-2.6846	0.2197
359.375	2.5765	3.07	-0.538	4.4396	3.425	1.2922	1.2498	0.3238	-1.2155	-0.091	-0.1962	0.7413	4.7647	8.384	4.7306	4.9771	6.0828	4.0754	8.1847	7.8304	9.5848	9.4731	7.5493	4.8818	2.3544	0.7445	2.6272	0.3327	-2.8645	-0.0153
363.2812	2.405	3.0496	-0.5571	4.262	3.1011	1.0862	1.1416	0.4527	-0.9965	0.1124	0.0558	0.7916	4.3679	7.9021	4.4667	4.7905	5.6262	3.9126	7.7717	7.5195	9.117	8.9398	7.2125	4.6474	2.2401	0.6569	2.7458	0.4374	-3.016	-0.2881
367.1875	2.262	2.9985	-0.5319	4.0829	2.877	0.9394	1.2467	0.6688	-0.6403	0.5341	0.4821	1.0793	4.2398	7.6238	4.2032	4.5914	5.1603	3.691	7.3745	7.2555	8.7837	8.5095	6.912	4.5298	2.1093	0.5694	2.9319	0.6518	-3.1237	-0.5847
371.0938	2.173	2.9497	-0.4641	3.9448	2.79	0.8732	1.5658	0.9627	-0.1658	1.1436	1.0549	1.5516	4.3895	7.5801	3.9719	4.4296	4.7547	3.4239	7.0505	7.0971	8.6334	8.2293	6.6731	4.5439	1.9793	0.5038	3.1686	0.9382	-3.1779	-0.8878
375	2.1525	2.934	-0.3577	3.8828	2.8601	0.9022	2.0781	1.3191	0.398	1.894	1.7322	2.137	4.7978	7.7726	3.7998	4.3463	4.4684	3.1324	6.8433	7.0825	8.6876	8.1218	6.5096	4.6883	1.8683	0.4782	3.4319	1.2498	-3.1766	-1.1788
378.9062	2.2004	2.9721	-0.2191	3.9171	3.0841	1.0304	2.74	1.716	1.0129	2.7243	2.4619	2.7564	5.4181	8.1722	3.7037	4.365	4.337	2.8428	6.7733	7.2219	8.9366	8.1817	6.4226	4.9437	1.7923	0.5025	3.6937	1.5391	-3.1259	-1.4402
382.8125	2.3021	3.0693	-0.0581	4.0478	3.4343	1.2483	3.4886	2.1254	1.6345	3.5651	3.1857	3.3359	6.1811	8.7222	3.6855	4.4861	4.3652	2.5814	6.8342	7.4938	9.3391	8.377	6.4015	5.2751	1.7612	0.5781	3.9254	1.7664	-3.0383	-1.6578
386.7188	2.4335	3.2134	0.1136	4.2542	3.8621	1.5332	4.2486	2.515	2.2152	4.3443	3.845	3.8158	7.0033	9.3461	3.7317	4.6864	4.5254	2.3699	6.9939	7.8492	9.8287	8.6554	6.4271	5.6367	1.7782	0.6976	4.1019	1.9065	-2.9306	-1.8222
390.625	2.5673	3.3784	0.284	4.5001	4.3064	1.8522	4.9419	2.851	2.7085	4.9951	4.3859	4.1573	7.7972	9.9597	3.8165	4.9247	4.7646	2.2218	7.203	8.2209	10.3256	8.9543	6.4766	5.9786	1.8389	0.848	4.2042	1.9515	-2.8193	-1.9302
394.5312	2.6803	3.5309	0.4433	4.7412	4.704	2.1676	5.4969	3.1025	3.0736	5.4621	4.7644	4.3437	8.4816	10.4828	3.9089	5.1513	5.0171	2.1414	7.406	8.5378	10.7504	9.2129	6.5295	6.2544	1.9341	1.0122	4.2214	1.909	-2.7177	-1.9836
398.4375	2.7586	3.6396	0.5854	4.9351	5.0012	2.443	5.8578	3.2451	3.2791	5.707	4.9503	4.3781	8.9907	10.8515	3.9802	5.3195	5.2212	2.1253	7.555	8.7386	11.0382	9.3836	6.5717	6.4276	2.0508	1.1712	4.1494	1.7972	-2.6327	-1.9879
402.3438	2.7992	3.6829	0.7084	5.0492	5.1614	2.6488	5.9898	3.2649	3.3055	5.7106	4.9291	4.2772	9.2791	11.0251	4.0118	5.3953	5.3339	2.1657	7.6197	8.7838	11.1487	9.4396	6.5976	6.475	2.1744	1.3041	3.9883	1.6371	-2.5637	-1.9503
406.25	2.8085	3.6533	0.8134	5.0665	5.1697	2.766	5.8818	3.16	3.1477	5.4726	4.7034	4.0646	9.3234	10.9891	3.998	5.3644	5.34	2.254	7.593	8.6615	11.07	9.3768	6.6095	6.3862	2.2899	1.3878	3.7389	1.4451	-2.5034	-1.8776
410.1562	2.7985	3.5576	0.9032	4.9863	5.0322	2.7877	5.5451	2.9411	2.8154	5.0099	4.291	3.7642	9.1201	10.7523	3.9462	5.2323	5.2526	2.3832	7.489	8.3867	10.8168	9.211	6.614	6.1623	2.3816	1.3979	3.3992	1.2281	-2.44	-1.7749
414.0625	2.7821	3.4128	0.9812	4.8223	4.7711	2.7179	5.0094	2.6297	2.3323	4.3525	3.7235	3.397	8.6817	10.341	3.8724	5.021	5.1056	2.5482	7.3358	7.9946	10.422	8.9698	6.6182	5.8113	2.4333	1.3104	2.9642	0.9823	-2.36	-1.6449
417.9688	2.7694	3.24	1.0503	4.5969	4.4187	2.5697	4.3182	2.2545	1.7344	3.5407	3.0423	2.9795	8.0319	9.7904	3.7951	4.7602	4.94	2.7428	7.1651	7.5301	9.9272	8.6834	6.6247	5.346	2.4289	1.106	2.4283	0.6973	-2.2519	-1.4889
421.875	2.764	3.0577	1.1138	4.3353	4.0097	2.3621	3.5226	1.8476	1.0669	2.6213	2.2958	2.5255	7.2019	9.1373	3.7284	4.4792	4.79	2.9571	7.0012	7.0362	9.3719	8.3753	6.6294	4.7817	2.3539	0.7749	1.7895	0.3624	-2.1089	-1.3089
425.7812	2.7626	2.8767	1.1747	4.0592	3.5757	2.1159	2.6761	1.44	0.3795	1.6459	1.5356	2.0486	6.228	8.4147	3.6772	4.1986	4.6715	3.1738	6.8527	6.5446	8.7864	8.0571	6.6195	4.1366	2.1979	0.3219	1.0556	-0.0261	-1.9311	-1.1102
429.6875	2.7549	2.6976	1.2347	3.7826	3.1404	1.8507	1.8302	1.0582	-0.2779	0.6682	0.813	1.5642	5.1518	7.6492	3.6344	3.9258	4.5767	3.3679	6.7097	6.0703	8.1881	7.7266	6.5757	3.4323	1.9577	-0.2302	0.248	-0.46	-1.7269	-0.9045
433.5938	2.7263	2.5115	1.2927	3.5087	2.718	1.5813	1.0308	0.7226	-0.8602	-0.258	0.1753	1.0914	4.0198	6.8624	3.582	3.6546	4.4771	3.5085	6.5472	5.6114	7.5833	7.3717	6.4754	2.6966	1.6408	-0.8407	-0.5958	-0.9169	-1.5124	-0.7104
437.5	2.6598	2.3037	1.3429	3.2312	2.3141	1.3164	0.3169	0.4462	-1.3308	-1.0808	-0.3375	0.6522	2.8848	6.074	3.4956	3.3686	4.3314	3.5644	6.3322	5.154	6.9715	6.9771	6.299	1.9642	1.2662	-1.4533	-1.4235	-1.3626	-1.3095	-0.5511
441.4062	2.5401	2.059	1.3749	2.9371	1.9288	1.059	-0.2808	0.2361	-1.6637	-1.7532	-0.6954	0.2704	1.8054	5.3063	3.351	3.0485	4.099	3.5114	6.0354	4.6804	6.3528	6.5332	6.0367	1.277	0.8649	-2.0031	-2.1721	-1.7557	-1.1425	-0.4502
445.3125	2.3565	1.7675	1.3757	2.6123	1.5602	0.8086	-0.7399	0.0938	-1.8445	-2.236	-0.8811	-0.0313	0.8435	4.5867	3.132	2.6788	3.752	3.339	5.6405	4.177	5.734	6.0426	5.6937	0.6822	0.4764	-2.4255	-2.7756	-2.055	-1.0334	-0.4255
449.2188	2.1067	1.4289	1.3335	2.2477	1.2084	0.5638	-1.0462	0.0172	-1.8697	-2.5007	-0.8913	-0.2338	0.0601	3.9488	2.8351	2.254	3.2841	3.0546	5.1513	3.6413	5.1322	5.5233	5.2916	0.2266	0.1435	-2.666	-3.1742	-2.2264	-0.997	-0.4844
453.125	1.7989	1.0531	1.2421	1.8437	0.8771	0.3258	-1.1947	0.0007	-1.7464	-2.5334	-0.7367	-0.324	-0.4914	3.4293	2.4718	1.7818	2.7129	2.6835	4.5925	3.0847	4.5745	5.0067	4.866	-0.0497	-0.0955	-2.6896	-3.3242	-2.2492	-1.0373	-0.6209
457.0312	1.4516	0.6598	1.1049	1.413	0.5745	0.0998	-1.1895	0.0366	-1.4907	-2.3369	-0.4411	-0.2974	-0.7719	3.063	2.0667	1.2826	2.0773	2.2647	4.0058	2.5317	4.0943	4.5325	4.46	-0.121	-0.2129	-2.4871	-3.2062	-2.1197	-1.1459	-0.8161
460.9375	1.0929	0.2754	0.936	0.9805	0.3125	-0.1046	-1.0431	0.1148	-1.1265	-1.9309	-0.0376	-0.1581	-0.7617	2.8767	1.6538	0.7872	1.4304	1.8439	3.4423	2.0163	3.7255	4.1411	4.1165	0.0189	-0.1968	-2.0778	-2.8296	-1.8524	-1.3025	-1.0415
464.8438	0.7556	-0.0699	0.7592	0.58	0.105	-0.2732	-0.7747	0.2239	-0.6838	-1.3507	0.4353	0.0812	-0.4635	2.885	1.2707	0.3328	0.83	1.4663	2.9529	1.5765	3.4969	3.8658	3.8712	0.3542	-0.0529	-1.5075	-2.2329	-1.4778	-1.4777	-1.2632
468.75	0.4736	-0.3458	0.6037	0.2506	-0.0326	-0.3896	-0.4078	0.352	-0.1965	-0.6437	0.9386	0.4016	0.0985	3.0871	0.9547	-0.0412	0.3304	1.1709	2.5812	1.2499	3.4277	3.7285	3.7482	0.8486	0.1968	-0.8418	-1.479	-1.039	-1.6364	-1.4467
472.6562	0.2768	-0.5241	0.5002	0.0311	-0.0851	-0.436	0.0334	0.4886	0.3003	0.1362	1.4369	0.7795	0.8818	3.4679	0.738	-0.297	-0.0239	0.9871	2.3584	1.0693	3.5258	3.7368	3.7579	1.4506	0.5172	-0.1576	-0.6478	-0.5859	-1.7424	-1.5607
476.5625	0.1889	-0.5811	0.4762	-0.0445	-0.0383	-0.3956	0.5254	0.6255	0.7725	0.9337	1.9003	1.1887	1.8308	4	0.6459	-0.4017	-0.2022	0.9332	2.3018	1.0602	3.7879	3.8851	3.8981	2.0998	0.8659	0.4673	0.1736	-0.1697	-1.7619	-1.5795
480.4688	0.2264	-0.4984	0.5525	0.0484	0.1191	-0.2554	1.047	0.7572	1.1891	1.6956	2.3042	1.6006	2.8811	4.6471	0.6933	-0.3306	-0.1892	1.0168	2.4154	1.2384	4.2012	4.1562	4.1556	2.7345	1.1978	0.9627	0.8996	0.1614	-1.6684	-1.4847
484.375	0.3984	-0.2654	0.7415	0.3215	0.3927	-0.0084	1.5769	0.8804	1.5231	2.3735	2.6273	1.9842	3.9634	5.3664	0.8829	-0.0708	0.0141	1.235	2.6913	1.6071	4.7439	4.5244	4.5084	3.2972	1.4705	1.2728	1.4538	0.366	-1.4468	-1.2669
488.2812	0.7062	0.1193	1.0448	0.7706	0.7789	0.3426	2.0916	0.9918	1.7516	2.9241	2.8489	2.305	5.0058	6.1102	1.2031	0.376	0.3916	1.5742	3.1102	2.1546	5.3853	4.9579	4.9275	3.7381	1.6486	1.36	1.7744	0.4119	-1.0968	-0.9274
492.1875	1.1412	0.6453	1.453	1.3732	1.2613	0.783	2.5629	1.0871	1.8564	3.3095	2.9474	2.5265	5.9348	6.8264	1.6286	0.9899	0.9124	2.01	3.6423	2.8513	6.0854	5.4206	5.3782	4.0179	1.7062	1.2067	1.8185	0.2774	-0.6346	-0.4801
496.0938	1.6829	1.2892	1.9448	2.0889	1.8095	1.2853	2.9566	1.1587	1.824	3.4969	2.9004	2.6125	6.6779	7.4596	2.1222	1.7323	1.5343	2.5086	4.2472	3.65	6.7943	5.8739	5.8217	4.1082	1.6295	0.8142	1.5644	-0.0473	-0.0913	0.0486
500	2.2969	2.0137	2.4886	2.8616	2.379	1.8102	3.2342	1.1959	1.6466	3.4608	2.6881	2.5325	7.1673	7.9537	2.6407	2.548	2.2069	3.0287	4.8754	4.4877	7.4545	6.2786	6.2177	3.9925	1.4183	0.2026	1.0136	-0.5583	0.4906	0.6215
503.9062	2.9356	2.7697	3.0451	3.6249	2.9152	2.3109	3.3573	1.186	1.3239	3.1863	2.2984	2.2687	7.3465	8.2558	3.1407	3.3699	2.8765	3.5265	5.4719	5.2916	8.0052	6.5976	6.5279	3.6678	1.0859	-0.5916	0.1911	-1.2372	1.0636	1.1946
507.8125	3.5425	3.4992	3.5716	4.3103	3.3601	2.7387	3.2941	1.1179	0.8655	2.6731	1.7334	1.8214	7.1772	8.3228	3.5841	4.127	3.4902	3.9611	5.9806	5.9881	8.3896	6.7987	6.7206	3.146	0.6589	-1.517	-0.8551	-2.05	1.5823	1.7234
511.7188	4.0592	4.1417	4.0269	4.8554	3.6599	3.0489	3.0263	0.9855	0.2924	1.94	1.0142	1.2132	6.6471	8.1282	3.9424	4.7526	4.0011	4.2999	6.3513	6.5114	8.5623	6.8582	6.7741	2.4547	0.1744	-2.5098	-2.0573	-2.9479	2.0087	2.1691
515.625	4.4336	4.6405	4.3755	5.2112	3.7732	3.207	2.5541	0.7909	-0.3621	1.0269	0.1829	0.4877	5.7737	7.6665	4.1978	5.1926	4.3707	4.5223	6.5452	6.8125	8.496	6.7631	6.6805	1.6365	-0.3242	-3.4983	-3.3333	-3.8707	2.3162	2.5043
519.5312	4.6283	4.9503	4.591	5.3475	3.676	3.1923	1.8989	0.5457	-1.0534	-0.0067	-0.701	-0.2953	4.6049	6.9558	4.3417	5.4109	4.5719	4.6211	6.5404	6.8642	8.1853	6.5129	6.4461	0.7458	-0.7931	-4.409	-4.594	-4.7526	2.4909	2.716
523.4375	4.6276	5.0433	4.6583	5.2545	3.3653	2.9998	1.1013	0.2696	-1.7299	-1.0863	-1.5669	-1.0685	3.2149	6.0361	4.3727	5.3923	4.5913	4.6007	6.3335	6.6636	7.6463	6.1187	6.0901	-0.1569	-1.195	-5.1736	-5.7526	-5.5299	2.5298	2.8049
527.3438	4.4397	4.913	4.5741	4.9423	2.8579	2.6402	0.2168	-0.0129	-2.3378	-2.1309	-2.3433	-1.7669	1.6957	4.9643	4.2935	5.1427	4.4296	4.4739	5.9402	6.2299	6.9134	5.6024	5.6412	-1.0114	-1.5045	-5.7366	-6.7334	-6.1482	2.4391	2.7828
531.25	4.0958	4.5748	4.3474	4.4382	2.1886	2.1378	-0.6908	-0.2772	-2.8284	-3.0619	-2.9674	-2.3364	0.1485	3.8077	4.1089	4.6868	4.1027	4.2589	5.3925	5.6008	6.0341	4.9937	5.1323	-1.765	-1.7109	-6.0613	-7.4791	-6.5688	2.2314	2.6678
535.1562	3.6434	4.0637	3.9982	3.7827	1.4052	1.5278	-1.5564	-0.5024	-3.1643	-3.8122	-3.3934	-2.7399	-1.3263	2.6379	3.8262	4.0641	3.6402	3.9761	4.7346	4.8274	5.064	4.3276	4.5969	-2.3774	-1.8183	-6.1331	-7.9555	-6.7715	1.9251	2.4805
539.0625	3.1381	3.43	3.5558	3.0268	0.5642	0.8531	-2.3205	-0.6746	-3.324	-4.3336	-3.597	-2.9592	-2.6364	1.525	3.4572	3.3257	3.0828	3.6476	4.0179	3.9691	4.0625	3.6422	4.065	-2.823	-1.8421	-5.9602	-8.1519	-6.755	1.5442	2.242
542.9688	2.6338	2.7335	3.0568	2.2276	-0.2748	0.1607	-2.9337	-0.7883	-3.304	-4.5999	-3.5766	-2.9941	-3.7031	0.5345	3.0204	2.5295	2.4788	3.2962	3.2958	3.0896	3.0896	2.9765	3.5621	-3.0914	-1.8036	-5.5713	-8.0793	-6.5347	1.1184	1.9727
546.875	2.1747	2.0379	2.5414	1.4454	-1.0527	-0.5008	-3.3602	-0.8453	-3.1182	-4.6084	-3.351	-2.8584	-4.4652	-0.2757	2.5431	1.7368	1.8784	2.9458	2.6191	2.2528	2.204	2.3685	3.1092	-3.1842	-1.7248	-5.0115	-7.7658	-6.1398	0.6822	1.6934
550.7812	1.7913	1.4045	2.0499	0.7397	-1.7151	-1.0844	-3.5789	-0.8523	-2.7948	-4.3763	-2.9554	-2.5761	-4.881	-0.8574	2.0619	1.0081	1.3291	2.6203	2.0323	1.5183	1.4608	1.8536	2.7244	-3.1122	-1.6235	-4.3369	-7.2521	-5.6092	0.2728	1.4245
554.6875	1.4989	0.8881	1.6195	0.1649	-2.2158	-1.5471	-3.583	-0.818	-2.372	-3.9374	-2.4352	-2.1776	-4.9299	-1.174	1.619	0.3983	0.8715	2.3431	1.5713	0.938	0.9081	1.4621	2.4238	-2.8922	-1.5114	-3.6086	-6.5865	-4.9885	-0.074	1.1859
558.5938	1.301	0.532	1.2825	-0.2333	-2.5191	-1.8533	-3.3787	-0.7495	-1.8924	-3.3363	-1.8412	-1.6971	-4.6132	-1.2038	1.2584	-0.0466	0.5369	2.1356	1.2618	0.5515	0.584	1.218	2.2229	-2.5445	-1.3939	-2.8868	-5.8213	-4.3273	-0.3277	0.9955
562.5	1.1935	0.366	1.0646	-0.4222	-2.6032	-1.9777	-2.9842	-0.6511	-1.3991	-2.6241	-1.2245	-1.1707	-3.9548	-0.9424	1.0195	-0.2935	0.3466	2.0154	1.1198	0.3841	0.512	1.1367	2.1361	-2.0925	-1.2718	-2.2258	-5.01	-3.676	-0.4663	0.8683
566.4062	1.1697	0.404	0.9837	-0.3855	-2.4617	-1.9084	-2.4282	-0.524	-0.9315	-1.8553	-0.6334	-0.6357	-3.002	-0.4056	0.9312	-0.3239	0.3127	1.9957	1.1513	0.4444	0.6977	1.2235	2.1753	-1.5629	-1.144	-1.6696	-4.2055	-3.0832	-0.4787	0.8156
570.3125	1.2246	0.6436	1.0493	-0.1253	-2.106	-1.6498	-1.75	-0.3687	-0.5234	-1.085	-0.1113	-0.1295	-1.8246	0.3681	1.0072	-0.1357	0.4385	2.0835	1.3526	0.7241	1.1259	1.4721	2.3469	-0.9869	-1.01	-1.2497	-3.4585	-2.5923	-0.3658	0.8435
574.2188	1.3552	1.0662	1.2601	0.3366	-1.5658	-1.2231	-0.9987	-0.1876	-0.2013	-0.368	0.3041	0.3119	-0.5136	1.3178	1.2433	0.2558	0.7178	2.2783	1.7099	1.1977	1.7593	1.8634	2.6476	-0.4012	-0.8721	-0.9842	-2.8162	-2.2391	-0.1407	0.952
578.125	1.5592	1.6379	1.6025	0.9596	-0.8886	-0.667	-0.2319	0.012	0.0152	0.2433	0.5814	0.6559	0.823	2.3618	1.6166	0.8176	1.133	2.5701	2.1984	1.8229	2.5394	2.3652	3.061	0.1526	-0.7367	-0.8783	-2.3199	-2.048	0.173	1.1341
582.0312	1.8317	2.3112	2.0494	1.6869	-0.1374	-0.0348	0.4864	0.2153	0.1123	0.7006	0.6968	0.8756	2.0675	3.4028	2.0884	1.5004	1.6538	2.9389	2.7823	2.5421	3.3893	2.9334	3.556	0.6299	-0.6146	-0.926	-2.003	-2.0304	0.5428	1.3749
585.9375	2.1603	3.0283	2.5607	2.4494	0.6137	0.61	1.0892	0.4001	0.0813	0.9619	0.6343	0.9527	3.1025	4.3362	2.6086	2.2408	2.2377	3.3552	3.4153	3.2853	4.2206	3.5151	4.0877	0.9874	-0.5193	-1.1121	-1.887	-2.1824	0.9304	1.6533
589.8438	2.5232	3.7259	3.0862	3.1724	1.2859	1.199	1.5124	0.5384	-0.0836	0.9945	0.3875	0.8799	3.8228	5.0599	3.1223	2.9671	2.8319	3.7818	4.0437	3.9757	4.941	4.0532	4.6024	1.1887	-0.4643	-1.4132	-1.9792	-2.4848	1.2954	1.9433
593.75	2.888	4.3402	3.5711	3.782	1.8033	1.667	1.7004	0.6003	-0.3848	0.7782	-0.0395	0.6628	4.1475	5.4862	3.5771	3.6058	3.3786	4.1788	4.6106	4.5371	5.4646	4.4928	5.0444	1.2092	-0.4603	-1.7992	-2.2705	-2.9039	1.6002	2.2182
597.6562	3.215	4.8139	3.9629	4.2134	2.1016	1.9589	1.6135	0.5589	-0.8201	0.3087	-0.6304	0.3205	4.0301	5.5516	3.93	4.0895	3.8217	4.509	5.0613	4.9024	5.7213	4.7869	5.364	1.0408	-0.5112	-2.2341	-2.7348	-3.3946	1.8147	2.4543
601.5625	3.4618	5.1011	4.2185	4.4173	2.1359	2.0365	1.2336	0.3958	-1.3806	-0.4003	-1.3559	-0.1154	3.4642	5.225	4.1526	4.3649	4.1127	4.7427	5.3488	5.0216	5.6646	4.9017	5.5243	0.693	-0.6126	-2.6782	-3.3309	-3.9039	1.9204	2.6348
605.4688	3.5891	5.1719	4.3103	4.365	1.8861	1.8831	0.5681	0.1043	-2.0483	-1.3155	-2.1738	-0.6037	2.4846	4.511	4.2335	4.3977	4.2165	4.8616	5.4379	4.8673	5.2767	4.8195	5.5061	0.1926	-0.7516	-3.0905	-4.0055	-4.3766	1.912	2.7513
609.375	3.5669	5.0138	4.229	4.0512	1.3594	1.5045	-0.3489	-0.3077	-2.7942	-2.3852	-3.0309	-1.0974	1.1632	3.4501	4.1773	4.1761	4.1153	4.8593	5.3092	4.4376	4.57	4.5401	5.3087	-0.4195	-0.9091	-3.4332	-4.699	-4.761	1.7968	2.8032
613.2812	3.3798	4.6328	3.9832	3.4937	0.5891	0.9283	-1.4591	-0.8187	-3.5783	-3.5419	-3.8668	-1.5491	-0.399	2.1141	4.0009	3.7111	3.8096	4.7394	4.96	3.7559	3.5851	4.0794	4.9483	-1.0929	-1.0639	-3.6749	-5.3504	-5.0138	1.5911	2.7949
617.1875	3.0301	4.053	3.5966	2.7317	-0.3692	0.1998	-2.6854	-1.3948	-4.3514	-4.7078	-4.6197	-1.9156	-2.083	0.5987	3.7279	3.0346	3.318	4.5131	4.4056	2.8681	2.3873	3.4674	4.4548	-1.773	-1.1973	-3.7947	-5.9031	-5.1056	1.3163	2.733
621.0938	2.5396	3.3153	3.1032	1.8215	-1.4443	-0.6231	-3.9386	-1.9929	-5.0582	-5.8003	-5.2319	-2.1629	-3.7632	-0.9862	3.383	2.1965	2.675	4.1958	3.6784	1.838	1.0599	2.7449	3.8665	-2.407	-1.2962	-3.7842	-6.3105	-5.0236	0.9941	2.6231
625	1.9473	2.4741	2.5425	0.8321	-2.5557	-1.4765	-5.1256	-2.564	-5.6422	-6.7396	-5.6564	-2.2698	-5.3183	-2.5264	2.9879	1.2599	1.9272	3.8053	2.8255	0.7411	-0.3028	1.9592	3.2261	-2.949	-1.3558	-3.6487	-6.5402	-4.7731	0.6438	2.468
628.9062	1.3054	1.593	1.9554	-0.1616	-3.6221	-2.2966	-6.1577	-3.0578	-6.0509	-7.4545	-5.8606	-2.229	-6.6415	-3.914	2.5592	0.295	1.1285	3.3618	1.9053	-0.3429	-1.6046	1.1608	2.5761	-3.3635	-1.3789	-3.4057	-6.5761	-4.3769	0.2804	2.268
632.8125	0.672	0.7382	1.3813	-1.0854	-4.5681	-3.0258	-6.9577	-3.4277	-6.2421	-7.8891	-5.8289	-2.0474	-7.6474	-5.0567	2.1092	-0.6275	0.3351	2.8881	0.9823	-1.3372	-2.7558	0.3992	1.9554	-3.6286	-1.3739	-3.0822	-6.4197	-3.8713	-0.0851	2.0225
636.7188	0.1035	-0.0293	0.8564	-1.8732	-5.3313	-3.6174	-7.4671	-3.637	-6.1889	-8.0073	-5.5641	-1.7437	-8.2781	-5.8848	1.6495	-1.4433	-0.3997	2.4104	0.1207	-2.176	-3.682	-0.2798	1.3968	-3.7352	-1.3511	-2.7103	-6.0885	-3.3017	-0.4446	1.7334
640.625	-0.3534	-0.66	0.4123	-2.473	-5.8665	-4.0389	-7.6519	-3.6646	-5.8853	-7.7974	-5.087	-1.3455	-8.5055	-6.3562	1.1947	-2.1001	-1.0303	1.9584	-0.6217	-2.8102	-4.3307	-0.8369	0.9255	-3.6862	-1.3196	-2.3225	-5.6124	-2.7154	-0.7909	1.4087
644.5312	-0.6677	-1.1199	0.075	-2.8512	-6.1493	-4.2728	-7.5057	-3.5093	-5.3488	-7.2733	-4.4341	-0.8851	-8.3322	-6.4585	0.7658	-2.5628	-1.5227	1.5629	-1.2001	-3.2109	-4.6755	-1.2416	0.558	-3.4936	-1.2842	-1.9473	-5.0293	-2.1564	-1.1161	1.0647
648.4375	-0.828	-1.3936	-0.1374	-2.9946	-6.1767	-4.3163	-7.0507	-3.191	-4.62	-6.4748	-3.6546	-0.3958	-7.7888	-6.2077	0.3899	-2.8153	-1.8575	1.2526	-1.5868	-3.3712	-4.7169	-1.4741	0.3031	-3.1757	-1.2439	-1.6064	-4.3804	-1.6596	-1.4099	0.7255
652.3438	-0.8422	-1.4832	-0.2174	-2.9105	-5.9658	-4.1803	-6.3347	-2.7468	-3.7589	-5.4635	-2.8056	0.0922	-6.9297	-5.6445	0.0969	-2.8608	-2.0303	1.0501	-1.7737	-3.3045	-4.4792	-1.5266	0.1622	-2.7538	-1.1928	-1.3131	-3.7053	-1.2483	-1.6598	0.4207
656.25	-0.7351	-1.4068	-0.17	-2.6249	-5.552	-3.8873	-5.4261	-2.2259	-2.8383	-4.3181	-1.9468	0.5541	-5.8276	-4.829	-0.0858	-2.7203	-2.05	0.9688	-1.7715	-3.0411	-4.0066	-1.4037	0.1311	-2.2508	-1.1227	-1.0727	-3.0392	-0.9329	-1.8529	0.1804
660.1562	-0.5417	-1.1947	-0.0147	-2.1801	-4.9857	-3.4698	-4.4062	-1.6813	-1.935	-3.1265	-1.1361	0.9713	-4.5683	-3.8354	-0.1402	-2.4278	-1.9352	1.0116	-1.6063	-2.6242	-3.3569	-1.1232	0.2017	-1.6911	-1.0264	-0.8846	-2.412	-0.7124	-1.9781	0.0307
664.0625	-0.3007	-0.8846	0.2169	-1.6298	-4.3278	-2.9683	-3.362	-1.1632	-1.1222	-1.9789	-0.4255	1.33	-3.2444	-2.7458	-0.0625	-2.0257	-1.7104	1.1704	-1.3149	-2.1039	-2.5952	-0.7149	0.3631	-1.1017	-0.9024	-0.7459	-1.8487	-0.5787	-2.0292	-0.0114
667.9688	-0.0468	-0.5165	0.4851	-1.0339	-3.6444	-2.4288	-2.3777	-0.7138	-0.462	-0.9603	0.1408	1.6189	-1.9505	-1.6457	0.1343	-1.5588	-1.4023	1.4278	-0.939	-1.5324	-1.7887	-0.2191	0.6014	-0.5142	-0.7567	-0.6554	-1.3715	-0.5212	-2.0063	0.0593
671.875	0.1948	-0.1276	0.7502	-0.4512	-3.0002	-1.8994	-1.5284	-0.3642	0	-0.1436	0.5298	1.8274	-0.7769	-0.6173	0.4214	-1.0687	-1.0378	1.7592	-0.5201	-0.9583	-1.001	0.3166	0.8995	0.0346	-0.6037	-0.6153	-1.0013	-0.5304	-1.9158	0.2354
675.7812	0.4104	0.2514	0.9804	0.0665	-2.4514	-1.4252	-0.8739	-0.1337	0.2377	0.4164	0.7209	1.9449	0.1964	0.2659	0.7594	-0.5901	-0.6422	2.1351	-0.0945	-0.4222	-0.2877	0.8426	1.2372	0.5053	-0.4623	-0.6308	-0.7562	-0.5996	-1.7693	0.4973
679.6875	0.5978	0.598	1.1579	0.4806	-2.0393	-1.0441	-0.4538	-0.0305	0.2463	0.6881	0.7088	1.9636	0.9067	0.9454	1.1058	-0.1484	-0.2387	2.5242	0.3093	0.0463	0.3072	1.313	1.5913	0.8601	-0.3519	-0.7065	-0.6489	-0.7236	-1.5816	0.8159
683.5938	0.7611	0.8973	1.2802	0.7683	-1.786	-0.7825	-0.2846	-0.0519	0.0411	0.6664	0.5043	1.8809	1.3142	1.3828	1.4217	0.24	0.1513	2.8951	0.6714	0.4297	0.7537	1.6914	1.9364	1.0699	-0.287	-0.8414	-0.6825	-0.8957	-1.3694	1.1556
687.5	0.9057	1.1401	1.3565	0.9235	-1.6932	-0.6524	-0.3588	-0.186	-0.3449	0.3724	0.1342	1.7033	1.4062	1.5628	1.6781	0.5651	0.5086	3.2187	0.9792	0.7215	1.0367	1.9548	2.2471	1.1201	-0.2732	-1.0254	-0.8466	-1.1039	-1.15	1.4788
691.4062	1.032	1.3208	1.4012	0.9548	-1.744	-0.651	-0.6469	-0.4122	-0.8653	-0.1484	-0.361	1.4475	1.1979	1.4941	1.8582	0.8214	0.8162	3.4697	1.225	0.9238	1.1552	2.0951	2.5006	1.0152	-0.3061	-1.2368	-1.1157	-1.3294	-0.9413	1.7498
695.3125	1.1326	1.4349	1.4261	0.8814	-1.9076	-0.7621	-1.1016	-0.7027	-1.4664	-0.8327	-0.9313	1.1399	0.7297	1.2065	1.9582	1.0048	1.0597	3.6291	1.4044	1.0441	1.1206	2.1179	2.6789	0.7789	-0.3711	-1.4444	-1.4506	-1.5473	-0.7619	1.9393
699.2188	1.1929	1.479	1.4347	0.7284	-2.1457	-0.9604	-1.6641	-1.0252	-2.0925	-1.6068	-1.5225	0.8136	0.0626	0.7459	1.9846	1.1118	1.2288	3.6864	1.5148	1.0917	0.9537	2.0398	2.7715	0.4511	-0.4473	-1.6126	-1.8026	-1.7291	-0.6309	2.0277
703.125	1.1941	1.4506	1.4208	0.5218	-2.4195	-1.2155	-2.2717	-1.3455	-2.6917	-2.3952	-2.0819	0.503	-0.7288	0.1675	1.9502	1.1399	1.3175	3.6418	1.5552	1.0758	0.6816	1.8835	2.7756	0.0814	-0.5112	-1.7085	-2.1204	-1.8484	-0.5658	2.0073
707.0312	1.1188	1.3502	1.3702	0.2849	-2.695	-1.4974	-2.8647	-1.632	-3.2198	-3.1286	-2.563	0.239	-1.5648	-0.4704	1.8705	1.0885	1.3261	3.5067	1.5267	1.0034	0.3346	1.6742	2.6965	-0.2787	-0.541	-1.7087	-2.3577	-1.8855	-0.5793	1.8821
710.9375	0.9567	1.1834	1.2661	0.0361	-2.9469	-1.7798	-3.3926	-1.8591	-3.643	-3.75	-2.9294	0.044	-2.3676	-1.1122	1.76	0.9614	1.2604	3.3023	1.4333	0.8803	-0.0564	1.4357	2.5462	-0.583	-0.5203	-1.6043	-2.4794	-1.8318	-0.6762	1.667
714.8438	0.7087	0.9618	1.0941	-0.2118	-3.1599	-2.0427	-3.8179	-2.0108	-3.9392	-4.2187	-3.1574	-0.0712	-3.0681	-1.7081	1.6304	0.7679	1.1323	3.0564	1.2823	0.7121	-0.461	1.1895	2.3422	-0.7963	-0.4408	-1.4022	-2.4664	-1.6909	-0.851	1.3853
718.75	0.3883	0.7023	0.8479	-0.4505	-3.3279	-2.2733	-4.1177	-2.0827	-4.0983	-4.5114	-3.2369	-0.1064	-3.6105	-2.2156	1.4904	0.5242	0.958	2.7986	1.0851	0.5063	-0.8502	0.9539	2.1063	-0.8963	-0.303	-1.1224	-2.3159	-1.477	-1.0885	1.0655
722.6562	0.0208	0.4259	0.5328	-0.6736	-3.4516	-2.4653	-4.2833	-2.082	-4.1213	-4.6219	-3.1705	-0.07	-3.9552	-2.6008	1.346	0.2521	0.7574	2.5548	0.8573	0.2745	-1.1965	0.7457	1.8631	-0.8739	-0.1159	-0.7927	-2.0393	-1.2107	-1.3662	0.7379
726.5625	-0.3587	0.1548	0.1673	-0.8748	-3.5354	-2.617	-4.3178	-2.0254	-4.0184	-4.5579	-2.9714	0.0254	-4.0797	-2.8379	1.2023	-0.0219	0.5524	2.3443	0.618	0.0339	-1.4738	0.5812	1.6381	-0.7305	0.1047	-0.4426	-1.6577	-0.9139	-1.658	0.4313
730.4688	-0.7097	-0.0883	-0.2169	-1.0446	-3.5829	-2.7291	-4.2321	-1.9344	-3.8069	-4.3379	-2.6604	0.1672	-3.9777	-2.9096	1.0636	-0.2693	0.3661	2.1779	0.39	-0.1928	-1.6583	0.4772	1.456	-0.4751	0.3399	-0.097	-1.1966	-0.605	-1.9389	0.1701
734.375	-0.9916	-0.2825	-0.5799	-1.1704	-3.5953	-2.8022	-4.0415	-1.8307	-3.5087	-3.9868	-2.2629	0.3466	-3.658	-2.8073	0.9354	-0.4622	0.222	2.0593	0.1982	-0.378	-1.7289	0.4503	1.3378	-0.122	0.5704	0.2274	-0.6813	-0.2962	-2.1876	-0.0277
738.2812	-1.1696	-0.4093	-0.8792	-1.2365	-3.5696	-2.8354	-3.7626	-1.7316	-3.1475	-3.5333	-1.807	0.559	-3.141	-2.5311	0.8248	-0.5765	0.1427	1.9872	0.0678	-0.4925	-1.6696	0.5156	1.299	0.3111	0.7807	0.5223	-0.1346	0.007	-2.389	-0.1522
742.1875	-1.2213	-0.4551	-1.0785	-1.2275	-3.4998	-2.8268	-3.4114	-1.6466	-2.7478	-3.0077	-1.3219	0.8035	-2.4573	-2.0906	0.7415	-0.5943	0.1473	1.9587	0.0216	-0.5095	-1.471	0.6836	1.3474	0.8042	0.9609	0.7865	0.4237	0.3034	-2.5338	-0.2009
746.0938	-1.1408	-0.4133	-1.1543	-1.1314	-3.3792	-2.7738	-3.0041	-1.5773	-2.3331	-2.4407	-0.8374	1.0799	-1.6443	-1.5049	0.6974	-0.5066	0.2497	1.9709	0.0763	-0.4096	-1.133	0.9569	1.482	1.3349	1.1076	1.022	0.9754	0.5934	-2.6178	-0.1783
750	-0.9405	-0.2862	-1.1011	-0.944	-3.2036	-2.6758	-2.5575	-1.519	-1.9261	-1.8636	-0.3829	1.3849	-0.7457	-0.8025	0.7056	-0.3147	0.4554	2.0218	0.2395	-0.1853	-0.6674	1.3273	1.6921	1.8787	1.2239	1.2303	1.5023	0.8754	-2.6406	-0.0947
753.9062	-0.6491	-0.0857	-0.9324	-0.671	-2.9742	-2.5355	-2.0909	-1.463	-1.5477	-1.3069	0.0144	1.7095	0.1901	-0.021	0.7771	-0.0308	0.7588	2.1094	0.5068	0.1558	-0.0981	1.7749	1.9582	2.4095	1.317	1.4101	1.9848	1.1437	-2.606	0.0351
757.8125	-0.3077	0.1671	-0.678	-0.3297	-2.6992	-2.3604	-1.6263	-1.4006	-1.2168	-0.7995	0.3317	2.0366	1.1115	0.7945	0.9178	0.3224	1.142	2.2299	0.8605	0.5904	0.5385	2.2681	2.2532	2.9	1.3952	1.5559	2.4018	1.3879	-2.5218	0.1935
761.7188	0.038	0.4435	-0.379	0.0514	-2.3941	-2.1626	-1.1876	-1.3256	-0.9489	-0.3671	0.5534	2.3428	1.9646	1.5938	1.1233	0.7134	1.5735	2.3753	1.2704	1.0802	1.1965	2.7668	2.5461	3.3235	1.4655	1.6602	2.7323	1.5944	-2.4009	0.361
765.625	0.3446	0.7102	-0.0821	0.4349	-2.0809	-1.959	-0.7991	-1.2362	-0.7556	-0.0296	0.6726	2.6005	2.6971	2.3252	1.3756	1.1037	2.0095	2.5329	1.6959	1.5765	1.8238	3.2262	2.806	3.6553	1.5303	1.7153	2.9581	1.7488	-2.2619	0.5184
769.5312	0.5784	0.9324	0.167	0.7782	-1.785	-1.7689	-0.4831	-1.1361	-0.6439	0.1999	0.6919	2.7832	3.2614	2.9395	1.6418	1.4512	2.3968	2.6845	2.0902	2.025	2.3677	3.6028	3.0059	3.8753	1.5875	1.717	3.0663	1.8394	-2.1283	0.649
773.4375	0.7201	1.0775	0.3286	1.0387	-1.5322	-1.6125	-0.2572	-1.0335	-0.6158	0.3164	0.6222	2.8702	3.6205	3.3958	1.8766	1.7151	2.6793	2.8095	2.4061	2.373	2.781	3.8599	3.1266	3.9701	1.6306	1.6661	3.0517	1.8602	-2.0261	0.7403
777.3438	0.7653	1.1198	0.3734	1.1802	-1.3447	-1.5074	-0.1323	-0.9397	-0.6687	0.3229	0.4802	2.8503	3.7524	3.6665	2.0307	1.8609	2.806	2.8874	2.6025	2.5774	3.0286	3.9723	3.1585	3.9349	1.6513	1.5695	2.9176	1.8122	-1.9806	0.7849
781.25	0.7229	1.0445	0.286	1.1796	-1.2368	-1.466	-0.1101	-0.8657	-0.7955	0.2298	0.2851	2.7241	3.6554	3.7423	2.0617	1.8673	2.7413	2.9028	2.6516	2.6117	3.0934	3.9311	3.1026	3.7752	1.6431	1.4386	2.6756	1.7035	-2.0112	0.7813
785.1562	0.6113	0.8515	0.0672	1.0322	-1.2118	-1.4921	-0.1825	-0.8195	-0.9849	0.0542	0.0559	2.5036	3.3498	3.635	1.9451	1.7306	2.4735	2.849	2.5453	2.4719	2.9805	3.7447	2.9695	3.5064	1.6026	1.2866	2.3446	1.5473	-2.1273	0.7338
789.0625	0.4536	0.556	-0.2652	0.7543	-1.2604	-1.5798	-0.331	-0.8036	-1.2216	-0.1819	-0.1912	2.2101	2.8774	3.3779	1.6827	1.4676	2.0208	2.7303	2.2985	2.1787	2.7175	3.4388	2.7778	3.1533	1.5321	1.1255	1.9483	1.3594	-2.3249	0.6513
792.9688	0.2734	0.1877	-0.6778	0.3817	-1.3621	-1.713	-0.5292	-0.8133	-1.4875	-0.453	-0.4429	1.8704	2.2967	3.0216	1.3041	1.1136	1.4301	2.5621	1.9483	1.7754	2.3517	3.0529	2.5505	2.7471	1.4384	0.9639	1.5134	1.1552	-2.5858	0.5463
796.875	0.0921	-0.2143	-1.1267	-0.0363	-1.4882	-1.8685	-0.7455	-0.8381	-1.7622	-0.7326	-0.6892	1.5137	1.6758	2.6274	0.8613	0.717	0.7705	2.3681	1.5479	1.3207	1.9424	2.6346	2.3118	2.3227	1.332	0.8066	1.0673	0.9486	-2.8803	0.4331
