time	FP1	F3	F7	FC3	C3	C5	P3	P7	PO7	PO3	O1	Oz	Pz	CPz	FP2	Fz	F4	F8	FC4	FCz	Cz	C4	C6	P4	P8	PO8	PO4	O2	HEOG_left	HEOG_right
-199.2188	-1.4849	-1.3911	-1.2613	-1.1363	-0.647	-0.4316	-0.1392	-0.1641	-0.3212	0.0021	0.0582	0.1733	-0.0002	-0.5323	-1.2968	-1.4328	-1.2348	-1.0471	-1.0277	-1.1059	-0.8267	-0.8305	-0.5445	-0.1969	0.1429	0.316	0.2278	0.3068	-1.0913	-0.946
-195.3125	-1.24	-1.144	-0.9668	-0.9673	-0.5862	-0.3436	-0.0784	-0.1396	-0.1061	0.0729	0.1646	0.182	-0.0401	-0.5676	-1.1825	-1.2921	-1.166	-0.8929	-0.9982	-1.0166	-0.8525	-0.8547	-0.5329	-0.1969	0.1471	0.2908	0.1854	0.2719	-0.9272	-0.8317
-191.4062	-1.0137	-0.9132	-0.6946	-0.8085	-0.5322	-0.2625	-0.0245	-0.1146	0.0932	0.1336	0.2563	0.1833	-0.0835	-0.6046	-1.0722	-1.1593	-1.0986	-0.7485	-0.9718	-0.934	-0.8794	-0.8813	-0.5296	-0.2072	0.1442	0.2613	0.1385	0.2335	-0.7727	-0.7248
-187.5	-0.8238	-0.7141	-0.4639	-0.6693	-0.4915	-0.1949	0.017	-0.0895	0.2627	0.1774	0.3242	0.1742	-0.1316	-0.6433	-0.972	-1.0431	-1.0364	-0.6239	-0.9523	-0.8654	-0.9082	-0.913	-0.541	-0.2336	0.1309	0.2267	0.0864	0.1916	-0.6371	-0.6327
-183.5938	-0.6827	-0.5586	-0.289	-0.5568	-0.4682	-0.1466	0.0428	-0.0668	0.3916	0.2009	0.3632	0.1549	-0.1826	-0.6819	-0.8876	-0.9503	-0.9838	-0.5266	-0.9429	-0.8158	-0.9386	-0.9502	-0.5692	-0.2762	0.1072	0.1882	0.0315	0.1484	-0.5284	-0.561
-179.6875	-0.5966	-0.4538	-0.1787	-0.476	-0.4637	-0.1219	0.0517	-0.0504	0.4742	0.2042	0.3729	0.1289	-0.2326	-0.717	-0.824	-0.8847	-0.9452	-0.4615	-0.9452	-0.7874	-0.9694	-0.9915	-0.6121	-0.3297	0.0764	0.1494	-0.0206	0.1083	-0.4525	-0.513
-175.7812	-0.5652	-0.4017	-0.1351	-0.4291	-0.4776	-0.1239	0.0448	-0.0449	0.509	0.1906	0.3578	0.1023	-0.2762	-0.7444	-0.7851	-0.848	-0.9242	-0.4302	-0.9592	-0.7801	-0.9987	-1.0335	-0.6633	-0.3842	0.0439	0.1146	-0.0627	0.0767	-0.4129	-0.4893
-171.875	-0.5827	-0.3998	-0.154	-0.4159	-0.508	-0.1533	0.0243	-0.0538	0.4987	0.1659	0.3261	0.0821	-0.3082	-0.7606	-0.7725	-0.8392	-0.9227	-0.4322	-0.9826	-0.7917	-1.0248	-1.0718	-0.7147	-0.4288	0.0159	0.0879	-0.0887	0.0581	-0.4096	-0.4884
-167.9688	-0.6386	-0.4408	-0.2256	-0.4341	-0.5518	-0.2081	-0.0066	-0.0785	0.4495	0.1362	0.2879	0.0743	-0.3245	-0.7638	-0.7851	-0.855	-0.9398	-0.4642	-1.0111	-0.8187	-1.0457	-1.1013	-0.7573	-0.4538	-0.0026	0.0718	-0.0949	0.0554	-0.4392	-0.5063
-164.0625	-0.7198	-0.5139	-0.3353	-0.4783	-0.6049	-0.2832	-0.0438	-0.1169	0.3701	0.1077	0.2533	0.0825	-0.3238	-0.7532	-0.818	-0.8898	-0.9712	-0.5201	-1.0383	-0.8562	-1.0596	-1.117	-0.7838	-0.4536	-0.0088	0.0673	-0.0813	0.0683	-0.494	-0.5371
-160.1562	-0.8113	-0.6058	-0.4653	-0.5407	-0.6618	-0.37	-0.0826	-0.1634	0.2709	0.0849	0.2303	0.1061	-0.3068	-0.7294	-0.8631	-0.9357	-1.0088	-0.5902	-1.0562	-0.898	-1.0637	-1.1142	-0.7889	-0.4275	-0.002	0.0737	-0.0515	0.0939	-0.5631	-0.5729
-156.25	-0.8979	-0.7012	-0.5962	-0.6103	-0.7152	-0.457	-0.1177	-0.2093	0.1637	0.0707	0.2232	0.1408	-0.2767	-0.693	-0.9094	-0.9825	-1.042	-0.6621	-1.0563	-0.9364	-1.0544	-1.0887	-0.7697	-0.3793	0.0158	0.0886	-0.0118	0.1264	-0.6333	-0.605
-152.3438	-0.9655	-0.785	-0.7092	-0.6741	-0.7562	-0.5315	-0.1436	-0.2447	0.0603	0.0657	0.2317	0.1787	-0.2377	-0.6443	-0.9447	-1.0185	-1.0591	-0.7223	-1.0309	-0.9626	-1.0271	-1.0368	-0.7262	-0.316	0.0409	0.1086	0.0299	0.1584	-0.6912	-0.6248
-148.4375	-1.002	-0.843	-0.7876	-0.7185	-0.775	-0.5814	-0.1554	-0.2607	-0.0284	0.069	0.251	0.211	-0.1942	-0.5833	-0.9569	-1.0315	-1.049	-0.7581	-0.9745	-0.9672	-0.9769	-0.9567	-0.6605	-0.2455	0.0683	0.1293	0.0663	0.1825	-0.7249	-0.6248
-144.5312	-0.9983	-0.8644	-0.8187	-0.7308	-0.7627	-0.597	-0.1495	-0.2517	-0.0941	0.0782	0.2734	0.2298	-0.1497	-0.5095	-0.936	-1.0111	-1.0039	-0.7602	-0.8851	-0.9418	-0.8996	-0.8485	-0.5769	-0.175	0.0934	0.1468	0.0918	0.1928	-0.7257	-0.6
-140.625	-0.9499	-0.8429	-0.7953	-0.7025	-0.7126	-0.573	-0.1243	-0.2166	-0.1316	0.0909	0.2905	0.2306	-0.106	-0.4228	-0.8759	-0.9501	-0.9205	-0.725	-0.7648	-0.8809	-0.7933	-0.715	-0.481	-0.1093	0.1122	0.1581	0.1042	0.1865	-0.6892	-0.5486
-136.7188	-0.8573	-0.7785	-0.7165	-0.6303	-0.6228	-0.5091	-0.0803	-0.1593	-0.1402	0.1047	0.2949	0.2135	-0.0635	-0.3242	-0.7759	-0.8468	-0.8012	-0.6548	-0.6201	-0.7829	-0.6591	-0.5623	-0.3792	-0.0504	0.1224	0.1618	0.1047	0.1644	-0.6157	-0.4724
-132.8125	-0.7259	-0.6774	-0.5882	-0.5177	-0.4967	-0.41	-0.0203	-0.0877	-0.1228	0.1184	0.2823	0.1836	-0.021	-0.2164	-0.6409	-0.7057	-0.6539	-0.5577	-0.4613	-0.6516	-0.5023	-0.3993	-0.2778	0.0023	0.1238	0.1585	0.0975	0.1309	-0.5101	-0.3766
-128.9062	-0.5657	-0.5512	-0.4227	-0.3744	-0.3432	-0.2845	0.0513	-0.0114	-0.0855	0.1316	0.2525	0.1492	0.023	-0.1036	-0.4808	-0.5371	-0.4903	-0.4452	-0.3005	-0.4956	-0.3318	-0.2368	-0.1824	0.0501	0.1175	0.1503	0.0886	0.0931	-0.3812	-0.2687
-125	-0.3893	-0.4147	-0.2363	-0.2147	-0.1758	-0.1441	0.1291	0.061	-0.0357	0.145	0.2096	0.1202	0.0698	0.0079	-0.3088	-0.3555	-0.3238	-0.3301	-0.1499	-0.3274	-0.1589	-0.0862	-0.0972	0.0948	0.1063	0.1405	0.084	0.0589	-0.2392	-0.1572
-121.0938	-0.21	-0.2828	-0.0473	-0.0547	-0.0098	-0.0015	0.2068	0.1235	0.0194	0.1597	0.1608	0.1048	0.1192	0.1109	-0.139	-0.1767	-0.1668	-0.2234	-0.0194	-0.1609	0.0043	0.0431	-0.0244	0.1367	0.0932	0.1322	0.0886	0.0355	-0.095	-0.05
-117.1875	-0.0403	-0.1676	0.1274	0.0905	0.1394	0.131	0.2778	0.1738	0.0738	0.1763	0.1149	0.1082	0.1689	0.1977	0.0164	-0.015	-0.0289	-0.1323	0.0848	-0.0088	0.1469	0.1442	0.0354	0.1745	0.0811	0.1279	0.1045	0.0276	0.0422	0.0468
-113.2812	0.1103	-0.0759	0.2748	0.2096	0.2591	0.2425	0.3352	0.2127	0.1226	0.1942	0.0804	0.1303	0.2139	0.2612	0.1485	0.1195	0.0847	-0.059	0.1611	0.1191	0.2605	0.2146	0.0831	0.205	0.0719	0.1281	0.1299	0.036	0.1653	0.1294
-109.375	0.2353	-0.008	0.3878	0.2962	0.3407	0.3252	0.3717	0.2429	0.1627	0.2105	0.0626	0.166	0.2468	0.2957	0.2528	0.2218	0.1732	-0.0011	0.2117	0.2174	0.3402	0.2556	0.1202	0.2238	0.0658	0.131	0.1591	0.057	0.2693	0.1962
-105.4688	0.3316	0.0418	0.4649	0.3494	0.3808	0.3743	0.3809	0.2666	0.1916	0.2203	0.0623	0.2056	0.2594	0.2978	0.3291	0.2926	0.2396	0.0471	0.2421	0.2852	0.3846	0.2718	0.148	0.2259	0.0611	0.1318	0.1832	0.0827	0.3519	0.2472
-101.5625	0.3994	0.0829	0.51	0.3729	0.3813	0.3893	0.3577	0.2842	0.2073	0.2173	0.075	0.237	0.2441	0.2675	0.3809	0.3368	0.2891	0.0922	0.2587	0.3253	0.3961	0.2694	0.1669	0.2075	0.0544	0.1242	0.1921	0.1027	0.4124	0.2836
-97.6562	0.4412	0.1258	0.5302	0.3736	0.3491	0.3736	0.3006	0.2941	0.2085	0.1959	0.0925	0.2486	0.1971	0.2092	0.4134	0.3619	0.3281	0.1392	0.2683	0.3434	0.3799	0.256	0.1773	0.1677	0.042	0.102	0.1777	0.1067	0.4515	0.3068
-93.75	0.462	0.1784	0.5336	0.3597	0.2951	0.3341	0.2127	0.2928	0.1951	0.1532	0.1048	0.2322	0.1205	0.1321	0.4329	0.3761	0.3625	0.1903	0.2763	0.3466	0.3442	0.2389	0.1798	0.1097	0.0209	0.0612	0.1362	0.0873	0.4713	0.3191
-89.8438	0.4679	0.2445	0.5276	0.3388	0.2326	0.28	0.1026	0.2766	0.1678	0.0902	0.103	0.1853	0.0227	0.0497	0.445	0.3869	0.3966	0.2447	0.2868	0.3422	0.2991	0.2248	0.1766	0.0413	-0.0099	0.0018	0.0703	0.0425	0.4745	0.3229
-85.9375	0.4658	0.3222	0.5169	0.3172	0.1749	0.2213	-0.017	0.2429	0.1285	0.0124	0.0813	0.1116	-0.0817	-0.022	0.4544	0.3997	0.4326	0.2992	0.3018	0.3369	0.2554	0.2197	0.1714	-0.0262	-0.0485	-0.0719	-0.0115	-0.0236	0.4642	0.3211
-82.0312	0.4619	0.4051	0.5033	0.2985	0.1338	0.1675	-0.1307	0.1912	0.0801	-0.0713	0.0384	0.0198	-0.1756	-0.0675	0.4636	0.418	0.4707	0.3494	0.3222	0.3362	0.2236	0.2276	0.1689	-0.0802	-0.0914	-0.1522	-0.0968	-0.1025	0.4437	0.317
-78.125	0.4607	0.4838	0.4861	0.2844	0.1173	0.1252	-0.2239	0.1245	0.0256	-0.1508	-0.0233	-0.0783	-0.2427	-0.0746	0.4743	0.4426	0.5097	0.3916	0.3478	0.3438	0.2121	0.2509	0.1739	-0.11	-0.1339	-0.2304	-0.1727	-0.1831	0.4164	0.3136
-74.2188	0.4646	0.549	0.4634	0.2751	0.1288	0.098	-0.2853	0.0483	-0.0318	-0.2168	-0.098	-0.171	-0.2709	-0.037	0.4866	0.4731	0.5477	0.4233	0.3781	0.3619	0.2262	0.2897	0.19	-0.1091	-0.1719	-0.2984	-0.2283	-0.2547	0.3852	0.3134
-70.3125	0.474	0.5932	0.4336	0.2705	0.1673	0.0856	-0.3091	-0.0295	-0.0887	-0.2625	-0.1783	-0.2482	-0.2551	0.0439	0.5008	0.508	0.5831	0.4442	0.4129	0.3909	0.2674	0.3427	0.2194	-0.0765	-0.2022	-0.3506	-0.2574	-0.3091	0.3529	0.3183
-66.4062	0.4878	0.6133	0.3968	0.2707	0.2275	0.085	-0.2956	-0.1001	-0.1414	-0.285	-0.2561	-0.3032	-0.1973	0.1601	0.5166	0.5458	0.6151	0.4562	0.4526	0.4302	0.334	0.4074	0.2622	-0.0165	-0.2227	-0.3837	-0.2582	-0.341	0.3223	0.3287
-62.5	0.5042	0.6107	0.3548	0.2766	0.3015	0.0913	-0.2509	-0.1556	-0.1856	-0.2845	-0.3242	-0.3332	-0.1066	0.2977	0.5342	0.5855	0.6442	0.463	0.498	0.4778	0.4208	0.481	0.317	0.0627	-0.232	-0.396	-0.2333	-0.3488	0.2957	0.3443
-58.5938	0.5215	0.5909	0.3106	0.2893	0.3803	0.0994	-0.1848	-0.1896	-0.217	-0.2645	-0.3767	-0.3388	0.0038	0.4404	0.5538	0.6264	0.6716	0.4688	0.5496	0.5312	0.5204	0.5607	0.3808	0.1508	-0.229	-0.3875	-0.1882	-0.3334	0.2751	0.3636
-54.6875	0.5389	0.5624	0.2677	0.3096	0.455	0.1058	-0.1092	-0.1985	-0.2318	-0.2306	-0.4103	-0.324	0.1186	0.5719	0.5755	0.6682	0.6992	0.4774	0.6074	0.5868	0.6242	0.6436	0.4491	0.237	-0.2135	-0.3592	-0.1305	-0.2984	0.2622	0.3844
-50.7812	0.556	0.5343	0.2294	0.3375	0.5186	0.1093	-0.0353	-0.1817	-0.2284	-0.1893	-0.4243	-0.2953	0.2232	0.6787	0.5992	0.7103	0.7283	0.4912	0.6704	0.6408	0.7231	0.7269	0.5171	0.3118	-0.1861	-0.3143	-0.0689	-0.2495	0.2582	0.4047
-46.875	0.5739	0.5152	0.1982	0.3716	0.5662	0.1112	0.0275	-0.1413	-0.208	-0.1475	-0.4206	-0.2599	0.3058	0.7517	0.6251	0.752	0.7599	0.5111	0.7362	0.6897	0.809	0.8069	0.5795	0.368	-0.1488	-0.2575	-0.0123	-0.1936	0.2642	0.4232
-42.9688	0.5935	0.5111	0.1763	0.4101	0.5959	0.1151	0.0728	-0.0828	-0.1759	-0.1117	-0.4034	-0.2254	0.3585	0.7872	0.653	0.7923	0.7938	0.5363	0.8014	0.7311	0.8759	0.8795	0.6318	0.4007	-0.1053	-0.1954	0.0314	-0.1382	0.2809	0.4394
-39.0625	0.6163	0.5252	0.1653	0.4507	0.6082	0.1251	0.0974	-0.0138	-0.1409	-0.0874	-0.3786	-0.1981	0.3778	0.7867	0.6834	0.8303	0.8295	0.5648	0.8619	0.7643	0.9205	0.94	0.67	0.4078	-0.0604	-0.1352	0.0561	-0.0899	0.309	0.4535
-35.1562	0.6435	0.5577	0.1666	0.4915	0.6055	0.1447	0.1011	0.0559	-0.114	-0.0785	-0.3527	-0.1824	0.365	0.7556	0.7166	0.8656	0.8658	0.5945	0.9136	0.7906	0.9428	0.9836	0.6917	0.39	-0.02	-0.0839	0.0588	-0.054	0.3483	0.4662
-31.25	0.6765	0.6062	0.1814	0.531	0.5911	0.1754	0.086	0.116	-0.1058	-0.0868	-0.3317	-0.1801	0.3253	0.7018	0.753	0.8984	0.9018	0.6229	0.9532	0.813	0.9454	1.0062	0.6956	0.3499	0.0102	-0.0472	0.04	-0.0337	0.398	0.4781
-27.3438	0.7161	0.6663	0.2106	0.568	0.5684	0.216	0.0561	0.157	-0.1237	-0.1116	-0.3199	-0.1905	0.2671	0.6342	0.7926	0.9293	0.9363	0.6484	0.9782	0.8355	0.9329	1.0052	0.682	0.2925	0.0251	-0.0291	0.0038	-0.0299	0.4558	0.4892
-23.4375	0.7629	0.7324	0.2545	0.6012	0.5399	0.2625	0.0171	0.1716	-0.1702	-0.1492	-0.3193	-0.2111	0.2008	0.5611	0.8345	0.9591	0.9686	0.6699	0.9874	0.8615	0.9104	0.9798	0.6523	0.2238	0.0215	-0.0308	-0.0433	-0.0414	0.5182	0.4984
-19.5312	0.8166	0.7983	0.3123	0.6294	0.5071	0.3094	-0.0244	0.1569	-0.2416	-0.194	-0.3289	-0.2373	0.1369	0.4893	0.8765	0.9882	0.9972	0.6873	0.9807	0.893	0.8825	0.9318	0.6092	0.1507	-0.0014	-0.0511	-0.0933	-0.0653	0.5803	0.5044
-15.625	0.8763	0.8586	0.3823	0.6513	0.4705	0.3506	-0.0615	0.1147	-0.3292	-0.2385	-0.3449	-0.264	0.0847	0.4237	0.9157	1.0163	1.0204	0.7012	0.9592	0.9295	0.852	0.8655	0.5566	0.0802	-0.0413	-0.0858	-0.1382	-0.0969	0.6367	0.5055
-11.7188	0.9397	0.9088	0.4611	0.6657	0.4302	0.3807	-0.0885	0.0515	-0.4207	-0.2756	-0.3619	-0.2862	0.0501	0.3668	0.9486	1.0422	1.036	0.7125	0.925	0.9685	0.8203	0.7873	0.4993	0.0182	-0.0929	-0.1283	-0.1715	-0.1307	0.6823	0.5006
-7.8125	1.0035	0.9459	0.544	0.6716	0.3864	0.3965	-0.1016	-0.0224	-0.5034	-0.2999	-0.3741	-0.3003	0.0349	0.3197	0.9718	1.0642	1.0416	0.7215	0.8808	1.0053	0.7875	0.705	0.4428	-0.0315	-0.1484	-0.1708	-0.1897	-0.1617	0.713	0.4891
-3.9062	1.0633	0.9683	0.625	0.6688	0.34	0.3972	-0.1002	-0.0954	-0.5666	-0.3088	-0.3772	-0.3049	0.0358	0.2818	0.9822	1.0798	1.0354	0.7268	0.8302	1.0346	0.7534	0.6269	0.3919	-0.0674	-0.1996	-0.206	-0.1933	-0.186	0.7263	0.4714
0	1.1137	0.9756	0.6972	0.6577	0.2934	0.3844	-0.0873	-0.1566	-0.6038	-0.3036	-0.3693	-0.3014	0.0463	0.2522	0.9779	1.0866	1.0163	0.7253	0.7769	1.051	0.7181	0.5599	0.3507	-0.0909	-0.2388	-0.228	-0.1858	-0.2021	0.721	0.448
3.9062	1.1497	0.9682	0.754	0.6399	0.251	0.3618	-0.0681	-0.1988	-0.6136	-0.2885	-0.3516	-0.2934	0.0577	0.2301	0.9581	1.0824	0.9853	0.7135	0.7248	1.0509	0.683	0.5097	0.322	-0.1051	-0.2612	-0.2342	-0.1733	-0.2104	0.6977	0.4203
7.8125	1.1682	0.9485	0.7907	0.619	0.2191	0.3352	-0.049	-0.2195	-0.5996	-0.2693	-0.3277	-0.2855	0.0628	0.216	0.9249	1.0674	0.946	0.6885	0.6787	1.0337	0.6515	0.4799	0.3073	-0.1137	-0.2649	-0.2245	-0.1609	-0.2126	0.6595	0.3903
11.7188	1.1695	0.9217	0.8063	0.601	0.2062	0.3114	-0.0345	-0.2212	-0.5691	-0.2514	-0.303	-0.2817	0.0585	0.2129	0.8835	1.0448	0.9056	0.651	0.6446	1.0036	0.6293	0.4739	0.3086	-0.1185	-0.2506	-0.2007	-0.1513	-0.21	0.6125	0.3618
15.625	1.1588	0.8969	0.805	0.5954	0.2221	0.2987	-0.0259	-0.2108	-0.5311	-0.2378	-0.2822	-0.2836	0.0475	0.2267	0.8433	1.0228	0.8756	0.607	0.6311	0.9703	0.6248	0.4952	0.3288	-0.1177	-0.2207	-0.1648	-0.1418	-0.2017	0.5662	0.3404
19.5312	1.1461	0.8876	0.7963	0.6149	0.2772	0.3053	-0.0198	-0.1968	-0.4945	-0.228	-0.2684	-0.2896	0.039	0.266	0.8179	1.0146	0.8707	0.5684	0.6488	0.9487	0.6482	0.5491	0.3733	-0.1054	-0.1778	-0.1182	-0.125	-0.1844	0.5336	0.3345
23.4375	1.1454	0.9101	0.7938	0.673	0.3796	0.3387	-0.0085	-0.1878	-0.4661	-0.2178	-0.2619	-0.2954	0.0464	0.3409	0.8229	1.0369	0.907	0.5518	0.7099	0.9569	0.7103	0.6416	0.4485	-0.0729	-0.1238	-0.061	-0.0902	-0.1526	0.5292	0.3532
27.3438	1.1714	0.98	0.8123	0.7814	0.5331	0.4038	0.0173	-0.19	-0.45	-0.2007	-0.26	-0.2952	0.0844	0.4597	0.8728	1.1062	0.9984	0.575	0.8246	1.0122	0.8194	0.7783	0.5605	-0.0108	-0.0601	0.0073	-0.0265	-0.1009	0.5662	0.4051
31.25	1.2361	1.1083	0.8641	0.9458	0.7341	0.5002	0.066	-0.2067	-0.4477	-0.1703	-0.2581	-0.2835	0.1646	0.6256	0.977	1.2344	1.1527	0.6526	0.9982	1.1266	0.9786	0.961	0.7121	0.0869	0.0125	0.0868	0.073	-0.0263	0.6523	0.4947
35.1562	1.3446	1.2965	0.954	1.1624	0.9708	0.6208	0.1415	-0.2382	-0.4581	-0.1223	-0.251	-0.2572	0.2912	0.8343	1.1359	1.4242	1.3673	0.7909	1.2273	1.3023	1.1831	1.1851	0.9003	0.2207	0.0921	0.1758	0.2088	0.0702	0.7867	0.6206
39.0625	1.4927	1.534	1.0768	1.4157	1.2224	0.7508	0.2411	-0.283	-0.4788	-0.0567	-0.2345	-0.2165	0.4594	1.0727	1.3394	1.6666	1.6288	0.9849	1.4985	1.5295	1.4198	1.439	1.1149	0.3836	0.1757	0.2708	0.3729	0.1826	0.9589	0.7745
42.9688	1.6664	1.7973	1.216	1.6797	1.4626	0.8679	0.3554	-0.3381	-0.5066	0.0222	-0.2067	-0.1649	0.6552	1.3202	1.5677	1.9405	1.9132	1.2173	1.7888	1.7871	1.6683	1.7043	1.3391	0.5623	0.2588	0.3663	0.5505	0.301	1.1491	0.9417
46.875	1.8436	2.0525	1.3454	1.9201	1.6628	0.945	0.47	-0.4005	-0.5381	0.1065	-0.1688	-0.1082	0.8584	1.5523	1.7949	2.2163	2.19	1.4606	2.0693	2.0459	1.9042	1.958	1.5521	0.7395	0.3357	0.4561	0.7226	0.4137	1.3319	1.1041
50.7812	1.9976	2.26	1.4329	2.1	1.7969	0.9545	0.5689	-0.4672	-0.5698	0.1865	-0.1242	-0.0528	1.0461	1.7448	1.9927	2.4596	2.4266	1.6807	2.3088	2.2733	2.1032	2.1765	1.7316	0.8969	0.4002	0.5342	0.8703	0.5101	1.4808	1.2435
54.6875	2.1015	2.3799	1.4467	2.1855	1.8457	0.8738	0.6377	-0.5353	-0.5986	0.2532	-0.078	-0.0041	1.1975	1.8779	2.1353	2.6367	2.5929	1.843	2.4788	2.4385	2.2447	2.3378	1.8574	1.0185	0.4468	0.5962	0.9784	0.5828	1.5724	1.3445
58.5938	2.1327	2.3791	1.3604	2.1513	1.8	0.6903	0.6672	-0.6014	-0.6214	0.3003	-0.0356	0.035	1.2973	1.9393	2.202	2.7191	2.6651	1.9171	2.5567	2.5166	2.3138	2.4245	1.9137	1.093	0.4713	0.6398	1.0389	0.6288	1.5903	1.3963
62.5	2.0749	2.2364	1.1589	1.9857	1.6612	0.4058	0.6552	-0.662	-0.6357	0.3255	-0.0011	0.0646	1.3382	1.9253	2.179	2.6869	2.6277	1.8815	2.5279	2.4917	2.3029	2.4247	1.8905	1.1155	0.4724	0.6662	1.0523	0.6505	1.5258	1.3926
66.4062	1.9206	1.9464	0.8414	1.6931	1.4412	0.038	0.6062	-0.713	-0.6393	0.3306	0.0234	0.0874	1.3213	1.8409	2.0592	2.5312	2.4743	1.7271	2.3873	2.3588	2.2115	2.3325	1.7844	1.0877	0.4521	0.6792	1.0273	0.6545	1.3783	1.3308
70.3125	1.6705	1.5215	0.4224	1.2936	1.16	-0.3809	0.5311	-0.7509	-0.6305	0.321	0.0384	0.1077	1.2549	1.6975	1.8427	2.2551	2.2084	1.4587	2.1389	2.124	2.046	2.149	1.5991	1.0171	0.4163	0.6854	0.9785	0.6504	1.1544	1.2107
74.2188	1.3345	0.9904	-0.0694	0.8205	0.8428	-0.8096	0.4438	-0.7729	-0.6087	0.3044	0.0463	0.1305	1.1529	1.5115	1.5366	1.874	1.8431	1.0951	1.7963	1.8037	1.8185	1.8826	1.3451	0.9157	0.3737	0.6928	0.9235	0.6486	0.8664	1.0351
78.125	0.9311	0.3962	-0.595	0.3153	0.5165	-1.2041	0.3591	-0.7775	-0.5742	0.2887	0.051	0.1592	1.0317	1.3023	1.1564	1.4156	1.4016	0.6674	1.3824	1.4238	1.5465	1.5492	1.0406	0.7979	0.3345	0.709	0.8793	0.6582	0.5317	0.8103
82.0312	0.488	-0.2091	-1.1096	-0.1774	0.2071	-1.5257	0.2892	-0.765	-0.5287	0.2799	0.0559	0.1951	0.9083	1.0895	0.7264	0.9179	0.9165	0.2156	0.9292	1.0175	1.2515	1.1731	0.7102	0.6786	0.3084	0.7392	0.8585	0.6846	0.1725	0.5475
85.9375	0.0408	-0.7697	-1.5681	-0.6154	-0.0628	-1.7471	0.242	-0.7371	-0.4761	0.281	0.0627	0.2368	0.7974	0.8925	0.2802	0.4269	0.4289	-0.2166	0.4755	0.6227	0.9585	0.7854	0.3842	0.5717	0.3021	0.7848	0.8677	0.7287	-0.1851	0.2643
89.8438	-0.3695	-1.2333	-1.9308	-0.963	-0.2757	-1.856	0.22	-0.6971	-0.4219	0.2919	0.0715	0.2799	0.7107	0.7283	-0.142	-0.0083	-0.0154	-0.5866	0.0649	0.2781	0.6942	0.4224	0.0954	0.4883	0.3187	0.843	0.9063	0.7869	-0.5122	-0.0159
93.75	-0.7002	-1.5568	-2.1675	-1.1941	-0.4192	-1.8556	0.2221	-0.6488	-0.3723	0.3097	0.0805	0.3188	0.6562	0.6113	-0.4965	-0.3407	-0.3698	-0.8584	-0.2595	0.0201	0.4847	0.1216	-0.1241	0.4365	0.3568	0.9074	0.9678	0.8514	-0.7792	-0.2651
97.6562	-0.9128	-1.7112	-2.2603	-1.2937	-0.4859	-1.7613	0.245	-0.5956	-0.3328	0.331	0.0876	0.3479	0.6385	0.5521	-0.742	-0.5313	-0.5935	-1.0067	-0.4602	-0.1223	0.3531	-0.083	-0.2476	0.4213	0.411	0.9697	1.0425	0.9134	-0.9588	-0.4551
101.5625	-0.9787	-1.6843	-2.2049	-1.2575	-0.473	-1.5957	0.2863	-0.5398	-0.3061	0.3538	0.0921	0.3642	0.6591	0.5574	-0.8461	-0.5549	-0.6571	-1.0192	-0.5103	-0.13	0.3168	-0.1655	-0.2578	0.445	0.4733	1.0222	1.12	0.9649	-1.03	-0.5609
105.4688	-0.8839	-1.4808	-2.0097	-1.0915	-0.3814	-1.3838	0.3454	-0.4821	-0.291	0.3789	0.0953	0.3681	0.7172	0.6292	-0.7906	-0.4034	-0.5474	-0.8976	-0.3984	0.0029	0.385	-0.1117	-0.149	0.5076	0.5354	1.06	1.1929	1.0016	-0.9809	-0.5662
109.375	-0.6322	-1.1206	-1.6941	-0.8109	-0.2157	-1.1477	0.4244	-0.4223	-0.2823	0.4097	0.1007	0.3644	0.8098	0.7649	-0.575	-0.0872	-0.2694	-0.6557	-0.1292	0.269	0.5572	0.0788	0.0723	0.6075	0.5907	1.0827	1.258	1.0241	-0.8122	-0.466
113.2812	-0.2442	-0.6353	-1.286	-0.4376	0.0165	-0.904	0.5266	-0.3591	-0.2724	0.4519	0.1136	0.3612	0.9325	0.957	-0.217	0.3669	0.1543	-0.3174	0.2768	0.6486	0.8232	0.3934	0.389	0.7413	0.6359	1.0946	1.317	1.0376	-0.537	-0.2681
117.1875	0.2455	-0.0634	-0.8179	0.0019	0.3044	-0.6625	0.655	-0.2915	-0.2526	0.5112	0.1394	0.3684	1.0795	1.1941	0.2502	0.9204	0.6873	0.087	0.7869	1.1137	1.1647	0.8079	0.7761	0.9044	0.6714	1.1037	1.3749	1.0506	-0.1795	0.0083
121.0938	0.7941	0.5546	-0.3238	0.4798	0.6352	-0.4263	0.81	-0.2185	-0.2162	0.5919	0.1825	0.3951	1.2438	1.462	0.7833	1.5291	1.2848	0.5247	1.3612	1.6318	1.5577	1.2907	1.2044	1.0898	0.7008	1.1192	1.4385	1.0723	0.2278	0.3347
125	1.3564	1.181	0.1651	0.9704	0.995	-0.1934	0.9889	-0.1398	-0.1592	0.695	0.2449	0.4471	1.4181	1.7453	1.3351	2.1492	1.9001	0.9633	1.9574	2.1703	1.9765	1.806	1.6436	1.2894	0.7295	1.1491	1.5133	1.1103	0.6489	0.6779
128.9062	1.8912	1.7841	0.6221	1.452	1.3703	0.0418	1.1847	-0.0553	-0.0817	0.8182	0.3255	0.5261	1.5954	2.0289	1.8608	2.7429	2.4902	1.3742	2.5361	2.7004	2.3962	2.3181	2.0651	1.4933	0.7627	1.1979	1.6024	1.1681	1.0477	1.0039
132.8125	2.365	2.3402	1.0276	1.9082	1.7482	0.2855	1.3881	0.0347	0.0122	0.9558	0.4207	0.6282	1.7696	2.3001	2.323	3.2812	3.0193	1.7342	3.0634	3.1987	2.7959	2.7952	2.445	1.6915	0.804	1.2652	1.7048	1.2446	1.3927	1.282
136.7188	2.7543	2.8338	1.3695	2.3284	2.118	0.543	1.5889	0.13	0.1163	1.1002	0.5243	0.7453	1.9367	2.5499	2.6946	3.7451	3.4622	2.0272	3.5148	3.6486	3.1598	3.2124	2.7662	1.8755	0.8551	1.3461	1.8165	1.334	1.6596	1.4887
140.625	3.0465	3.2571	1.6437	2.7061	2.4707	0.8165	1.7782	0.2301	0.2231	1.2434	0.629	0.8663	2.0946	2.7738	2.9612	4.1251	3.8047	2.2449	3.8755	4.0395	3.4781	3.5544	3.0205	2.0393	0.9155	1.4327	1.9317	1.4278	1.8337	1.6104
144.5312	3.2388	3.6081	1.8536	3.0383	2.7996	1.105	1.9502	0.3345	0.3259	1.3786	0.7278	0.9798	2.2439	2.9719	3.1203	4.4199	4.0432	2.3871	4.1419	4.3663	3.7477	3.8165	3.2089	2.1813	0.9834	1.5159	2.0445	1.5163	1.911	1.6442
148.4375	3.337	3.8896	2.0089	3.3242	3.0995	1.4043	2.103	0.4422	0.4195	1.5013	0.8146	1.0758	2.3868	3.1479	3.1809	4.6341	4.184	2.4609	4.3196	4.6285	3.9708	4.004	3.3414	2.3041	1.0568	1.5883	2.1509	1.5915	1.8987	1.5978
152.3438	3.3536	4.1074	2.1242	3.5637	3.3668	1.7078	2.2373	0.5519	0.5003	1.6088	0.8853	1.1476	2.5261	3.3076	3.1598	4.7766	4.2403	2.479	4.4219	4.8283	4.1533	4.1296	3.4333	2.4134	1.1337	1.6454	2.2491	1.6482	1.8127	1.4876
156.25	3.3054	4.2682	2.2159	3.757	3.5981	2.0073	2.3555	0.6616	0.5664	1.7002	0.9378	1.1927	2.6631	3.4562	3.0794	4.858	4.2303	2.4576	4.4657	4.9703	4.303	4.2088	3.5022	2.5159	1.2123	1.6857	2.3392	1.6847	1.676	1.3352
160.1562	3.2111	4.3783	2.2985	3.9035	3.7892	2.2936	2.4592	0.7688	0.6168	1.775	0.9716	1.2122	2.7965	3.5953	2.9624	4.8891	4.1728	2.4129	4.4678	5.0592	4.426	4.256	3.562	2.6159	1.2902	1.71	2.4219	1.7021	1.5137	1.1632
164.0625	3.0881	4.4415	2.3814	4.0008	3.9348	2.5568	2.5481	0.8703	0.6508	1.8324	0.9876	1.2105	2.9209	3.7214	2.8287	4.8779	4.0841	2.3581	4.4406	5.0987	4.5239	4.2793	3.6197	2.7128	1.3637	1.7201	2.4962	1.7027	1.3493	0.9917
167.9688	2.9495	4.4587	2.4666	4.0452	4.0281	2.7869	2.6192	0.9627	0.6683	1.8707	0.9873	1.1931	3.0272	3.8249	2.6913	4.8281	3.9747	2.3006	4.3893	5.0899	4.5926	4.2785	3.6723	2.7997	1.4273	1.7169	2.5588	1.6893	1.2001	0.8344
171.875	2.8023	4.4274	2.5486	4.032	4.0618	2.9742	2.6673	1.043	0.6705	1.8882	0.9732	1.1661	3.1034	3.8918	2.5546	4.7382	3.8472	2.2407	4.3106	5.0307	4.6218	4.2451	3.7084	2.8641	1.4749	1.7005	2.6036	1.664	1.0744	0.6971
175.7812	2.6471	4.3435	2.6156	3.9568	4.0299	3.1105	2.6871	1.1095	0.6603	1.8836	0.9485	1.1345	3.1378	3.9062	2.4147	4.6022	3.6965	2.1725	4.1946	4.9163	4.5979	4.1657	3.7104	2.8908	1.5009	1.67	2.6232	1.6276	0.9713	0.5776
179.6875	2.4793	4.2035	2.6535	3.8179	3.9296	3.1899	2.6743	1.1621	0.643	1.8571	0.9174	1.102	3.1212	3.8549	2.2619	4.4124	3.5127	2.0859	4.028	4.7412	4.507	4.0261	3.6607	2.8659	1.5018	1.6248	2.6111	1.5808	0.882	0.4679
183.5938	2.2922	4.0061	2.6494	3.6179	3.7637	3.2106	2.6278	1.2026	0.6252	1.8108	0.8843	1.0705	3.0503	3.7305	2.0841	4.162	3.2843	1.9704	3.7994	4.5018	4.34	3.8162	3.5462	2.7809	1.4778	1.5656	2.564	1.5241	0.7935	0.3576
187.5	2.0801	3.7543	2.5949	3.3639	3.5407	3.1745	2.5501	1.2343	0.6132	1.7491	0.8536	1.0405	2.9285	3.5347	1.8719	3.849	3.0031	1.8183	3.5034	4.199	4.0956	3.5345	3.3626	2.6355	1.4331	1.4951	2.4829	1.4587	0.6931	0.2375
191.4062	1.8414	3.4558	2.4877	3.0673	3.2748	3.0874	2.447	1.2604	0.6122	1.6774	0.8284	1.0112	2.7663	3.278	1.6213	3.4783	2.6677	1.6279	3.144	3.8399	3.7822	3.1893	3.116	2.4387	1.3755	1.4181	2.3738	1.3868	0.5721	0.1023
195.3125	1.5797	3.1215	2.3323	2.742	2.9838	2.9574	2.3273	1.2842	0.6242	1.6018	0.8105	0.9815	2.5794	2.9789	1.3363	3.0625	2.2856	1.4044	2.7351	3.4383	3.4179	2.7984	2.8222	2.2076	1.3146	1.3407	2.2464	1.3119	0.4284	-0.0466
199.2188	1.3037	2.7649	2.1379	2.4029	2.6864	2.794	2.2003	1.3072	0.6472	1.5278	0.7998	0.9501	2.386	2.6609	1.0284	2.6208	1.8732	1.1595	2.2996	3.0141	3.0275	2.387	2.5041	1.9643	1.2602	1.2696	2.113	1.2382	0.2669	-0.2023
203.125	1.0257	2.3999	1.9171	2.0638	2.3994	2.606	2.0742	1.3285	0.6759	1.4586	0.794	0.9162	2.2031	2.3483	0.7147	2.1762	1.4533	0.909	1.8651	2.59	2.6389	1.9835	2.1877	1.7322	1.2202	1.2107	1.9861	1.1702	0.0978	-0.3534
207.0312	0.759	2.0387	1.6832	1.7359	2.1354	2.4009	1.9545	1.3453	0.7011	1.3952	0.789	0.8795	2.0438	2.0627	0.4147	1.7524	1.051	0.6699	1.4597	2.189	2.2786	1.6149	1.8971	1.5317	1.1989	1.168	1.8766	1.1123	-0.0661	-0.4871
210.9375	0.5148	1.6915	1.4484	1.4272	1.9015	2.1846	1.8429	1.3525	0.7127	1.3361	0.78	0.8408	1.9153	1.8193	0.1461	1.3695	0.6896	0.457	1.1064	1.8301	1.9668	1.3027	1.6509	1.3771	1.1973	1.1437	1.7923	1.0682	-0.2124	-0.5925
214.8438	0.3011	1.3655	1.2225	1.1429	1.6995	1.9613	1.7381	1.3447	0.7015	1.2782	0.7625	0.8018	1.8184	1.6258	-0.0779	1.0415	0.3863	0.2809	0.8203	1.5261	1.7152	1.0599	1.4593	1.2748	1.2125	1.138	1.7374	1.0404	-0.3325	-0.663
218.75	0.1218	1.0658	1.0122	0.8855	1.5268	1.7353	1.6377	1.3179	0.6624	1.2193	0.7347	0.7659	1.7494	1.4812	-0.2509	0.7752	0.1502	0.1463	0.6062	1.2821	1.5248	0.8888	1.3233	1.2232	1.2394	1.1502	1.7124	1.0306	-0.422	-0.6978
222.6562	-0.0234	0.7957	0.8215	0.6563	1.3784	1.5109	1.5401	1.2711	0.5969	1.1592	0.6989	0.7381	1.7015	1.3775	-0.3737	0.5694	-0.0185	0.0524	0.4592	1.0949	1.3875	0.7823	1.2351	1.2138	1.2723	1.1794	1.7154	1.0403	-0.4821	-0.7017
226.5625	-0.138	0.5573	0.6521	0.4552	1.2482	1.2935	1.446	1.2074	0.5137	1.1012	0.6616	0.7244	1.6671	1.3017	-0.4536	0.4169	-0.1278	-0.0069	0.3663	0.9547	1.2877	0.7254	1.1806	1.2335	1.3053	1.2244	1.743	1.0701	-0.5182	-0.6845
230.4688	-0.2285	0.3515	0.5038	0.281	1.13	1.0888	1.3589	1.1335	0.4274	1.0516	0.6322	0.7303	1.6394	1.2385	-0.5027	0.3054	-0.1918	-0.0413	0.3096	0.8471	1.206	0.6982	1.1419	1.2672	1.334	1.2837	1.7908	1.12	-0.5387	-0.6586
234.375	-0.3031	0.1773	0.3753	0.1313	1.0184	0.9022	1.284	1.0587	0.3552	1.0173	0.6201	0.7593	1.6132	1.173	-0.5349	0.2203	-0.228	-0.0621	0.2701	0.7556	1.1225	0.6802	1.101	1.3001	1.3545	1.3544	1.8535	1.188	-0.5531	-0.6367
238.2812	-0.3706	0.0325	0.2654	0.0021	0.9087	0.7378	1.2261	0.9928	0.3128	1.0039	0.6318	0.811	1.5849	1.0934	-0.5634	0.147	-0.2536	-0.0798	0.2306	0.6648	1.0211	0.6533	1.043	1.3202	1.3643	1.4316	1.9248	1.2695	-0.57	-0.629
242.1875	-0.4382	-0.0867	0.1735	-0.1118	0.7973	0.5976	1.1879	0.9435	0.3103	1.013	0.6682	0.8809	1.5528	0.9936	-0.5982	0.073	-0.2829	-0.1024	0.1788	0.5625	0.8921	0.6053	0.9587	1.3198	1.3613	1.5082	1.9979	1.3574	-0.5953	-0.6414
246.0938	-0.5107	-0.1849	0.1002	-0.2163	0.6815	0.4811	1.1681	0.9146	0.349	1.0415	0.7238	0.9605	1.5167	0.8738	-0.6445	-0.0099	-0.3251	-0.1342	0.1089	0.4423	0.7339	0.5308	0.8461	1.2961	1.3444	1.5755	2.0653	1.4425	-0.6314	-0.6746
250	-0.5892	-0.2667	0.0468	-0.317	0.5598	0.3847	1.1616	0.905	0.4215	1.0811	0.7879	1.0383	1.4775	0.7405	-0.7023	-0.1053	-0.3834	-0.1761	0.0212	0.3035	0.5531	0.4313	0.7097	1.2506	1.3132	1.625	2.1198	1.515	-0.6768	-0.7247
253.9062	-0.6712	-0.3361	0.0146	-0.4183	0.432	0.3027	1.1595	0.9088	0.5127	1.1206	0.8465	1.1023	1.4361	0.6045	-0.7671	-0.2117	-0.4562	-0.2263	-0.0794	0.151	0.3623	0.3131	0.5592	1.1884	1.268	1.6498	2.1549	1.5658	-0.7277	-0.7841
257.8125	-0.7512	-0.3957	0.004	-0.5223	0.2986	0.228	1.1519	0.9167	0.6033	1.1478	0.8862	1.1422	1.3934	0.4784	-0.8322	-0.3238	-0.5382	-0.2813	-0.1855	-0.0066	0.1771	0.1849	0.4062	1.1162	1.2102	1.6456	2.1661	1.5886	-0.7781	-0.8438
261.7188	-0.822	-0.4465	0.0141	-0.6285	0.1616	0.1537	1.1296	0.9183	0.6747	1.1521	0.8965	1.1509	1.3492	0.3732	-0.8893	-0.4335	-0.6223	-0.3369	-0.2892	-0.1585	0.0127	0.0553	0.2618	1.0403	1.1423	1.6123	2.1508	1.5802	-0.8217	-0.8954
265.625	-0.8757	-0.4873	0.0426	-0.7333	0.0247	0.0746	1.0868	0.9053	0.7132	1.1276	0.8728	1.1264	1.3028	0.2964	-0.9307	-0.5312	-0.701	-0.3888	-0.3836	-0.2938	-0.1188	-0.0685	0.1349	0.9664	1.0682	1.554	2.1094	1.5423	-0.8525	-0.9316
269.5312	-0.9046	-0.5145	0.086	-0.8303	-0.1068	-0.0112	1.0227	0.8736	0.7122	1.074	0.8172	1.0719	1.2536	0.2506	-0.9503	-0.6074	-0.7669	-0.4334	-0.4632	-0.4028	-0.2103	-0.1814	0.0311	0.8984	0.9927	1.4785	2.0454	1.4803	-0.8651	-0.948
273.4375	-0.9026	-0.5238	0.1391	-0.9119	-0.2263	-0.1024	0.9414	0.8248	0.6737	0.9965	0.7376	0.9957	1.2012	0.233	-0.9443	-0.6544	-0.8141	-0.4672	-0.5244	-0.4788	-0.2603	-0.2805	-0.0474	0.8384	0.9217	1.3963	1.9648	1.4034	-0.8557	-0.9429
277.3438	-0.8672	-0.5111	0.1955	-0.9706	-0.3273	-0.1957	0.8513	0.7651	0.6066	0.9049	0.6462	0.9089	1.1464	0.2367	-0.9124	-0.668	-0.8388	-0.4883	-0.5657	-0.5192	-0.2734	-0.3648	-0.1021	0.7873	0.8604	1.3185	1.8757	1.3223	-0.8236	-0.9175
281.25	-0.8005	-0.4756	0.2467	-1.002	-0.4049	-0.2871	0.7624	0.7038	0.5239	0.8112	0.5567	0.824	1.0911	0.2515	-0.8584	-0.6495	-0.8406	-0.4963	-0.5885	-0.5264	-0.2593	-0.4353	-0.1372	0.744	0.813	1.2551	1.7871	1.2478	-0.7716	-0.8765
285.1562	-0.7105	-0.4212	0.2828	-1.0062	-0.4578	-0.3744	0.6844	0.6501	0.4399	0.7275	0.4817	0.7523	1.0384	0.2658	-0.7905	-0.6058	-0.8234	-0.4932	-0.5973	-0.5086	-0.2318	-0.4949	-0.1592	0.7066	0.781	1.2128	1.7076	1.1887	-0.707	-0.8272
289.0625	-0.6104	-0.3569	0.2934	-0.989	-0.4887	-0.4575	0.6247	0.6112	0.3672	0.6635	0.4306	0.7024	0.9919	0.2686	-0.7203	-0.5498	-0.7952	-0.4837	-0.5994	-0.4783	-0.2067	-0.5483	-0.1767	0.6724	0.7632	1.1941	1.6444	1.1508	-0.641	-0.7791
292.9688	-0.5172	-0.2962	0.2689	-0.9615	-0.5041	-0.5384	0.5867	0.5904	0.3153	0.6256	0.4085	0.679	0.955	0.2512	-0.6618	-0.4975	-0.7671	-0.4745	-0.6042	-0.4508	-0.1989	-0.6005	-0.198	0.6388	0.7557	1.1971	1.6019	1.1364	-0.5875	-0.7425
296.875	-0.4485	-0.2543	0.2029	-0.9375	-0.5131	-0.62	0.5703	0.5874	0.2896	0.6158	0.4159	0.6821	0.9301	0.2092	-0.6287	-0.4658	-0.7515	-0.4733	-0.6209	-0.4416	-0.2201	-0.6563	-0.2306	0.604	0.7533	1.2159	1.5816	1.1437	-0.5605	-0.7268
300.7812	-0.4194	-0.2454	0.0942	-0.9312	-0.525	-0.704	0.5718	0.5992	0.2916	0.6321	0.4491	0.7078	0.9184	0.1429	-0.6321	-0.469	-0.7596	-0.4872	-0.657	-0.4628	-0.2762	-0.718	-0.2785	0.5674	0.7503	1.2426	1.5813	1.1678	-0.5714	-0.7389
304.6875	-0.4396	-0.2792	-0.0523	-0.9531	-0.5467	-0.789	0.5852	0.621	0.3187	0.6686	0.5012	0.7481	0.9186	0.0574	-0.6781	-0.5154	-0.7994	-0.5206	-0.7161	-0.5207	-0.3661	-0.7848	-0.3419	0.5301	0.7426	1.268	1.5956	1.201	-0.6265	-0.7812
308.5938	-0.5114	-0.3585	-0.2253	-1.0077	-0.5811	-0.87	0.6036	0.6482	0.3659	0.7169	0.5626	0.7933	0.9279	-0.0384	-0.7665	-0.6059	-0.8735	-0.5742	-0.7969	-0.6146	-0.4825	-0.852	-0.4164	0.4944	0.7279	1.2839	1.6166	1.2342	-0.7254	-0.8516
312.5	-0.6286	-0.4783	-0.4084	-1.0924	-0.6267	-0.9387	0.6198	0.6767	0.4256	0.7668	0.6228	0.8324	0.9413	-0.1344	-0.8902	-0.7335	-0.9786	-0.6445	-0.893	-0.736	-0.613	-0.9124	-0.4935	0.463	0.7064	1.2839	1.6346	1.2577	-0.8605	-0.9428
316.4062	-0.7776	-0.6264	-0.5824	-1.1975	-0.6776	-0.9854	0.6273	0.7029	0.4884	0.8077	0.6711	0.8554	0.9525	-0.2213	-1.0359	-0.8842	-1.1052	-0.7241	-0.9937	-0.871	-0.7433	-0.9573	-0.5625	0.438	0.6797	1.2642	1.6397	1.2629	-1.0182	-1.0439
320.3125	-0.9398	-0.7852	-0.7291	-1.3088	-0.7257	-1.0015	0.6211	0.7237	0.5449	0.83	0.6982	0.8546	0.9546	-0.293	-1.1865	-1.0396	-1.2396	-0.803	-1.0864	-1.0021	-0.8601	-0.9786	-0.6127	0.4204	0.6507	1.2237	1.6228	1.2431	-1.1808	-1.1419
324.2188	-1.095	-0.935	-0.8346	-1.4102	-0.7625	-0.982	0.5979	0.7361	0.5862	0.8268	0.6976	0.8255	0.941	-0.3479	-1.3236	-1.1805	-1.3657	-0.87	-1.1583	-1.1119	-0.9532	-0.971	-0.6353	0.4088	0.6218	1.1642	1.5773	1.1952	-1.3297	-1.2242
328.125	-1.2244	-1.0576	-0.8922	-1.487	-0.7809	-0.9269	0.5571	0.7362	0.6056	0.7946	0.6672	0.7681	0.9071	-0.3881	-1.4308	-1.2894	-1.4673	-0.9148	-1.1987	-1.1859	-1.0171	-0.9326	-0.6251	0.4011	0.5954	1.0902	1.5004	1.1201	-1.4481	-1.2801
332.0312	-1.3137	-1.1392	-0.9024	-1.5279	-0.7772	-0.8423	0.5005	0.7204	0.5999	0.7351	0.6101	0.6869	0.8511	-0.4187	-1.4962	-1.3537	-1.5313	-0.9297	-1.2005	-1.2146	-1.0504	-0.8655	-0.5812	0.3944	0.5728	1.0084	1.3943	1.0234	-1.5239	-1.3027
335.9375	-1.3545	-1.1728	-0.8728	-1.5272	-0.7508	-0.7391	0.4326	0.6853	0.5696	0.6543	0.5344	0.5899	0.7752	-0.445	-1.5137	-1.3669	-1.5491	-0.9107	-1.1613	-1.1947	-1.0553	-0.7745	-0.5069	0.3873	0.5554	0.9271	1.2665	0.9147	-1.5508	-1.2897
339.8438	-1.3452	-1.159	-0.815	-1.485	-0.7049	-0.6309	0.3594	0.6293	0.5187	0.5622	0.4522	0.4876	0.6855	-0.4702	-1.4843	-1.3295	-1.5178	-0.8577	-1.0836	-1.1293	-1.0356	-0.667	-0.4088	0.38	0.5439	0.8555	1.1292	0.8066	-1.5293	-1.243
343.75	-1.2907	-1.1057	-0.742	-1.4074	-0.646	-0.5316	0.2879	0.5532	0.4534	0.4701	0.3766	0.3904	0.5912	-0.4945	-1.4147	-1.2481	-1.4412	-0.7751	-0.9742	-1.0266	-0.9961	-0.5511	-0.2964	0.3747	0.5383	0.8018	0.9975	0.7121	-1.4659	-1.1687
347.6562	-1.2009	-1.0254	-0.6657	-1.3049	-0.5821	-0.4529	0.2246	0.4613	0.3814	0.3889	0.3188	0.3076	0.5028	-0.5142	-1.3159	-1.134	-1.3282	-0.6706	-0.8439	-0.8985	-0.941	-0.4357	-0.1807	0.375	0.5385	0.7719	0.8865	0.6423	-1.3715	-1.0754
351.5625	-1.0888	-0.9328	-0.5948	-1.1906	-0.5217	-0.402	0.1747	0.3615	0.3105	0.3272	0.2863	0.2453	0.4304	-0.5228	-1.2011	-1.0011	-1.1915	-0.5541	-0.7054	-0.7584	-0.8736	-0.3291	-0.0731	0.3844	0.5434	0.7682	0.8086	0.6047	-1.2587	-0.9729
355.4688	-0.9677	-0.8415	-0.5337	-1.0769	-0.4715	-0.3802	0.1416	0.2646	0.2481	0.2895	0.2807	0.2064	0.3819	-0.5125	-1.0829	-0.8634	-1.0457	-0.4361	-0.5719	-0.6193	-0.796	-0.2387	0.0155	0.4055	0.5517	0.7889	0.7713	0.601	-1.1398	-0.8705
359.375	-0.8489	-0.7609	-0.4827	-0.9742	-0.4352	-0.3831	0.1266	0.183	0.2007	0.2767	0.2989	0.1908	0.3617	-0.4766	-0.9713	-0.7329	-0.9041	-0.3265	-0.4544	-0.4911	-0.7092	-0.1699	0.0768	0.4384	0.5617	0.8282	0.7752	0.6279	-1.0238	-0.7751
363.2812	-0.7402	-0.6956	-0.4382	-0.8881	-0.4123	-0.4012	0.129	0.1284	0.1732	0.286	0.3337	0.1961	0.3696	-0.4109	-0.8727	-0.6175	-0.777	-0.2324	-0.3608	-0.3802	-0.6139	-0.126	0.1061	0.4805	0.5719	0.8771	0.8141	0.6766	-0.9159	-0.6907
367.1875	-0.6449	-0.6443	-0.3942	-0.8196	-0.3987	-0.4224	0.1467	0.1094	0.1688	0.3126	0.3767	0.2188	0.4014	-0.3157	-0.7888	-0.5201	-0.6704	-0.1583	-0.2945	-0.2878	-0.5108	-0.1073	0.1031	0.5266	0.5807	0.9246	0.8763	0.7358	-0.8169	-0.6179
371.0938	-0.5618	-0.6009	-0.3437	-0.7647	-0.387	-0.4343	0.177	0.1297	0.1889	0.3507	0.4207	0.2545	0.4495	-0.1963	-0.7174	-0.4388	-0.5855	-0.1055	-0.2546	-0.2112	-0.4016	-0.1115	0.0724	0.5701	0.5867	0.96	0.9463	0.7925	-0.7247	-0.5546
375	-0.4866	-0.5567	-0.2809	-0.716	-0.3692	-0.4267	0.2167	0.1876	0.233	0.3951	0.4609	0.299	0.5046	-0.0623	-0.6537	-0.3682	-0.5196	-0.0731	-0.2365	-0.1448	-0.2893	-0.1334	0.0222	0.604	0.5888	0.9744	1.0081	0.835	-0.6353	-0.4976
378.9062	-0.4133	-0.5027	-0.2027	-0.6646	-0.338	-0.3938	0.2635	0.2764	0.2991	0.442	0.4959	0.3481	0.5573	0.0735	-0.5916	-0.3011	-0.4675	-0.0583	-0.2333	-0.082	-0.1784	-0.1663	-0.0371	0.6226	0.5855	0.9616	1.0482	0.8542	-0.5455	-0.4434
382.8125	-0.3368	-0.4319	-0.11	-0.6028	-0.289	-0.335	0.3154	0.3859	0.3836	0.4891	0.5268	0.3977	0.6002	0.197	-0.5266	-0.2316	-0.4235	-0.0573	-0.2375	-0.0181	-0.0747	-0.2026	-0.0956	0.6219	0.5753	0.9187	1.0571	0.8443	-0.4541	-0.3903
386.7188	-0.2543	-0.3417	-0.0083	-0.5263	-0.2219	-0.2551	0.3708	0.5039	0.4809	0.5352	0.5558	0.4437	0.6285	0.2957	-0.4567	-0.1571	-0.3831	-0.0662	-0.243	0.0485	0.0149	-0.236	-0.1455	0.6004	0.5563	0.8468	1.0309	0.8037	-0.3629	-0.3384
390.625	-0.1675	-0.2353	0.0935	-0.4359	-0.1405	-0.1631	0.4279	0.6185	0.5837	0.5792	0.5845	0.4822	0.6401	0.3598	-0.3838	-0.0794	-0.3444	-0.0814	-0.2458	0.1147	0.0839	-0.2621	-0.1826	0.5587	0.5274	0.7505	0.9717	0.7351	-0.2769	-0.2903
394.5312	-0.082	-0.1206	0.1847	-0.337	-0.0526	-0.0701	0.4843	0.7188	0.6825	0.6195	0.6128	0.51	0.6359	0.3847	-0.3134	-0.0049	-0.3086	-0.1002	-0.2449	0.1742	0.127	-0.2794	-0.2067	0.5001	0.4887	0.6383	0.8867	0.6452	-0.2032	-0.2503
398.4375	-0.0066	-0.0094	0.2551	-0.2394	0.0322	0.0124	0.5365	0.7957	0.7667	0.6538	0.6387	0.525	0.6188	0.3712	-0.253	0.0572	-0.2794	-0.1216	-0.2413	0.218	0.1412	-0.289	-0.2202	0.4297	0.4422	0.521	0.7868	0.5437	-0.149	-0.223
402.3438	0.0493	0.0858	0.2974	-0.1544	0.104	0.0751	0.5807	0.8422	0.8256	0.6789	0.6588	0.5264	0.5932	0.3253	-0.2104	0.0973	-0.2613	-0.1456	-0.2373	0.238	0.1265	-0.2933	-0.2265	0.3543	0.3917	0.411	0.6854	0.4424	-0.1198	-0.212
406.25	0.0787	0.1547	0.3088	-0.0922	0.1548	0.1128	0.6128	0.8538	0.8498	0.6917	0.6688	0.5151	0.5639	0.2569	-0.1906	0.1084	-0.258	-0.1727	-0.235	0.2288	0.0864	-0.2945	-0.228	0.2816	0.3428	0.3196	0.5953	0.3527	-0.1171	-0.2182
410.1562	0.0789	0.1917	0.2914	-0.0598	0.1797	0.1247	0.6291	0.8284	0.8333	0.6893	0.6644	0.4929	0.5349	0.1777	-0.1942	0.0884	-0.2703	-0.2029	-0.2353	0.1895	0.0267	-0.2936	-0.2251	0.219	0.3009	0.2548	0.5268	0.2835	-0.1379	-0.2389
414.0625	0.0533	0.1971	0.252	-0.0587	0.1781	0.1146	0.6264	0.7661	0.7739	0.6691	0.642	0.462	0.5082	0.0978	-0.2167	0.0411	-0.2958	-0.2343	-0.2374	0.1242	-0.0448	-0.2899	-0.2161	0.172	0.2708	0.2198	0.4851	0.2392	-0.1741	-0.2682
417.9688	0.0105	0.1775	0.2014	-0.0851	0.1532	0.0892	0.6021	0.67	0.6741	0.629	0.5989	0.424	0.4831	0.0245	-0.2491	-0.0242	-0.3286	-0.2628	-0.2392	0.0418	-0.1199	-0.2809	-0.198	0.1434	0.2547	0.2118	0.4695	0.2191	-0.2148	-0.2977
421.875	-0.0369	0.1437	0.1525	-0.1299	0.1117	0.0568	0.5547	0.546	0.5409	0.568	0.5346	0.3802	0.4559	-0.0399	-0.2797	-0.0946	-0.3606	-0.2826	-0.2377	-0.0466	-0.1915	-0.2637	-0.1679	0.1323	0.2524	0.2239	0.4738	0.2175	-0.2475	-0.3183
425.7812	-0.0751	0.1081	0.1182	-0.1808	0.0622	0.0255	0.484	0.4034	0.385	0.4866	0.4511	0.3315	0.4211	-0.0972	-0.2967	-0.1563	-0.3827	-0.2872	-0.2297	-0.129	-0.2545	-0.2354	-0.1241	0.1345	0.261	0.2463	0.4879	0.2258	-0.2609	-0.3221
429.6875	-0.0915	0.0822	0.1093	-0.2247	0.0139	0.0021	0.3924	0.2542	0.2203	0.3876	0.3532	0.2793	0.373	-0.1526	-0.2904	-0.1972	-0.3874	-0.271	-0.213	-0.1955	-0.3061	-0.1947	-0.067	0.1437	0.2765	0.269	0.5001	0.2344	-0.2465	-0.3033
433.5938	-0.078	0.074	0.1321	-0.2504	-0.0251	-0.0094	0.2851	0.1119	0.0619	0.2767	0.2491	0.2254	0.3073	-0.2119	-0.2554	-0.2095	-0.3698	-0.2311	-0.1861	-0.2395	-0.3458	-0.142	0.0006	0.1527	0.2938	0.2839	0.5001	0.235	-0.2005	-0.2594
437.5	-0.0315	0.0868	0.1881	-0.251	-0.0493	-0.0075	0.1701	-0.0102	-0.0755	0.1623	0.1491	0.1728	0.2231	-0.279	-0.1913	-0.191	-0.3286	-0.1687	-0.1496	-0.2589	-0.3748	-0.0803	0.0741	0.1547	0.3079	0.2857	0.4803	0.2219	-0.1241	-0.1919
441.4062	0.0455	0.1194	0.2734	-0.2251	-0.056	0.0067	0.0577	-0.101	-0.1795	0.0541	0.0638	0.1248	0.1238	-0.3542	-0.1023	-0.1448	-0.2665	-0.0895	-0.1058	-0.2557	-0.3946	-0.0145	0.1472	0.145	0.3142	0.2723	0.4379	0.1928	-0.0228	-0.1056
445.3125	0.1463	0.1673	0.3797	-0.1765	-0.0456	0.0306	-0.0414	-0.1537	-0.2428	-0.0379	0.0025	0.0851	0.0168	-0.4327	0.0035	-0.0786	-0.1895	-0.0026	-0.0588	-0.2345	-0.4062	0.0493	0.2131	0.1218	0.3092	0.2444	0.375	0.1494	0.0942	-0.0079
449.2188	0.2615	0.2243	0.4966	-0.1125	-0.0208	0.0606	-0.1183	-0.1668	-0.2641	-0.1058	-0.0295	0.0562	-0.0875	-0.5058	0.1165	-0.0019	-0.1058	0.0815	-0.0132	-0.2017	-0.409	0.1047	0.2653	0.0863	0.2905	0.2047	0.2979	0.0959	0.2157	0.0923
453.125	0.3809	0.2839	0.6131	-0.0425	0.0141	0.0925	-0.1671	-0.145	-0.2493	-0.1458	-0.0324	0.0393	-0.178	-0.562	0.2264	0.0754	-0.0242	0.1535	0.0263	-0.1633	-0.4015	0.1462	0.2986	0.0426	0.2572	0.1573	0.216	0.0387	0.3305	0.1863
457.0312	0.4953	0.3407	0.7194	0.0245	0.054	0.1223	-0.1872	-0.098	-0.2103	-0.159	-0.0119	0.0339	-0.2453	-0.5903	0.3247	0.1455	0.048	0.2073	0.0562	-0.1237	-0.381	0.1699	0.3098	-0.0033	0.2103	0.1068	0.1398	-0.015	0.4291	0.2669
460.9375	0.5976	0.3907	0.8085	0.0819	0.0938	0.1464	-0.1823	-0.0386	-0.1626	-0.151	0.0216	0.0378	-0.2833	-0.5826	0.4053	0.2038	0.1061	0.2414	0.075	-0.085	-0.3447	0.1748	0.2982	-0.045	0.153	0.0581	0.0792	-0.0586	0.5051	0.3292
464.8438	0.6836	0.432	0.8769	0.1266	0.1304	0.1623	-0.1594	0.02	-0.1226	-0.1303	0.0557	0.048	-0.2902	-0.5357	0.4655	0.2498	0.1492	0.2582	0.0839	-0.0461	-0.2906	0.1622	0.2665	-0.0762	0.0904	0.016	0.042	-0.0872	0.5563	0.3715
468.75	0.7521	0.4649	0.9249	0.1595	0.1623	0.1691	-0.1266	0.066	-0.1035	-0.106	0.0791	0.0611	-0.2681	-0.452	0.506	0.2864	0.18	0.2637	0.0861	-0.0042	-0.2177	0.1368	0.2204	-0.0923	0.0291	-0.0155	0.0328	-0.0981	0.5839	0.3946
472.6562	0.8043	0.4922	0.9559	0.1851	0.191	0.1679	-0.0912	0.0915	-0.1132	-0.0855	0.0841	0.0732	-0.2222	-0.339	0.5299	0.3191	0.2035	0.2654	0.0869	0.0454	-0.1266	0.1054	0.1681	-0.0906	-0.0238	-0.0334	0.0521	-0.0916	0.5925	0.4015
476.5625	0.843	0.5188	0.975	0.2102	0.2197	0.1616	-0.0583	0.0925	-0.153	-0.0737	0.0679	0.0809	-0.1596	-0.2083	0.542	0.3543	0.2264	0.2708	0.0927	0.1071	-0.0201	0.0772	0.1199	-0.0708	-0.0615	-0.0365	0.0964	-0.0712	0.5882	0.3959
480.4688	0.8718	0.5513	0.9881	0.2422	0.2527	0.1539	-0.0301	0.0692	-0.2181	-0.0718	0.0329	0.0807	-0.088	-0.0728	0.5482	0.398	0.255	0.2861	0.1103	0.1843	0.0971	0.062	0.0865	-0.035	-0.0789	-0.0256	0.1582	-0.0433	0.5774	0.3826
484.375	0.8947	0.5967	1.0001	0.2876	0.294	0.1487	-0.0071	0.0255	-0.2994	-0.0788	-0.0152	0.069	-0.0147	0.0549	0.5544	0.4549	0.2953	0.3154	0.1458	0.2786	0.2191	0.0691	0.0778	0.0131	-0.0736	-0.0038	0.227	-0.0158	0.566	0.3662
488.2812	0.9159	0.662	1.015	0.351	0.3464	0.1491	0.0117	-0.0323	-0.3852	-0.0919	-0.0687	0.0434	0.0539	0.165	0.5665	0.5279	0.3516	0.3603	0.2045	0.3896	0.3394	0.1061	0.1012	0.0684	-0.0468	0.0234	0.2908	0.0024	0.5585	0.3514
492.1875	0.9405	0.752	1.0358	0.434	0.4112	0.1573	0.0273	-0.0956	-0.4643	-0.1082	-0.1204	0.0024	0.1134	0.2523	0.5899	0.6187	0.427	0.4205	0.2899	0.5153	0.4534	0.1771	0.1602	0.1255	-0.003	0.0492	0.338	0.0039	0.5587	0.3429
496.0938	0.9738	0.8688	1.0647	0.5357	0.4884	0.1747	0.0405	-0.1548	-0.5276	-0.1249	-0.1647	-0.0531	0.1612	0.3165	0.6295	0.7272	0.5228	0.4939	0.4031	0.6526	0.5584	0.2827	0.2541	0.1793	0.0506	0.0666	0.3599	-0.0157	0.5691	0.3451
500	1.0201	1.01	1.1025	0.6521	0.5766	0.2017	0.0517	-0.2005	-0.5697	-0.1403	-0.1986	-0.1196	0.1968	0.3617	0.6882	0.8516	0.6384	0.5777	0.5422	0.7972	0.6544	0.4189	0.3775	0.2257	0.1053	0.0696	0.352	-0.0572	0.5918	0.3619
503.9062	1.082	1.1677	1.1482	0.7764	0.6724	0.2375	0.06	-0.2252	-0.5897	-0.1539	-0.2215	-0.1917	0.2208	0.3939	0.7666	0.9874	0.7702	0.6682	0.7018	0.943	0.7428	0.5772	0.5212	0.2616	0.1525	0.0546	0.3153	-0.1167	0.6274	0.3957
507.8125	1.1583	1.329	1.1984	0.8984	0.7703	0.2795	0.0637	-0.2253	-0.5908	-0.1665	-0.2354	-0.2624	0.234	0.4186	0.8618	1.1273	0.9119	0.7616	0.8726	1.0822	0.8246	0.7459	0.6731	0.285	0.1855	0.0214	0.2553	-0.187	0.6754	0.4468
511.7188	1.2435	1.477	1.2476	1.0064	0.8622	0.3237	0.0602	-0.2015	-0.5795	-0.1801	-0.244	-0.3248	0.2366	0.4381	0.9675	1.2609	1.054	0.8537	1.0426	1.205	0.8988	0.9108	0.8197	0.295	0.2002	-0.0265	0.1819	-0.2582	0.7337	0.5131
515.625	1.3288	1.5948	1.2892	1.0885	0.939	0.3643	0.0464	-0.1588	-0.5638	-0.1971	-0.2516	-0.3728	0.2283	0.4514	1.0746	1.3766	1.1857	0.9409	1.1985	1.3017	0.9616	1.0581	0.9483	0.2924	0.1962	-0.0822	0.1074	-0.3195	0.7986	0.5898
519.5312	1.4038	1.6689	1.3174	1.1357	0.9922	0.3956	0.0205	-0.1052	-0.5508	-0.2194	-0.262	-0.4017	0.2087	0.4544	1.1736	1.4637	1.2965	1.0197	1.3283	1.3638	1.0078	1.1765	1.049	0.2795	0.1767	-0.1365	0.0444	-0.3608	0.8658	0.6707
523.4375	1.4591	1.6927	1.3286	1.1438	1.0158	0.413	-0.0175	-0.0497	-0.5453	-0.247	-0.277	-0.4092	0.1785	0.4419	1.2561	1.515	1.3787	1.0878	1.4236	1.3872	1.032	1.2595	1.1165	0.2609	0.1476	-0.1797	0.0042	-0.3745	0.9307	0.7485
527.3438	1.4883	1.6682	1.3224	1.1151	1.0088	0.414	-0.0645	-0.0007	-0.5488	-0.2779	-0.2962	-0.3949	0.1403	0.4107	1.3165	1.5282	1.4291	1.1436	1.4817	1.3728	1.0311	1.3066	1.1509	0.2428	0.1162	-0.2029	-0.005	-0.3559	0.9892	0.8166
531.25	1.4899	1.6057	1.3014	1.0579	0.9752	0.3994	-0.1146	0.0356	-0.5589	-0.3076	-0.3165	-0.3604	0.099	0.3613	1.3529	1.5073	1.4496	1.1863	1.5053	1.3276	1.0061	1.3232	1.1577	0.2323	0.0901	-0.1995	0.0211	-0.3044	1.0378	0.8693
535.1562	1.467	1.5214	1.2704	0.9854	0.9242	0.3726	-0.1594	0.0558	-0.5705	-0.3297	-0.3325	-0.3084	0.0614	0.2995	1.3669	1.4614	1.4463	1.2158	1.5016	1.2637	0.9629	1.3188	1.1459	0.2366	0.076	-0.1658	0.0829	-0.2223	1.074	0.903
539.0625	1.4263	1.4342	1.2357	0.9123	0.8677	0.3393	-0.19	0.0596	-0.5767	-0.3371	-0.3374	-0.2425	0.0357	0.2366	1.3622	1.4032	1.4278	1.2324	1.4808	1.196	0.9117	1.3046	1.1259	0.2613	0.0788	-0.1008	0.1769	-0.1145	1.0964	0.9158
542.9688	1.3769	1.361	1.2028	0.8522	0.818	0.3061	-0.1985	0.049	-0.5712	-0.3235	-0.3247	-0.1664	0.0296	0.1866	1.3439	1.346	1.4033	1.2365	1.4527	1.1393	0.8655	1.2907	1.1067	0.3097	0.1008	-0.0067	0.2965	0.0122	1.1042	0.9081
546.875	1.3281	1.3142	1.1761	0.8144	0.7844	0.2785	-0.1805	0.0281	-0.55	-0.2856	-0.29	-0.0842	0.0485	0.1643	1.3172	1.3015	1.3799	1.2285	1.4253	1.1055	0.8367	1.2837	1.094	0.3809	0.1415	0.1113	0.4323	0.1498	1.098	0.882
550.7812	1.2875	1.2993	1.1568	0.8019	0.7713	0.2601	-0.1366	0.0012	-0.5134	-0.2246	-0.2333	-0.0006	0.0939	0.1807	1.2865	1.2773	1.3616	1.2091	1.4031	1.1013	0.8352	1.2853	1.0888	0.4697	0.1972	0.2447	0.5728	0.2889	1.0791	0.8412
554.6875	1.2606	1.3142	1.1434	0.8112	0.7772	0.2512	-0.0729	-0.0273	-0.4657	-0.1467	-0.1596	0.0785	0.1629	0.2413	1.255	1.2762	1.3491	1.1789	1.3869	1.1271	0.8657	1.2926	1.0881	0.5669	0.2613	0.3822	0.7052	0.4189	1.0495	0.7906
558.5938	1.25	1.351	1.1322	0.8337	0.7961	0.2492	0.0001	-0.0543	-0.415	-0.0624	-0.0786	0.1466	0.2485	0.3442	1.2252	1.2962	1.3405	1.1396	1.3745	1.1781	0.9273	1.2997	1.0861	0.6608	0.3249	0.51	0.8167	0.5289	1.0118	0.7359
562.5	1.2559	1.3982	1.1189	0.8588	0.8196	0.2504	0.0701	-0.0771	-0.3703	0.0163	-0.0027	0.1975	0.3415	0.4809	1.199	1.3322	1.3327	1.0929	1.3629	1.2459	1.0142	1.2999	1.077	0.7394	0.3783	0.6143	0.8968	0.6088	0.9689	0.6827
566.4062	1.2764	1.4442	1.1007	0.8771	0.84	0.2513	0.1258	-0.0943	-0.3392	0.0782	0.0561	0.2263	0.4324	0.6382	1.1777	1.3775	1.3234	1.0416	1.3495	1.321	1.1171	1.2889	1.0572	0.7931	0.4132	0.6836	0.939	0.6517	0.9236	0.6357
570.3125	1.3085	1.4799	1.0779	0.883	0.8525	0.2509	0.1597	-0.1052	-0.3266	0.1158	0.0888	0.2308	0.5134	0.8006	1.1625	1.4261	1.312	0.9895	1.3341	1.395	1.2251	1.266	1.0272	0.8168	0.4244	0.7114	0.943	0.6548	0.8784	0.5985
574.2188	1.349	1.5015	1.0545	0.8768	0.8568	0.251	0.1694	-0.1097	-0.3332	0.1262	0.0913	0.2118	0.58	0.9529	1.1547	1.4738	1.3004	0.9408	1.319	1.4621	1.3278	1.236	0.992	0.8113	0.4112	0.6977	0.9142	0.621	0.8358	0.5726
578.125	1.3952	1.5108	1.0377	0.8643	0.8567	0.2567	0.1579	-0.1092	-0.3563	0.1121	0.0651	0.1733	0.6303	1.0822	1.1556	1.5187	1.2925	0.9007	1.309	1.5196	1.4168	1.2075	0.9601	0.7824	0.3769	0.6484	0.8627	0.5576	0.7984	0.5581
582.0312	1.446	1.5147	1.0359	0.8557	0.8591	0.2749	0.1328	-0.1061	-0.3908	0.0801	0.0171	0.1213	0.665	1.1797	1.1663	1.5611	1.2932	0.8738	1.3096	1.5674	1.486	1.1913	0.941	0.7394	0.3283	0.574	0.8005	0.4748	0.7691	0.5542
585.9375	1.5012	1.5229	1.0562	0.8622	0.8713	0.3119	0.104	-0.1034	-0.4304	0.0394	-0.0427	0.0625	0.6864	1.2406	1.188	1.6026	1.3074	0.8642	1.3258	1.6076	1.5328	1.1974	0.9425	0.6928	0.2731	0.4864	0.739	0.3839	0.7509	0.5596
589.8438	1.5615	1.5445	1.1022	0.8934	0.8993	0.3713	0.0817	-0.1038	-0.4684	-0.0004	-0.1024	0.0034	0.6968	1.2649	1.2209	1.6451	1.3379	0.8744	1.36	1.643	1.5572	1.2318	0.9684	0.6512	0.2186	0.3973	0.6866	0.2945	0.747	0.573
593.75	1.6269	1.5851	1.172	0.9537	0.9452	0.4522	0.0743	-0.109	-0.4991	-0.0307	-0.151	-0.0506	0.6989	1.2566	1.2641	1.6897	1.3852	0.9044	1.4111	1.6761	1.562	1.295	1.0166	0.6203	0.1703	0.3159	0.6479	0.2147	0.7592	0.5936
597.6562	1.6956	1.6444	1.2575	1.0408	1.0066	0.5484	0.0865	-0.1192	-0.5188	-0.0456	-0.1802	-0.0956	0.6947	1.2231	1.3149	1.7356	1.4463	0.9517	1.4745	1.7078	1.5513	1.3805	1.0793	0.6019	0.1311	0.2486	0.6236	0.1496	0.7875	0.62
601.5625	1.7633	1.7155	1.3455	1.1452	1.0766	0.6485	0.1191	-0.1329	-0.5255	-0.0426	-0.1857	-0.1295	0.6862	1.1731	1.3689	1.7805	1.5154	1.0107	1.5423	1.7375	1.5298	1.476	1.1444	0.5941	0.1015	0.199	0.6118	0.1025	0.8291	0.6505
605.4688	1.8231	1.7863	1.4196	1.2516	1.145	0.738	0.168	-0.1475	-0.5205	-0.0229	-0.1676	-0.1512	0.6749	1.1156	1.4203	1.8198	1.5841	1.0732	1.6045	1.762	1.501	1.5655	1.1976	0.5923	0.0799	0.1684	0.6087	0.0749	0.8781	0.6825
609.375	1.8667	1.8414	1.4634	1.3413	1.2002	0.8014	0.2259	-0.1611	-0.5074	0.009	-0.1309	-0.1613	0.6619	1.0574	1.4618	1.8476	1.6424	1.1297	1.6506	1.7763	1.4664	1.632	1.2257	0.5906	0.0638	0.1558	0.6098	0.0665	0.9261	0.7119
613.2812	1.8859	1.8659	1.4637	1.3961	1.2309	0.8253	0.2824	-0.1731	-0.4923	0.0454	-0.0845	-0.1619	0.647	1.0017	1.4865	1.857	1.6802	1.1698	1.6708	1.7735	1.4244	1.6612	1.219	0.5829	0.05	0.1585	0.6108	0.0755	0.9632	0.7343
617.1875	1.8743	1.8479	1.4128	1.4017	1.2281	0.8003	0.3262	-0.1849	-0.4825	0.0773	-0.04	-0.156	0.6288	0.9481	1.4881	1.8417	1.6889	1.1844	1.658	1.7466	1.3708	1.6441	1.1739	0.5644	0.0359	0.1729	0.6079	0.0987	0.9799	0.745
621.0938	1.8292	1.7815	1.3101	1.3504	1.1871	0.7239	0.3472	-0.1997	-0.4846	0.0954	-0.0089	-0.1476	0.6052	0.8932	1.4632	1.7971	1.6632	1.167	1.6094	1.6901	1.3006	1.5793	1.0936	0.5327	0.0201	0.1948	0.5988	0.1318	0.969	0.7404
625	1.7526	1.6684	1.1627	1.2436	1.1086	0.6007	0.3386	-0.2209	-0.5029	0.0932	-0.0006	-0.1402	0.5741	0.8325	1.4117	1.7225	1.603	1.1153	1.5272	1.602	1.2101	1.4737	0.9879	0.4885	0.0027	0.2206	0.5836	0.1702	0.9278	0.7192
628.9062	1.651	1.5174	0.9844	1.0908	0.9989	0.4421	0.2991	-0.2508	-0.5375	0.0683	-0.0192	-0.1361	0.5356	0.7639	1.3381	1.622	1.5138	1.0321	1.4197	1.486	1.0996	1.3415	0.8718	0.4364	-0.014	0.2488	0.5646	0.2106	0.8586	0.6828
632.8125	1.5348	1.3437	0.793	0.9089	0.8696	0.2648	0.2339	-0.2889	-0.5841	0.024	-0.0626	-0.1354	0.4925	0.6888	1.2511	1.505	1.407	0.9251	1.2999	1.3513	0.9753	1.2023	0.7624	0.3842	-0.0262	0.28	0.547	0.2512	0.7691	0.6351
636.7188	1.4162	1.1656	0.6075	0.7179	0.7352	0.087	0.1537	-0.3322	-0.6344	-0.031	-0.1222	-0.1357	0.451	0.6133	1.1619	1.3848	1.298	0.8059	1.184	1.2121	0.8488	1.0775	0.6769	0.3417	-0.0293	0.3168	0.538	0.2926	0.6707	0.5823
640.625	1.3071	1.0011	0.4438	0.5378	0.6105	-0.0746	0.0731	-0.3751	-0.6782	-0.0846	-0.1853	-0.1331	0.419	0.5474	1.0824	1.2762	1.2032	0.6881	1.0885	1.0847	0.736	0.9865	0.6291	0.3189	-0.019	0.3629	0.5451	0.3372	0.5762	0.5316
644.5312	1.2173	0.8649	0.312	0.3844	0.5083	-0.2083	0.0073	-0.4106	-0.7055	-0.124	-0.2373	-0.1228	0.4049	0.5029	1.0227	1.1927	1.1371	0.585	1.0272	0.9849	0.6538	0.9429	0.6273	0.3241	0.0076	0.4212	0.5741	0.3877	0.4973	0.4898
648.4375	1.1525	0.7657	0.2156	0.2672	0.4374	-0.3087	-0.0308	-0.4322	-0.7089	-0.1379	-0.2652	-0.1008	0.4158	0.491	0.9892	1.1439	1.1087	0.5071	1.0082	0.9244	0.6168	0.9522	0.6729	0.3615	0.0511	0.4928	0.6281	0.446	0.4423	0.4622
652.3438	1.1143	0.7055	0.1511	0.1884	0.4016	-0.377	-0.0331	-0.4347	-0.685	-0.1192	-0.2598	-0.0645	0.4552	0.5196	0.9828	1.1332	1.1202	0.4606	1.0327	0.909	0.6342	1.0107	0.7597	0.4308	0.1096	0.5759	0.7058	0.5121	0.4145	0.4517
656.25	1.1001	0.6803	0.1106	0.1448	0.4001	-0.4192	0.0029	-0.4164	-0.6353	-0.0663	-0.2179	-0.0137	0.5234	0.5916	0.9996	1.1584	1.166	0.4462	1.0944	0.9379	0.7081	1.1064	0.8756	0.5265	0.1784	0.6654	0.8019	0.5837	0.4121	0.4579
660.1562	1.1046	0.6829	0.0842	0.1299	0.4291	-0.4436	0.0739	-0.3789	-0.5656	0.0175	-0.1419	0.0498	0.6165	0.7044	1.0315	1.2121	1.2347	0.4593	1.1807	1.0047	0.8327	1.2219	1.004	0.6395	0.2515	0.7541	0.9083	0.656	0.4285	0.4772
664.0625	1.1216	0.7046	0.0634	0.1368	0.4831	-0.4581	0.1722	-0.3273	-0.485	0.1244	-0.0397	0.122	0.7283	0.8501	1.0687	1.284	1.3118	0.4913	1.276	1.099	0.9957	1.3381	1.1281	0.7588	0.3221	0.8338	1.0151	0.7233	0.4542	0.5036
667.9688	1.1452	0.7381	0.0426	0.1604	0.556	-0.4676	0.2873	-0.2692	-0.4038	0.2437	0.0771	0.1977	0.8509	1.0164	1.1016	1.3633	1.3828	0.5318	1.365	1.2089	1.1804	1.4386	1.2337	0.8737	0.3849	0.8978	1.1132	0.7802	0.4792	0.5297
671.875	1.1712	0.7786	0.0202	0.198	0.6424	-0.4739	0.4076	-0.2134	-0.332	0.3637	0.1954	0.2709	0.9758	1.1888	1.1231	1.4408	1.4371	0.5706	1.4362	1.3233	1.3686	1.5127	1.3124	0.9766	0.4366	0.9426	1.1956	0.823	0.4951	0.5487
675.7812	1.1971	0.8235	-0.0014	0.2487	0.7371	-0.4749	0.5226	-0.1674	-0.2776	0.4736	0.3019	0.336	1.095	1.3522	1.1295	1.5103	1.4693	0.6002	1.4843	1.4338	1.5434	1.5578	1.3625	1.0639	0.4776	0.9689	1.259	0.8511	0.4971	0.5554
679.6875	1.2225	0.8728	-0.0169	0.3125	0.8361	-0.4661	0.6242	-0.136	-0.2452	0.5646	0.3857	0.3887	1.2024	1.4941	1.1218	1.5694	1.481	0.6174	1.5115	1.5355	1.6923	1.5789	1.3895	1.1368	0.5113	0.9823	1.3043	0.8669	0.485	0.5479
683.5938	1.2483	0.9282	-0.0191	0.3901	0.9366	-0.4413	0.7088	-0.1194	-0.235	0.6321	0.44	0.4267	1.2944	1.6063	1.1047	1.6194	1.4801	0.6247	1.5267	1.628	1.8088	1.5878	1.4042	1.2005	0.5435	0.9914	1.3365	0.8762	0.4636	0.5283
687.5	1.2773	0.9931	-0.0003	0.4821	1.0384	-0.3934	0.7782	-0.1128	-0.2424	0.6769	0.4635	0.4513	1.3712	1.6868	1.0863	1.6655	1.4788	0.6296	1.5442	1.7152	1.8938	1.6	1.4204	1.2627	0.581	1.0061	1.3636	0.8863	0.4414	0.5023
691.4062	1.3128	1.0724	0.0469	0.5898	1.144	-0.3159	0.8397	-0.1068	-0.2584	0.705	0.4612	0.4669	1.437	1.7406	1.0758	1.715	1.4912	0.6432	1.5799	1.8045	1.9551	1.6316	1.4524	1.3314	0.6296	1.0348	1.3951	0.9048	0.4291	0.478
695.3125	1.3589	1.1714	0.1285	0.7151	1.2588	-0.2033	0.9044	-0.0896	-0.2708	0.7272	0.4435	0.4808	1.4992	1.7782	1.0818	1.7765	1.53	0.6769	1.6475	1.9047	2.0054	1.6953	1.5111	1.4129	0.6928	1.0828	1.4401	0.9382	0.4364	0.4639
699.2188	1.4194	1.295	0.2474	0.8605	1.3894	-0.0528	0.985	-0.0494	-0.2673	0.7563	0.4242	0.5014	1.5671	1.8136	1.1106	1.857	1.6036	0.7396	1.7552	2.024	2.0595	1.7978	1.6028	1.5103	0.7712	1.1506	1.5058	0.9901	0.4705	0.4669
703.125	1.4967	1.4462	0.4033	1.0283	1.5418	0.1345	1.0916	0.0222	-0.2379	0.8044	0.4176	0.5363	1.6489	1.8609	1.1645	1.9611	1.7142	0.8349	1.9039	2.1673	2.1306	1.9387	1.7282	1.6233	0.8617	1.2347	1.5959	1.061	0.5331	0.4901
707.0312	1.5909	1.6248	0.5914	1.2191	1.7186	0.3531	1.2292	0.128	-0.1782	0.8791	0.4347	0.59	1.7501	1.9303	1.2419	2.089	1.8573	0.9597	2.086	2.3353	2.2272	2.1108	1.8822	1.7475	0.9585	1.3284	1.7101	1.1483	0.621	0.5323
710.9375	1.6989	1.8264	0.8026	1.4305	1.9174	0.5936	1.3953	0.2647	-0.0902	0.9819	0.4813	0.6622	1.871	2.0262	1.3374	2.2367	2.0227	1.105	2.2878	2.5231	2.3506	2.3011	2.0553	1.8762	1.0543	1.4229	1.8443	1.2459	0.7258	0.5879
714.8438	1.8147	2.0431	1.0241	1.6557	2.1298	0.8428	1.5801	0.4226	0.0173	1.1072	0.5562	0.7478	2.006	2.145	1.4432	2.3964	2.1967	1.2578	2.4919	2.7211	2.4951	2.4942	2.2358	2.0006	1.1412	1.5093	1.9901	1.3457	0.8364	0.6487
718.75	1.9302	2.2643	1.2419	1.8841	2.3422	1.0861	1.7676	0.5876	0.1309	1.2429	0.6516	0.8376	2.1445	2.2763	1.5509	2.5585	2.3649	1.4046	2.6811	2.9169	2.6488	2.6742	2.4114	2.1114	1.2124	1.58	2.137	1.4387	0.9411	0.7054
722.6562	2.0371	2.4792	1.4428	2.1024	2.538	1.3092	1.9385	0.7432	0.2351	1.3731	0.7542	0.9203	2.2723	2.405	1.6527	2.713	2.5143	1.5343	2.8418	3.0976	2.7968	2.8283	2.5713	2.2006	1.2637	1.63	2.2728	1.5161	1.0305	0.7502
726.5625	2.1293	2.6787	1.6172	2.2972	2.7011	1.5002	2.0743	0.8734	0.3158	1.4808	0.8485	0.9848	2.3745	2.5151	1.7433	2.8523	2.6363	1.6405	2.9658	3.2527	2.9246	2.9482	2.708	2.2621	1.2943	1.6574	2.3865	1.5712	1.0991	0.7784
730.4688	2.2036	2.857	1.7607	2.4573	2.8187	1.6516	2.1609	0.9653	0.363	1.5519	0.9194	1.0226	2.4389	2.5931	1.8197	2.9718	2.7273	1.7232	3.0521	3.3755	3.0219	3.0315	2.8184	2.2938	1.3072	1.6642	2.4694	1.6006	1.1467	0.7895
734.375	2.261	3.0118	1.8742	2.5758	2.8846	1.7611	2.1916	1.0116	0.3724	1.5776	0.9558	1.0298	2.4582	2.6315	1.8819	3.0707	2.7892	1.7878	3.1058	3.4645	3.0838	3.0815	2.9042	2.2972	1.3087	1.6552	2.5172	1.6043	1.1776	0.7873
738.2812	2.3054	3.1435	1.9624	2.6512	2.8999	1.8319	2.1685	1.0114	0.3457	1.5565	0.952	1.0072	2.4324	2.6299	1.932	3.1511	2.8281	1.8429	3.1363	3.5229	3.1124	3.106	2.9708	2.2777	1.3067	1.6372	2.53	1.586	1.1992	0.7783
742.1875	2.3416	3.2541	2.0315	2.6868	2.8724	1.8714	2.1017	0.9703	0.2895	1.494	0.9086	0.9603	2.368	2.595	1.9726	3.2168	2.8522	1.8977	3.1546	3.5572	3.115	3.1149	3.0254	2.243	1.3092	1.617	2.5122	1.5517	1.2194	0.77
746.0938	2.3736	3.3454	2.0873	2.6897	2.8152	1.8902	2.0066	0.8987	0.2128	1.4012	0.8321	0.8973	2.2771	2.5385	2.0059	3.2717	2.8693	1.9581	3.1701	3.5751	3.1021	3.1174	3.0748	2.2018	1.322	1.6002	2.4714	1.5086	1.2438	0.7678
750	2.4026	3.4178	2.1332	2.6689	2.7436	1.8991	1.9008	0.8098	0.1257	1.2921	0.7328	0.828	2.1751	2.4743	2.0325	3.3184	2.8844	2.0249	3.1879	3.5835	3.0848	3.1197	3.1223	2.1617	1.3473	1.5905	2.417	1.4634	1.2737	0.7735
753.9062	2.4265	3.4703	2.1699	2.6335	2.6727	1.9083	1.8003	0.7172	0.037	1.1816	0.6235	0.7612	2.0778	2.4161	2.0505	3.3572	2.8984	2.0931	3.208	3.5871	3.0722	3.1235	3.167	2.1282	1.3836	1.5888	2.3585	1.422	1.3051	0.7839
757.8125	2.4395	3.5002	2.1953	2.5912	2.6142	1.9248	1.7177	0.6335	-0.0454	1.0828	0.5172	0.7042	1.9986	2.3743	2.0563	3.3861	2.9076	2.1527	3.2251	3.5877	3.0701	3.1257	3.2032	2.1042	1.426	1.5942	2.3042	1.3887	1.33	0.7915
761.7188	2.4331	3.5044	2.2052	2.5471	2.576	1.9523	1.6605	0.5689	-0.1143	1.0057	0.4257	0.6615	1.9469	2.3547	2.0442	3.4007	2.9045	2.1911	3.23	3.5838	3.0794	3.1198	3.2226	2.0901	1.4681	1.6045	2.2598	1.3655	1.337	0.7861
765.625	2.3972	3.4798	2.1943	2.503	2.5606	1.9907	1.6318	0.5311	-0.1627	0.957	0.3579	0.6352	1.9271	2.3582	2.0079	3.395	2.8796	2.1967	3.2121	3.571	3.0968	3.0975	3.2168	2.084	1.5037	1.6166	2.2275	1.3524	1.3147	0.7575
769.5312	2.3219	3.4246	2.1567	2.4577	2.5664	2.0369	1.6313	0.5256	-0.1832	0.9399	0.3193	0.6249	1.9382	2.3811	1.9414	3.3626	2.8234	2.1613	3.1614	3.5435	3.1156	3.0516	3.1805	2.0833	1.5285	1.6272	2.2064	1.3472	1.2534	0.6976
773.4375	2.199	3.3387	2.0872	2.408	2.589	2.0861	1.6561	0.5558	-0.1688	0.9544	0.3121	0.6288	1.9755	2.4167	1.8405	3.298	2.7287	2.0823	3.0719	3.4954	3.1276	2.978	3.1131	2.0851	1.541	1.6332	2.1927	1.3459	1.147	0.6024
777.3438	2.0234	3.2243	1.9823	2.3497	2.6224	2.1333	1.7026	0.6229	-0.1135	0.9983	0.3348	0.6442	2.0317	2.4575	1.7035	3.198	2.5922	1.9632	2.9419	3.4223	3.1254	2.8767	3.0197	2.087	1.5427	1.632	2.181	1.3436	0.9944	0.4729
781.25	1.7941	3.0856	1.8408	2.2789	2.6609	2.175	1.7663	0.7259	-0.0143	1.0673	0.3834	0.6683	2.0988	2.4964	1.5318	3.0622	2.4152	1.8121	2.7746	3.3218	3.1033	2.7516	2.9092	2.0881	1.5371	1.6218	2.1658	1.3357	0.7991	0.3141
785.1562	1.5149	2.9278	1.6645	2.1933	2.7001	2.2095	1.843	0.8613	0.1278	1.1562	0.452	0.6982	2.1699	2.5283	1.3298	2.8936	2.2029	1.6396	2.5772	3.195	3.0594	2.6093	2.792	2.088	1.5285	1.602	2.143	1.3187	0.5683	0.1332
789.0625	1.1939	2.7566	1.4588	2.0928	2.7371	2.2369	1.9283	1.0228	0.3069	1.2588	0.5338	0.7315	2.2398	2.5508	1.1038	2.6982	1.9633	1.4559	2.3582	3.0456	2.995	2.4566	2.6765	2.0871	1.5206	1.5736	2.1106	1.2915	0.3111	-0.0618
792.9688	0.8434	2.5778	1.2322	1.9798	2.7706	2.2591	2.018	1.2018	0.5127	1.3687	0.6219	0.766	2.3056	2.5641	0.8618	2.4842	1.7061	1.2692	2.1266	2.8798	2.9149	2.2994	2.5673	2.0856	1.5159	1.5388	2.0689	1.2552	0.0378	-0.2639
796.875	0.4788	2.3964	0.9953	1.8589	2.8002	2.2781	2.1079	1.3876	0.7311	1.4799	0.7104	0.7996	2.3665	2.5708	0.6126	2.2615	1.4411	1.0844	1.8906	2.7055	2.8261	2.1415	2.4646	2.0838	1.5146	1.5009	2.0206	1.213	-0.2416	-0.4675
