time	FP1	F3	F7	FC3	C3	C5	P3	P7	PO7	PO3	O1	Oz	Pz	CPz	FP2	Fz	F4	F8	FC4	FCz	Cz	C4	C6	P4	P8	PO8	PO4	O2	HEOG_left	HEOG_right
-199.2188	-1.9885	-2.4301	-1.6332	-2.2496	-1.49	-0.9022	-0.468	-0.1391	-0.2946	-0.2065	-0.0994	-0.3983	-0.7718	-1.3503	-2.1842	-2.7356	-2.2892	-1.4494	-1.9726	-2.8989	-2.3067	-1.0298	-0.8457	-0.5186	-0.2623	-0.4329	-0.3134	-0.1894	-0.64	-0.9185
-195.3125	-1.9721	-2.3502	-1.5557	-2.1278	-1.3875	-0.795	-0.424	-0.0675	-0.2304	-0.1635	-0.0173	-0.2918	-0.6902	-1.2413	-2.146	-2.6878	-2.2442	-1.4241	-1.8904	-2.78	-2.1246	-1.0346	-0.8563	-0.5031	-0.2869	-0.3966	-0.2788	-0.1431	-0.5373	-0.874
-191.4062	-1.9315	-2.2481	-1.4648	-1.9908	-1.2753	-0.6867	-0.3738	-0.0027	-0.1705	-0.1205	0.0586	-0.1914	-0.6035	-1.1238	-2.0832	-2.612	-2.1758	-1.3839	-1.7907	-2.6361	-1.9277	-1.0212	-0.8524	-0.4812	-0.3068	-0.3611	-0.2439	-0.1011	-0.4302	-0.8215
-187.5	-1.85	-2.1092	-1.3528	-1.8294	-1.149	-0.5795	-0.3148	0.0485	-0.1195	-0.079	0.1223	-0.1023	-0.5102	-0.9937	-1.9791	-2.4878	-2.067	-1.3179	-1.6614	-2.4502	-1.7076	-0.9761	-0.8229	-0.4479	-0.3163	-0.3256	-0.2087	-0.066	-0.3194	-0.7573
-183.5938	-1.72	-1.9277	-1.2175	-1.6406	-1.0078	-0.4769	-0.2462	0.0806	-0.0807	-0.0414	0.1697	-0.028	-0.4111	-0.8501	-1.8265	-2.3051	-1.9094	-1.2219	-1.497	-2.2146	-1.4625	-0.8924	-0.7628	-0.4013	-0.3128	-0.2908	-0.1742	-0.0403	-0.2092	-0.6823
-179.6875	-1.5445	-1.7075	-1.0624	-1.4283	-0.8553	-0.3835	-0.1703	0.0902	-0.0563	-0.0102	0.1989	0.0295	-0.3099	-0.6964	-1.6297	-2.0657	-1.7053	-1.099	-1.3007	-1.9329	-1.1978	-0.7712	-0.6737	-0.3426	-0.2965	-0.2588	-0.142	-0.0254	-0.1075	-0.6014
-175.7812	-1.3364	-1.4618	-0.8969	-1.2031	-0.6993	-0.3042	-0.0919	0.0764	-0.0475	0.0118	0.2097	0.0695	-0.2126	-0.5394	-1.4032	-1.783	-1.4668	-0.9591	-1.0833	-1.6194	-0.9258	-0.6215	-0.5634	-0.276	-0.2698	-0.2319	-0.1143	-0.022	-0.024	-0.5226
-171.875	-1.116	-1.2102	-0.7341	-0.9805	-0.5505	-0.2437	-0.0176	0.041	-0.0547	0.0221	0.2029	0.0924	-0.1265	-0.3888	-1.1681	-1.4791	-1.2132	-0.8159	-0.8612	-1.2963	-0.6633	-0.4579	-0.4431	-0.207	-0.236	-0.2117	-0.0928	-0.0295	0.0321	-0.4552
-167.9688	-0.9059	-0.9747	-0.5881	-0.7779	-0.4205	-0.2052	0.045	-0.0109	-0.0772	0.0191	0.1804	0.099	-0.0588	-0.255	-0.9475	-1.1806	-0.9673	-0.6844	-0.6536	-0.9897	-0.4286	-0.2978	-0.3253	-0.1415	-0.1984	-0.1983	-0.0785	-0.0459	0.0548	-0.4065
-164.0625	-0.7269	-0.7753	-0.4713	-0.6112	-0.3198	-0.1897	0.0889	-0.0714	-0.1124	0.0024	0.1442	0.0908	-0.015	-0.1477	-0.7618	-0.9132	-0.7508	-0.5767	-0.4782	-0.7244	-0.238	-0.1583	-0.2214	-0.0845	-0.159	-0.19	-0.0716	-0.0681	0.0434	-0.381
-160.1562	-0.5935	-0.6259	-0.3915	-0.4919	-0.2554	-0.1956	0.1096	-0.1309	-0.1559	-0.0264	0.0972	0.0698	0.0024	-0.0738	-0.6245	-0.6971	-0.5803	-0.5004	-0.3483	-0.5196	-0.1028	-0.0528	-0.1393	-0.0396	-0.1189	-0.1839	-0.071	-0.092	0.0031	-0.3782
-156.25	-0.5113	-0.5317	-0.3504	-0.4244	-0.2297	-0.2186	0.1057	-0.1796	-0.2012	-0.0638	0.0427	0.0389	-0.0055	-0.036	-0.5405	-0.5439	-0.4646	-0.4567	-0.2697	-0.3852	-0.0271	0.011	-0.0829	-0.0085	-0.0787	-0.1763	-0.0747	-0.1136	-0.0556	-0.3932
-152.3438	-0.4765	-0.4885	-0.3431	-0.4051	-0.2387	-0.2517	0.0801	-0.2086	-0.2407	-0.1048	-0.0155	0.0014	-0.0336	-0.0315	-0.5053	-0.4543	-0.4036	-0.4408	-0.2405	-0.3198	-0.0067	0.0325	-0.0519	0.0091	-0.0391	-0.1639	-0.0801	-0.1289	-0.1189	-0.4179
-148.4375	-0.4778	-0.4841	-0.3595	-0.423	-0.2731	-0.2865	0.0397	-0.2119	-0.2667	-0.1431	-0.0724	-0.0385	-0.0732	-0.0526	-0.507	-0.4195	-0.389	-0.4436	-0.2512	-0.3117	-0.03	0.0176	-0.0421	0.0151	-0.0011	-0.1443	-0.0839	-0.1349	-0.1729	-0.4423
-144.5312	-0.4989	-0.501	-0.3858	-0.4616	-0.3192	-0.3141	-0.0057	-0.1872	-0.2736	-0.1719	-0.1227	-0.0765	-0.114	-0.0875	-0.5291	-0.4231	-0.4064	-0.4541	-0.2869	-0.3416	-0.0803	-0.0229	-0.0471	0.0131	0.0336	-0.1167	-0.0831	-0.13	-0.2067	-0.4576
-140.625	-0.5231	-0.5208	-0.4082	-0.5021	-0.3613	-0.327	-0.0449	-0.1362	-0.2587	-0.1855	-0.1607	-0.108	-0.1456	-0.123	-0.5547	-0.445	-0.4386	-0.4614	-0.3304	-0.3863	-0.1388	-0.0755	-0.0596	0.0071	0.0628	-0.0817	-0.0752	-0.1138	-0.2144	-0.4575
-136.7188	-0.5363	-0.5273	-0.4148	-0.5269	-0.3851	-0.3195	-0.068	-0.0648	-0.2229	-0.18	-0.1817	-0.1292	-0.1597	-0.1472	-0.5691	-0.4655	-0.4688	-0.4573	-0.3654	-0.4238	-0.1888	-0.1268	-0.0723	0.0014	0.085	-0.0407	-0.0586	-0.0868	-0.1961	-0.4398
-132.8125	-0.529	-0.5092	-0.398	-0.5225	-0.38	-0.2893	-0.0679	0.0184	-0.1709	-0.1544	-0.1831	-0.1374	-0.152	-0.1518	-0.5628	-0.4688	-0.4834	-0.4368	-0.3791	-0.437	-0.2182	-0.1657	-0.0795	-0.0004	0.0992	0.0035	-0.0332	-0.051	-0.1568	-0.4064
-128.9062	-0.4965	-0.4607	-0.3549	-0.4813	-0.341	-0.237	-0.0425	0.103	-0.1106	-0.1113	-0.165	-0.1319	-0.1229	-0.1339	-0.5316	-0.4448	-0.4735	-0.3984	-0.3644	-0.4163	-0.2216	-0.1854	-0.0778	0.0036	0.106	0.0479	0.0001	-0.0092	-0.1046	-0.3613
-125	-0.4384	-0.3815	-0.2866	-0.4018	-0.2688	-0.166	0.0055	0.1786	-0.0512	-0.0567	-0.1312	-0.1144	-0.0769	-0.0955	-0.476	-0.3892	-0.435	-0.3432	-0.3197	-0.3595	-0.1994	-0.1833	-0.0655	0.0137	0.1068	0.089	0.0384	0.0349	-0.0479	-0.3096
-121.0938	-0.356	-0.2744	-0.1969	-0.2878	-0.1689	-0.0805	0.0696	0.2368	-0.0018	0.0014	-0.088	-0.0883	-0.0216	-0.0428	-0.3994	-0.3027	-0.3679	-0.2741	-0.2485	-0.2702	-0.1565	-0.1608	-0.0432	0.0289	0.1042	0.1234	0.0784	0.077	0.0073	-0.2546
-117.1875	-0.2512	-0.1433	-0.0903	-0.1459	-0.0495	0.0149	0.1412	0.2729	0.0309	0.0543	-0.0433	-0.0581	0.035	0.0169	-0.3051	-0.1884	-0.2746	-0.1935	-0.1567	-0.1549	-0.0992	-0.1217	-0.0122	0.0474	0.1008	0.148	0.1162	0.1126	0.0587	-0.1969
-113.2812	-0.1249	0.008	0.0291	0.016	0.0811	0.1169	0.2116	0.2867	0.0441	0.0948	-0.0047	-0.0285	0.0861	0.0772	-0.1952	-0.0503	-0.1588	-0.1034	-0.051	-0.0202	-0.0327	-0.0701	0.0259	0.0674	0.0998	0.1607	0.1483	0.1376	0.1079	-0.1343
-109.375	0.0219	0.1758	0.1581	0.1901	0.2159	0.2229	0.2738	0.2824	0.0389	0.118	0.0219	-0.0038	0.1274	0.134	-0.0704	0.108	-0.024	-0.0048	0.0629	0.1288	0.0404	-0.0103	0.0696	0.088	0.1035	0.1604	0.1719	0.149	0.1587	-0.0629
-105.4688	0.1868	0.3564	0.2933	0.3692	0.3496	0.3313	0.3232	0.267	0.0197	0.122	0.0334	0.0128	0.1578	0.1863	0.0699	0.283	0.1257	0.1012	0.1808	0.2886	0.1198	0.0547	0.1176	0.1085	0.1136	0.1474	0.185	0.1448	0.2155	0.0209
-101.5625	0.3645	0.5439	0.4305	0.5457	0.478	0.4396	0.3575	0.2484	-0.0071	0.1081	0.0294	0.0191	0.178	0.2347	0.2246	0.4704	0.2858	0.2128	0.2996	0.4559	0.2061	0.1219	0.1681	0.1281	0.1303	0.1234	0.186	0.125	0.2796	0.1181
-97.6562	0.5454	0.7291	0.5634	0.7116	0.5976	0.5441	0.3761	0.2329	-0.035	0.0802	0.0119	0.0139	0.1899	0.2804	0.3903	0.6632	0.4502	0.3265	0.416	0.6257	0.299	0.1883	0.2186	0.1456	0.1522	0.0914	0.1745	0.0908	0.3486	0.2265
-93.75	0.7163	0.9006	0.6835	0.8581	0.7043	0.6394	0.3796	0.2242	-0.0582	0.044	-0.0146	-0.0022	0.1956	0.3236	0.56	0.8519	0.6112	0.4371	0.5261	0.7905	0.3959	0.2503	0.2661	0.159	0.1767	0.0559	0.1506	0.0459	0.4153	0.3399
-89.8438	0.8624	1.0451	0.7817	0.9765	0.7936	0.7189	0.3695	0.2227	-0.0727	0.0067	-0.0438	-0.0271	0.1967	0.3635	0.7241	1.0241	0.7598	0.5385	0.6248	0.9402	0.4914	0.3037	0.3073	0.1664	0.2006	0.0222	0.1162	-0.0045	0.4693	0.4498
-85.9375	0.9699	1.1506	0.8495	1.0594	0.8606	0.7757	0.3477	0.2263	-0.0758	-0.0242	-0.0691	-0.057	0.1948	0.398	0.8709	1.1668	0.8863	0.6245	0.7061	1.0633	0.5781	0.3445	0.339	0.1664	0.2201	-0.004	0.0743	-0.0537	0.5001	0.547
-82.0312	1.0294	1.2086	0.8812	1.102	0.9007	0.804	0.3165	0.2311	-0.0664	-0.0424	-0.0845	-0.0868	0.1909	0.4242	0.9891	1.2673	0.9814	0.6901	0.764	1.149	0.6476	0.3692	0.359	0.1583	0.2318	-0.0185	0.0295	-0.0957	0.4994	0.6232
-78.125	1.0372	1.2156	0.875	1.1033	0.9102	0.8002	0.2779	0.2325	-0.0448	-0.0439	-0.086	-0.1119	0.186	0.4392	1.0689	1.3162	1.038	0.7317	0.7929	1.1892	0.6927	0.3755	0.3658	0.1429	0.2329	-0.0193	-0.0133	-0.1256	0.4639	0.6725
-74.2188	0.9963	1.1743	0.8331	1.066	0.8873	0.7633	0.2339	0.2268	-0.0121	-0.0282	-0.0723	-0.1281	0.1806	0.4408	1.1038	1.3086	1.0512	0.7482	0.7891	1.1804	0.7082	0.3627	0.3587	0.1216	0.2214	-0.008	-0.0498	-0.1415	0.3963	0.6918
-70.3125	0.9155	1.0923	0.7616	0.9961	0.8324	0.6953	0.1858	0.212	0.0295	0.0019	-0.0453	-0.1333	0.1744	0.4272	1.0913	1.2453	1.0203	0.7403	0.7516	1.1241	0.6924	0.3315	0.3378	0.0965	0.1963	0.0107	-0.0768	-0.1443	0.3046	0.6812
-66.4062	0.8078	0.981	0.669	0.9016	0.7482	0.6002	0.1341	0.1877	0.0776	0.04	-0.0093	-0.1269	0.1665	0.3977	1.0339	1.1332	0.9485	0.7107	0.6823	1.027	0.6467	0.2834	0.3035	0.0692	0.1581	0.0296	-0.0936	-0.1372	0.1999	0.6431
-62.5	0.6878	0.8534	0.5644	0.7917	0.6395	0.4841	0.0786	0.1549	0.1286	0.0777	0.0288	-0.1106	0.1547	0.3523	0.9391	0.9847	0.8438	0.6636	0.5874	0.9004	0.5756	0.2214	0.2567	0.0408	0.1089	0.0419	-0.1014	-0.1247	0.0937	0.5821
-58.5938	0.5703	0.7223	0.4572	0.6752	0.5131	0.3541	0.0189	0.1152	0.1779	0.1062	0.0617	-0.0869	0.1364	0.2922	0.8192	0.817	0.7184	0.6049	0.4763	0.7592	0.4863	0.1494	0.1993	0.0117	0.052	0.0427	-0.1029	-0.1108	-0.0036	0.5047
-54.6875	0.4684	0.5996	0.3554	0.5607	0.3776	0.2182	-0.0449	0.0703	0.2205	0.1183	0.0824	-0.0592	0.1096	0.2207	0.6903	0.6497	0.5879	0.5414	0.362	0.62	0.3884	0.0731	0.1348	-0.0176	-0.0075	0.0314	-0.1011	-0.098	-0.0849	0.4191
-50.7812	0.3927	0.4956	0.2667	0.4566	0.2429	0.0848	-0.1111	0.0217	0.2513	0.1106	0.0862	-0.0299	0.0744	0.1433	0.5706	0.5034	0.4698	0.4812	0.2594	0.4997	0.2937	0.0007	0.069	-0.0461	-0.0639	0.012	-0.0983	-0.0862	-0.146	0.3346
-46.875	0.3515	0.4188	0.1977	0.3709	0.1201	-0.0375	-0.1762	-0.0295	0.2665	0.0841	0.0719	-0.0006	0.0338	0.0685	0.4784	0.3968	0.3815	0.4325	0.184	0.4138	0.2148	-0.0574	0.0098	-0.0709	-0.1111	-0.008	-0.0945	-0.0734	-0.185	0.261
-42.9688	0.3505	0.3763	0.1548	0.3115	0.02	-0.14	-0.2346	-0.0821	0.2646	0.0448	0.0419	0.0287	-0.0062	0.007	0.4294	0.3452	0.3382	0.4032	0.1496	0.3749	0.1648	-0.0893	-0.0334	-0.0875	-0.1438	-0.0198	-0.0878	-0.0562	-0.202	0.207
-39.0625	0.3928	0.3737	0.1435	0.286	-0.0473	-0.2153	-0.2801	-0.1344	0.2469	0.0017	0.0018	0.0586	-0.0371	-0.0299	0.4343	0.3579	0.351	0.3997	0.1665	0.3912	0.1548	-0.0831	-0.0506	-0.0904	-0.158	-0.0157	-0.075	-0.0315	-0.1976	0.1797
-35.1562	0.4786	0.4147	0.1676	0.3002	-0.0747	-0.2578	-0.3069	-0.1849	0.2177	-0.035	-0.0411	0.0898	-0.0498	-0.0321	0.4976	0.4378	0.4252	0.4255	0.2392	0.4651	0.1924	-0.03	-0.0338	-0.0742	-0.1523	0.0086	-0.0523	0.0024	-0.1732	0.1828
-31.25	0.6045	0.4997	0.2285	0.357	-0.0586	-0.265	-0.3113	-0.2319	0.1836	-0.0563	-0.0788	0.123	-0.037	0.0066	0.6166	0.5808	0.5591	0.4811	0.3654	0.5931	0.2801	0.0737	0.0215	-0.0352	-0.1272	0.0542	-0.0168	0.0457	-0.1315	0.216
-27.3438	0.7622	0.6253	0.3235	0.4554	-0.0003	-0.2382	-0.2921	-0.2742	0.1521	-0.056	-0.1046	0.1578	0.0054	0.0872	0.7817	0.7756	0.7438	0.5628	0.5359	0.7655	0.4137	0.2239	0.1145	0.0276	-0.0856	0.1188	0.0329	0.0968	-0.0766	0.2751
-23.4375	0.9389	0.7834	0.4453	0.5889	0.0943	-0.1826	-0.2512	-0.3108	0.1303	-0.0313	-0.1134	0.1934	0.077	0.2047	0.9779	1.0056	0.9639	0.6635	0.735	0.9672	0.5829	0.4084	0.2382	0.1116	-0.032	0.1978	0.0962	0.1531	-0.0149	0.3522
-19.5312	1.1178	0.9612	0.5825	0.7457	0.215	-0.1063	-0.1933	-0.3417	0.1232	0.0169	-0.1028	0.2282	0.1725	0.3482	1.1865	1.2498	1.1991	0.7729	0.9431	1.1798	0.7718	0.608	0.3801	0.2106	0.0284	0.285	0.1706	0.2112	0.0452	0.437
-15.625	1.2799	1.142	0.7208	0.9098	0.3487	-0.0199	-0.1246	-0.3674	0.1335	0.085	-0.0723	0.2606	0.2829	0.5026	1.3872	1.4856	1.4269	0.8792	1.1387	1.3828	0.9614	0.7992	0.5242	0.3156	0.0901	0.3734	0.2516	0.2673	0.0945	0.5183
-11.7188	1.4071	1.3071	0.8445	1.0633	0.4814	0.0655	-0.052	-0.3892	0.1607	0.167	-0.024	0.2891	0.397	0.651	1.5612	1.6914	1.6249	0.9707	1.302	1.5565	1.1321	0.9589	0.6532	0.4161	0.1478	0.4562	0.3336	0.3181	0.1238	0.5854
-7.8125	1.4857	1.4392	0.9402	1.1892	0.6008	0.14	0.0178	-0.409	0.2021	0.2555	0.0382	0.3129	0.5032	0.778	1.693	1.8496	1.7749	1.0378	1.4179	1.685	1.2671	1.0686	0.7529	0.5021	0.1969	0.527	0.4109	0.3608	0.1267	0.6299
-3.9062	1.5089	1.5257	0.9987	1.2756	0.6977	0.1965	0.0794	-0.4291	0.2527	0.3428	0.1087	0.3316	0.5921	0.872	1.7738	1.9492	1.8653	1.0747	1.4787	1.758	1.3558	1.1188	0.8141	0.5661	0.2337	0.5814	0.4787	0.3936	0.1007	0.6473
0	1.4789	1.5615	1.0174	1.3177	0.7682	0.2316	0.1287	-0.4522	0.3056	0.4209	0.1805	0.3451	0.6578	0.9278	1.8024	1.9878	1.8936	1.0807	1.4856	1.7731	1.3953	1.1108	0.8356	0.6044	0.2553	0.6169	0.5338	0.4159	0.0488	0.6378
3.9062	1.4067	1.5504	1.0008	1.3198	0.8133	0.2465	0.1634	-0.4813	0.3532	0.4824	0.2456	0.353	0.6985	0.9471	1.7859	1.9719	1.8665	1.0607	1.448	1.7361	1.3916	1.0573	0.8238	0.6177	0.2597	0.6333	0.5756	0.428	-0.0207	0.6066
7.8125	1.3106	1.5054	0.9602	1.2949	0.8391	0.2463	0.1824	-0.519	0.3872	0.5215	0.2958	0.3544	0.7168	0.9384	1.7383	1.9161	1.7992	1.025	1.3825	1.6612	1.3584	0.9799	0.7915	0.6105	0.2455	0.6321	0.6053	0.4305	-0.0949	0.5629
11.7188	1.2129	1.4459	0.9118	1.2622	0.8554	0.2402	0.1869	-0.5662	0.401	0.5353	0.3244	0.3482	0.7189	0.9146	1.6781	1.8403	1.7122	0.9879	1.31	1.5685	1.3147	0.9051	0.7555	0.5907	0.2123	0.6161	0.6259	0.4242	-0.1591	0.518
15.625	1.1362	1.3945	0.8735	1.2436	0.8746	0.24	0.1799	-0.6205	0.3905	0.5247	0.3281	0.3339	0.7134	0.8913	1.6249	1.7669	1.6283	0.9651	1.252	1.4817	1.2816	0.8594	0.7334	0.568	0.1616	0.5886	0.6415	0.4103	-0.1995	0.4831
19.5312	1.0982	1.3719	0.8622	1.2591	0.9087	0.2583	0.1676	-0.6755	0.3567	0.4952	0.3081	0.3127	0.7101	0.8833	1.5944	1.7164	1.5675	0.9706	1.2277	1.4238	1.2783	0.8644	0.7407	0.5524	0.0977	0.5545	0.6571	0.3907	-0.2068	0.4664
23.4375	1.1082	1.3922	0.8895	1.3219	0.9681	0.3067	0.1584	-0.7208	0.3057	0.4571	0.2712	0.2891	0.7184	0.9024	1.5956	1.7033	1.5442	1.0136	1.2501	1.4129	1.3179	0.9329	0.7882	0.5531	0.0288	0.5199	0.6776	0.3692	-0.179	0.471
27.3438	1.1642	1.4593	0.9594	1.4352	1.0586	0.3931	0.1619	-0.7432	0.2494	0.4232	0.2286	0.2703	0.7459	0.9547	1.6277	1.7333	1.5639	1.0958	1.3243	1.4581	1.4047	1.0665	0.8804	0.5774	-0.0331	0.4932	0.7079	0.3515	-0.1233	0.494
31.25	1.2535	1.5664	1.0671	1.5911	1.1796	0.519	0.1873	-0.7297	0.203	0.4067	0.194	0.2654	0.7961	1.0396	1.6813	1.8027	1.6239	1.2112	1.447	1.5576	1.5328	1.2546	1.0146	0.6291	-0.0738	0.484	0.7515	0.345	-0.0549	0.5274
35.1562	1.3558	1.6982	1.1999	1.7723	1.324	0.6784	0.2398	-0.6716	0.1817	0.4172	0.1797	0.2827	0.8674	1.1487	1.7419	1.9003	1.7154	1.3482	1.6075	1.699	1.6868	1.477	1.181	0.7075	-0.0798	0.5015	0.8093	0.3567	0.0064	0.5609
39.0625	1.4505	1.8366	1.3401	1.9567	1.478	0.857	0.3187	-0.568	0.1963	0.4576	0.193	0.3263	0.9522	1.2674	1.7963	2.0121	1.828	1.4937	1.7909	1.863	1.8443	1.7068	1.3637	0.8063	-0.0427	0.5512	0.8782	0.3905	0.0419	0.5867
42.9688	1.5235	1.9662	1.4705	2.1231	1.6242	1.0348	0.4159	-0.4282	0.2498	0.5224	0.233	0.3937	1.0372	1.376	1.8392	2.1266	1.9546	1.6382	1.9818	2.029	1.9809	1.9152	1.5433	0.9135	0.0373	0.6326	0.9507	0.4453	0.0404	0.6032
46.875	1.5734	2.08	1.5778	2.2571	1.7448	1.1895	0.5162	-0.2713	0.335	0.5975	0.2908	0.4745	1.1054	1.4541	1.8772	2.2393	2.0943	1.7793	2.1679	2.1797	2.0746	2.077	1.6995	1.0128	0.1497	0.7366	1.0147	0.5128	0.0035	0.6182
50.7812	1.6122	2.1805	1.6562	2.353	1.8246	1.3007	0.6002	-0.1225	0.4356	0.6635	0.3499	0.5519	1.1391	1.4828	1.9289	2.3533	2.2521	1.9219	2.3409	2.3043	2.1096	2.1741	1.8142	1.0855	0.2745	0.8462	1.0554	0.5781	-0.0525	0.6474
54.6875	1.6618	2.2763	1.7062	2.413	1.8531	1.3531	0.6467	-0.0088	0.5288	0.6986	0.3904	0.6055	1.1226	1.4481	2.0183	2.4753	2.4345	2.074	2.4949	2.3982	2.0777	2.1971	1.8734	1.1132	0.3853	0.9384	1.0572	0.6217	-0.0994	0.7104
58.5938	1.7447	2.3755	1.732	2.4425	1.8239	1.338	0.6369	0.0468	0.5898	0.6834	0.3922	0.6148	1.044	1.3414	2.1649	2.6095	2.6422	2.2401	2.6228	2.4585	1.9771	2.144	1.8669	1.0806	0.4548	0.988	1.0065	0.6229	-0.1039	0.8237
62.5	1.8738	2.4781	1.7357	2.4434	1.733	1.2526	0.5561	0.0288	0.5967	0.6033	0.3391	0.5639	0.8965	1.1593	2.3738	2.7492	2.8635	2.4143	2.712	2.4796	1.8089	2.0169	1.788	0.9769	0.4597	0.9732	0.8934	0.5646	-0.0369	0.9933
66.4062	2.0446	2.5711	1.714	2.4097	1.5769	1.0982	0.3964	-0.0681	0.5345	0.4516	0.2224	0.4447	0.6788	0.9032	2.6276	2.8731	3.0707	2.5762	2.7425	2.4489	1.5749	1.8194	1.6334	0.7983	0.3868	0.8805	0.7146	0.4372	0.1162	1.2095
70.3125	2.2316	2.6277	1.6565	2.327	1.3521	0.8799	0.1585	-0.2384	0.3987	0.2305	0.0428	0.2605	0.3961	0.5794	2.8866	2.9453	3.222	2.6924	2.6898	2.3476	1.2772	1.5561	1.4041	0.5495	0.2374	0.7098	0.4751	0.2434	0.3491	1.4461
74.2188	2.3921	2.6136	1.5485	2.1765	1.0589	0.6069	-0.1469	-0.4663	0.1974	-0.0475	-0.1878	0.0264	0.0615	0.2009	3.0955	2.9232	3.2709	2.725	2.5314	2.1555	0.9203	1.2355	1.1096	0.2458	0.0288	0.4767	0.19	-0.0004	0.6331	1.6646
78.125	2.4764	2.4977	1.3775	1.9445	0.7065	0.2956	-0.4975	-0.7271	-0.0497	-0.3599	-0.4475	-0.2312	-0.3026	-0.2095	3.1963	2.7701	3.1795	2.6431	2.2584	1.8605	0.517	0.8744	0.771	-0.0868	-0.2065	0.2114	-0.1153	-0.2651	0.9219	1.8235
82.0312	2.4417	2.2642	1.1412	1.6322	0.3179	-0.0283	-0.8605	-0.9902	-0.3134	-0.676	-0.7072	-0.4792	-0.6642	-0.6183	3.1447	2.4693	2.9324	2.4353	1.884	1.469	0.0932	0.5016	0.4235	-0.4127	-0.426	-0.0465	-0.408	-0.5138	1.1614	1.8885
85.9375	2.2644	1.9225	0.852	1.2626	-0.0685	-0.3306	-1.1961	-1.2234	-0.56	-0.9607	-0.9353	-0.6839	-0.9844	-0.9824	2.9229	2.0342	2.5464	2.1176	1.4483	1.0124	-0.3105	0.158	0.1138	-0.6917	-0.5858	-0.2558	-0.6523	-0.7094	1.3023	1.8423
89.8438	1.9485	1.5089	0.539	0.8799	-0.4024	-0.5721	-1.4632	-1.3982	-0.7579	-1.1802	-1.1039	-0.8178	-1.2232	-1.254	2.5463	1.511	2.0705	1.7335	1.0136	0.5459	-0.6423	-0.1089	-0.1073	-0.8859	-0.6493	-0.383	-0.8164	-0.8223	1.311	1.6892
93.75	1.5263	1.0809	0.2424	0.5419	-0.631	-0.7162	-1.6265	-1.4941	-0.8829	-1.3075	-1.1933	-0.8651	-1.3453	-1.3895	2.0615	0.9707	1.5767	1.3459	0.652	0.1391	-0.8482	-0.2541	-0.1954	-0.9663	-0.5958	-0.4093	-0.8781	-0.8371	1.1761	1.4541
97.6562	1.0519	0.7045	0.0054	0.307	-0.71	-0.7372	-1.6624	-1.5026	-0.9218	-1.3265	-1.1949	-0.8237	-1.3269	-1.3567	1.5361	0.4943	1.1442	1.0225	0.4285	-0.1388	-0.8838	-0.2458	-0.1239	-0.9192	-0.425	-0.3339	-0.8289	-0.7547	0.9104	1.1759
101.5625	0.591	0.4404	-0.1343	0.2204	-0.6131	-0.6263	-1.562	-1.4279	-0.8739	-1.2331	-1.1109	-0.7035	-1.1587	-1.1419	1.045	0.1558	0.8417	0.8207	0.3856	-0.2348	-0.7241	-0.0734	0.1087	-0.7471	-0.1566	-0.1728	-0.674	-0.5904	0.5471	0.8982
105.4688	0.2087	0.3314	-0.1521	0.3052	-0.3375	-0.3936	-1.3307	-1.285	-0.7481	-1.0342	-0.9514	-0.5221	-0.8462	-0.7507	0.6565	0.0076	0.7137	0.7747	0.5344	-0.1229	-0.3689	0.2502	0.4771	-0.467	0.1739	0.0469	-0.4292	-0.3682	0.1333	0.6604
109.375	-0.0401	0.3969	-0.0388	0.5589	0.0973	-0.0653	-0.9853	-1.0958	-0.5599	-0.7436	-0.7307	-0.2985	-0.4063	-0.2062	0.4223	0.0734	0.7752	0.89	0.854	0.1922	0.1588	0.6918	0.9339	-0.1056	0.5232	0.2947	-0.1159	-0.1135	-0.2788	0.4905
113.2812	-0.1179	0.6325	0.2004	0.9574	0.6552	0.3231	-0.5488	-0.884	-0.3267	-0.3783	-0.4631	-0.0484	0.1367	0.4571	0.372	0.3478	1.0131	1.1455	1.2999	0.6802	0.8192	1.2061	1.4197	0.3072	0.8485	0.5432	0.2443	0.1522	-0.6389	0.4026
117.1875	-0.007	1.0155	0.5499	1.4637	1.2924	0.7353	-0.0465	-0.6704	-0.0646	0.0447	-0.1608	0.2183	0.7559	1.2005	0.5126	0.8028	1.395	1.5001	1.8171	1.2952	1.5654	1.7462	1.8756	0.7438	1.1145	0.7734	0.6326	0.4157	-0.9057	0.3967
121.0938	0.2903	1.5121	0.9882	2.0367	1.9661	1.1406	0.4968	-0.4705	0.213	0.5094	0.1664	0.4972	1.4243	1.9862	0.8311	1.3965	1.8793	1.9042	2.3531	1.9875	2.3525	2.272	2.254	1.1819	1.2986	0.976	1.0345	0.6714	-1.0512	0.4615
125	0.7535	2.0841	1.4909	2.639	2.6402	1.5184	1.0585	-0.2929	0.4956	1.0007	0.5107	0.7875	2.1165	2.7812	1.2987	2.0821	2.4237	2.3089	2.8681	2.7124	3.1443	2.7566	2.5268	1.6061	1.3928	1.15	1.4391	0.9196	-1.0641	0.5779
128.9062	1.3462	2.6936	2.0327	3.2412	3.2881	1.8584	1.617	-0.1407	0.7746	1.5021	0.8634	1.0877	2.808	3.5581	1.8747	2.8134	2.9907	2.6745	3.3386	3.4358	3.9147	3.1868	2.6878	2.0063	1.4026	1.2993	1.8368	1.1625	-0.9503	0.7225
132.8125	2.0196	3.3052	2.5874	3.8212	3.8917	2.158	2.1516	-0.0134	1.0416	1.9949	1.2136	1.3926	3.4743	4.2932	2.5106	3.5481	3.5491	2.9735	3.7557	4.1336	4.6467	3.5613	2.7504	2.3759	1.3448	1.4294	2.2173	1.4004	-0.7316	0.871
136.7188	2.7167	3.8862	3.1271	4.3623	4.4382	2.4188	2.6415	0.0911	1.2868	2.4576	1.5466	1.6916	4.0901	4.965	3.1537	4.2482	4.0725	3.1913	4.1198	4.7883	5.3271	3.885	2.7414	2.7092	1.243	1.5437	2.5685	1.6294	-0.4428	1.0009
140.625	3.3765	4.4059	3.6226	4.8491	4.9166	2.642	3.0661	0.1745	1.4992	2.8665	1.8445	1.9683	4.6296	5.5514	3.751	4.8792	4.5364	3.3229	4.4331	5.384	5.9419	4.1631	2.6925	2.9995	1.1232	1.6427	2.876	1.8407	-0.1265	1.093
144.5312	3.9407	4.835	4.0433	5.2642	5.3145	2.8256	3.4059	0.238	1.6673	3.198	2.0875	2.2028	5.0667	6.0291	4.2522	5.4083	4.916	3.3694	4.6937	5.9008	6.4719	4.3958	2.6318	3.2379	1.0091	1.7233	3.1245	2.0214	0.1727	1.1328
148.4375	4.3585	5.1458	4.3597	5.5864	5.6158	2.9628	3.6436	0.282	1.7811	3.431	2.2571	2.374	5.3774	6.3734	4.6138	5.8045	5.1855	3.3329	4.8913	6.3129	6.8909	4.5756	2.5776	3.4136	0.9185	1.7804	3.2987	2.1569	0.414	1.1107
152.3438	4.5923	5.3129	4.5457	5.7906	5.8017	3.0431	3.766	0.3067	1.8335	3.5497	2.3388	2.4633	5.5413	6.5606	4.8016	6.0385	5.3196	3.2143	5.0076	6.5887	7.1676	4.6869	2.5349	3.5145	0.8609	1.8084	3.3859	2.2331	0.566	1.0225
156.25	4.6202	5.3151	4.5811	5.8506	5.8526	3.0541	3.7654	0.3126	1.8223	3.5457	2.3249	2.4576	5.5443	6.5707	4.7941	6.0853	5.2955	3.0123	5.0185	6.6937	7.2698	4.7092	2.4958	3.5292	0.8366	1.8025	3.3772	2.239	0.6103	0.8685
160.1562	4.4367	5.1372	4.4543	5.7423	5.7519	2.9845	3.6412	0.3009	1.7504	3.4195	2.2159	2.3513	5.3806	6.3915	4.5833	5.9262	5.0966	2.7238	4.8995	6.5967	7.1704	4.6213	2.4419	3.4488	0.8377	1.7601	3.2692	2.1683	0.5429	0.6534
164.0625	4.0518	4.7722	4.1634	5.4484	5.4897	2.8272	3.4003	0.2734	1.6259	3.181	2.021	2.1481	5.055	6.0223	4.1756	5.552	4.7155	2.3468	4.6307	6.2758	6.8539	4.407	2.3507	3.2698	0.851	1.6818	3.0653	2.0216	0.3736	0.3853
167.9688	3.4878	4.2233	3.7173	4.9627	5.0672	2.5813	3.0581	0.2327	1.4611	2.8486	1.7571	1.8612	4.5832	5.4758	3.5901	4.9661	4.157	1.8833	4.2031	5.7246	6.3216	4.0598	2.2008	2.9951	0.8609	1.5717	2.7762	1.8067	0.1225	0.0746
171.875	2.7767	3.5048	3.1349	4.2935	4.4986	2.2543	2.6373	0.1827	1.271	2.4484	1.4472	1.5126	3.9923	4.7796	2.8573	4.1862	3.4391	1.3416	3.6219	4.9567	5.5944	3.5859	1.9782	2.6363	0.8539	1.4375	2.4198	1.5392	-0.1838	-0.2661
175.7812	1.9565	2.643	2.4448	3.4651	3.8112	1.8613	2.1662	0.1282	1.0711	2.011	1.117	1.131	3.3186	3.9738	2.0162	3.2451	2.5926	0.7383	2.908	4.0068	4.712	3.0054	1.6805	2.2126	0.8209	1.2898	2.0197	1.2405	-0.5175	-0.6226
179.6875	1.0693	1.6761	1.683	2.5174	3.0439	1.4243	1.6765	0.0747	0.8755	1.5681	0.792	0.7472	2.6048	3.1078	1.1108	2.1893	1.6599	0.0976	2.0978	2.9288	3.7291	2.3509	1.3175	1.7493	0.7589	1.1396	1.6031	0.9351	-0.8529	-0.9795
183.5938	0.1583	0.6517	0.8905	1.5026	2.242	0.9694	1.1989	0.0273	0.695	1.1484	0.4938	0.3902	1.8945	2.2342	0.1874	1.0757	0.6908	-0.5502	1.2386	1.79	2.709	1.6632	0.9107	1.2749	0.6706	0.9966	1.1966	0.6468	-1.1693	-1.3211
187.5	-0.7338	-0.3762	0.1093	0.4801	1.4524	0.523	0.7604	-0.0103	0.5358	0.7745	0.2376	0.0829	1.228	1.4026	-0.7088	-0.0336	-0.2619	-1.1717	0.3837	0.6634	1.715	0.9863	0.4891	0.8173	0.5636	0.8665	0.8231	0.3946	-1.4526	-1.6318
191.4062	-1.5677	-1.3522	-0.6209	-0.49	0.7175	0.1088	0.3805	-0.037	0.3994	0.4604	0.0314	-0.1606	0.6374	0.6543	-1.5375	-1.0779	-1.1475	-1.7347	-0.4147	-0.3819	0.8033	0.3614	0.0841	0.4005	0.4476	0.7504	0.4992	0.1908	-1.6942	-1.8979
195.3125	-2.3096	-2.2253	-1.2667	-1.354	0.0699	-0.2555	0.0701	-0.0541	0.2838	0.2117	-0.1239	-0.3358	0.1437	0.0177	-2.2652	-2.0042	-1.923	-2.2122	-1.112	-1.2894	0.016	-0.1783	-0.2758	0.0421	0.3324	0.6451	0.2332	0.0391	-1.8906	-2.1086
199.2188	-2.9328	-2.9549	-1.8041	-2.0709	-0.47	-0.5604	-0.1691	-0.0656	0.1854	0.026	-0.2324	-0.446	-0.2439	-0.4931	-2.8681	-2.7731	-2.5572	-2.5853	-1.6765	-2.0208	-0.6222	-0.6114	-0.5695	-0.248	0.226	0.5453	0.0267	-0.0631	-2.0417	-2.2578
203.125	-3.4201	-3.5145	-2.2197	-2.6163	-0.895	-0.8043	-0.343	-0.0771	0.1004	-0.1039	-0.3012	-0.5003	-0.5266	-0.877	-3.3323	-3.3613	-3.0329	-2.8456	-2.0924	-2.5593	-1.1045	-0.9293	-0.7857	-0.4666	0.1341	0.4457	-0.124	-0.1235	-2.149	-2.3444
207.0312	-3.7639	-3.8937	-2.5105	-2.9835	-1.2087	-0.9917	-0.4617	-0.0945	0.0265	-0.1878	-0.3378	-0.51	-0.7129	-1.1431	-3.6542	-3.7632	-3.3476	-2.9946	-2.3593	-2.9079	-1.4384	-1.1351	-0.9223	-0.6158	0.0599	0.3442	-0.2247	-0.1508	-2.2151	-2.3724
210.9375	-3.9659	-4.0974	-2.6827	-3.1819	-1.422	-1.1306	-0.5368	-0.1229	-0.0368	-0.2353	-0.3485	-0.4859	-0.8144	-1.3055	-3.8384	-3.9879	-3.5111	-3.0425	-2.4898	-3.0848	-1.6411	-1.2401	-0.9845	-0.7003	0.0053	0.2429	-0.2803	-0.1527	-2.242	-2.3496
214.8438	-4.0355	-4.1428	-2.7483	-3.2323	-1.5484	-1.2289	-0.5779	-0.1651	-0.0884	-0.2536	-0.338	-0.4366	-0.8428	-1.3795	-3.8964	-4.0556	-3.5422	-3.0048	-2.5044	-3.1174	-1.7334	-1.26	-0.9818	-0.7251	-0.0276	0.149	-0.2935	-0.1342	-2.2315	-2.2864
218.75	-3.9882	-4.0552	-2.723	-3.1629	-1.6012	-1.2922	-0.5909	-0.2212	-0.1259	-0.247	-0.3092	-0.3677	-0.8073	-1.378	-3.8446	-3.9928	-3.4648	-2.8995	-2.427	-3.0365	-1.7359	-1.2108	-0.9246	-0.6939	-0.0363	0.0729	-0.2644	-0.0964	-2.1853	-2.1941
222.6562	-3.8439	-3.8641	-2.6232	-3.004	-1.5911	-1.323	-0.5778	-0.2876	-0.1466	-0.2168	-0.2636	-0.2821	-0.7148	-1.311	-3.7029	-3.8287	-3.3036	-2.7448	-2.2803	-2.8713	-1.6657	-1.1065	-0.8225	-0.6093	-0.0174	0.0269	-0.1914	-0.0383	-2.1057	-2.0836
226.5625	-3.6246	-3.5994	-2.4652	-2.7845	-1.5262	-1.3209	-0.5374	-0.3586	-0.1484	-0.1619	-0.2023	-0.1811	-0.5705	-1.1862	-3.493	-3.5914	-3.0819	-2.5568	-2.0834	-2.6472	-1.5367	-0.9575	-0.6831	-0.4733	0.0321	0.0223	-0.0734	0.0426	-1.997	-1.9651
230.4688	-3.3532	-3.2886	-2.2639	-2.5294	-1.4127	-1.2844	-0.4672	-0.4264	-0.1304	-0.0805	-0.1267	-0.0658	-0.3796	-1.0104	-3.237	-3.306	-2.819	-2.3488	-1.8505	-2.3848	-1.36	-0.7708	-0.5124	-0.2888	0.1138	0.0672	0.0884	0.1477	-1.8651	-1.8473
234.375	-3.0515	-2.9551	-2.0327	-2.2581	-1.2566	-1.2124	-0.3653	-0.4828	-0.0932	0.0291	-0.0389	0.0617	-0.1492	-0.7912	-2.956	-2.9938	-2.5305	-2.1309	-1.5918	-2.1003	-1.1458	-0.5515	-0.3157	-0.0607	0.2266	0.1655	0.2895	0.2767	-1.7178	-1.737
238.2812	-2.7389	-2.6174	-1.7834	-1.9845	-1.0646	-1.1058	-0.2316	-0.5203	-0.0383	0.1662	0.0584	0.1976	0.111	-0.5389	-2.6683	-2.6716	-2.2284	-1.9104	-1.3146	-1.8074	-0.9048	-0.3042	-0.0979	0.2027	0.3663	0.3153	0.5211	0.4261	-1.5641	-1.6389
242.1875	-2.4313	-2.2888	-1.5263	-1.7174	-0.8453	-0.9682	-0.0691	-0.5332	0.0313	0.3279	0.1619	0.3365	0.3882	-0.2661	-2.3892	-2.353	-1.9228	-1.693	-1.0259	-1.5181	-0.6496	-0.0348	0.1347	0.4898	0.5254	0.5093	0.7715	0.5895	-1.4125	-1.5554
246.0938	-2.1413	-1.9785	-1.2702	-1.4617	-0.6088	-0.8052	0.1156	-0.5177	0.1127	0.5074	0.2683	0.4716	0.667	0.012	-2.1303	-2.0484	-1.6233	-1.4839	-0.7343	-1.2441	-0.3943	0.2478	0.3741	0.786	0.6944	0.7358	1.0263	0.758	-1.2703	-1.4871
250	-1.8779	-1.6923	-1.0229	-1.2196	-0.3661	-0.6244	0.3136	-0.4726	0.203	0.6956	0.3749	0.5964	0.9311	0.2793	-1.8999	-1.7664	-1.3403	-1.2889	-0.4507	-0.9966	-0.1541	0.5317	0.6104	1.0749	0.8621	0.98	1.271	0.9222	-1.143	-1.4338
253.9062	-1.6471	-1.4338	-0.7907	-0.992	-0.1281	-0.4335	0.5145	-0.3982	0.3003	0.8815	0.4799	0.7053	1.1654	0.5204	-1.7038	-1.514	-1.085	-1.1148	-0.1884	-0.7858	0.0568	0.8024	0.8319	1.3403	1.0178	1.2261	1.4924	1.0732	-1.0344	-1.3958
257.8125	-1.4526	-1.2055	-0.579	-0.7801	0.0957	-0.2401	0.7079	-0.2966	0.4039	1.0544	0.583	0.7954	1.3578	0.7227	-1.5453	-1.2968	-0.8681	-0.9687	0.0388	-0.6198	0.2267	1.0453	1.0267	1.5688	1.1517	1.4599	1.6806	1.205	-0.9464	-1.3739
261.7188	-1.2961	-1.0092	-0.3918	-0.5857	0.2976	-0.0513	0.8852	-0.1712	0.5143	1.2055	0.6853	0.8665	1.501	0.8771	-1.426	-1.1187	-0.6983	-0.8569	0.2187	-0.5032	0.3479	1.247	1.1842	1.7507	1.2567	1.67	1.8302	1.3151	-0.8799	-1.3701
265.625	-1.1778	-0.8474	-0.2323	-0.4123	0.4722	0.1266	1.0401	-0.0265	0.6322	1.3295	0.7884	0.9217	1.5934	0.9796	-1.345	-0.9817	-0.5804	-0.7837	0.3433	-0.4363	0.4183	1.3982	1.2971	1.8817	1.3289	1.849	1.9404	1.4045	-0.8348	-1.3864
269.5312	-1.0971	-0.7227	-0.1031	-0.2647	0.6158	0.2876	1.1692	0.1316	0.7578	1.4249	0.8934	0.9661	1.6385	1.0307	-1.3	-0.8861	-0.5143	-0.7497	0.4099	-0.4155	0.4406	1.4945	1.3623	1.9629	1.3677	1.9937	2.0151	1.477	-0.8101	-1.4239
273.4375	-1.0526	-0.6384	-0.0068	-0.1491	0.7256	0.426	1.2716	0.2958	0.8891	1.4937	1.0002	1.0057	1.6443	1.0351	-1.2872	-0.8302	-0.4947	-0.7518	0.4223	-0.4337	0.422	1.5372	1.3819	1.9996	1.3762	2.104	2.061	1.5381	-0.804	-1.4813
277.3438	-1.043	-0.5975	0.0547	-0.072	0.7999	0.5361	1.3486	0.4577	1.0216	1.5406	1.1065	1.046	1.6214	1.0007	-1.3017	-0.8109	-0.512	-0.7838	0.3894	-0.4815	0.3721	1.5326	1.3632	2.0005	1.3598	2.1822	2.0865	1.5928	-0.8144	-1.5543
281.25	-1.0661	-0.602	0.0802	-0.039	0.8374	0.6136	1.4026	0.6083	1.1482	1.571	1.2079	1.0906	1.5808	0.9371	-1.3379	-0.8237	-0.5542	-0.8372	0.3243	-0.549	0.3014	1.4906	1.3167	1.9753	1.3257	2.2316	2.0993	1.6444	-0.8385	-1.6364
285.1562	-1.1193	-0.6514	0.0697	-0.0529	0.838	0.6557	1.4365	0.7389	1.2601	1.5903	1.2983	1.1401	1.5327	0.8545	-1.3898	-0.8634	-0.6092	-0.903	0.2411	-0.6271	0.2195	1.4224	1.2548	1.9333	1.2813	2.2554	2.1055	1.694	-0.8732	-1.7189
289.0625	-1.1985	-0.7425	0.0253	-0.1132	0.8031	0.6621	1.4528	0.8423	1.3486	1.6019	1.3712	1.1924	1.4847	0.7619	-1.4515	-0.9243	-0.6668	-0.973	0.1529	-0.7088	0.1334	1.3383	1.1892	1.8817	1.2328	2.2555	2.1082	1.7397	-0.9153	-1.7929
292.9688	-1.2978	-0.8687	-0.049	-0.2154	0.7354	0.635	1.4532	0.9135	1.4066	1.6071	1.421	1.2428	1.4406	0.6662	-1.5177	-1.0009	-0.7202	-1.0403	0.0693	-0.7902	0.0467	1.2462	1.1286	1.8247	1.1843	2.2321	2.1069	1.7769	-0.9614	-1.8504
296.875	-1.4096	-1.0206	-0.1472	-0.3509	0.6392	0.5785	1.4381	0.9501	1.4302	1.6046	1.4439	1.2851	1.4006	0.5712	-1.5843	-1.0882	-0.7673	-1.1004	-0.0048	-0.8706	-0.0409	1.15	1.0772	1.7633	1.1376	2.1839	2.0982	1.7999	-1.0084	-1.8854
300.7812	-1.5247	-1.1863	-0.2615	-0.5082	0.52	0.4987	1.4069	0.9525	1.4191	1.5911	1.4389	1.3134	1.3614	0.4782	-1.6485	-1.1817	-0.8094	-1.1511	-0.0697	-0.9519	-0.1325	1.0504	1.0343	1.6958	1.0922	2.1091	2.0767	1.8026	-1.0539	-1.8945
304.6875	-1.6329	-1.3526	-0.3831	-0.6737	0.3844	0.4029	1.3594	0.9242	1.3771	1.5632	1.4078	1.3233	1.3182	0.3868	-1.7083	-1.2769	-0.8504	-1.1915	-0.1297	-1.0365	-0.2323	0.9456	0.9956	1.6191	1.0467	2.0069	2.0365	1.7807	-1.0959	-1.8766
308.5938	-1.724	-1.5056	-0.5021	-0.8329	0.2407	0.2994	1.2961	0.8715	1.3118	1.5191	1.356	1.3132	1.2662	0.2966	-1.7614	-1.3692	-0.8945	-1.2218	-0.1908	-1.1261	-0.3433	0.8341	0.9552	1.5312	0.9999	1.8785	1.9738	1.7324	-1.1327	-1.8322
312.5	-1.789	-1.6319	-0.6087	-0.972	0.0984	0.1972	1.2202	0.8028	1.2332	1.4598	1.2909	1.2845	1.2032	0.2085	-1.8052	-1.4529	-0.9439	-1.2419	-0.2589	-1.2197	-0.465	0.7158	0.9079	1.4319	0.9517	1.7279	1.8879	1.6599	-1.1625	-1.763
316.4062	-1.8218	-1.7209	-0.694	-1.0795	-0.0326	0.1053	1.1368	0.7279	1.1524	1.39	1.2211	1.2411	1.13	0.1253	-1.8359	-1.522	-0.9984	-1.2516	-0.3373	-1.3131	-0.5928	0.5938	0.851	1.3239	0.9031	1.5621	1.7817	1.5683	-1.1832	-1.6713
320.3125	-1.8198	-1.7658	-0.7518	-1.1481	-0.1429	0.0313	1.0526	0.6556	1.0795	1.3162	1.1542	1.1874	1.05	0.0505	-1.8501	-1.5713	-1.0552	-1.2513	-0.4265	-1.4	-0.7184	0.4732	0.7847	1.2121	0.8555	1.3891	1.6611	1.4639	-1.1924	-1.5601
324.2188	-1.7854	-1.7657	-0.7798	-1.1758	-0.2257	-0.0199	0.9732	0.5922	1.021	1.2452	1.0942	1.1266	0.968	-0.0125	-1.8455	-1.5977	-1.1101	-1.2422	-0.5241	-1.4736	-0.8329	0.36	0.7112	1.102	0.8098	1.2172	1.5328	1.353	-1.1881	-1.434
328.125	-1.7256	-1.7262	-0.7804	-1.1672	-0.2785	-0.0473	0.9021	0.5402	0.9786	1.1807	1.041	1.0593	0.8877	-0.0629	-1.8228	-1.602	-1.1596	-1.2275	-0.626	-1.5295	-0.9284	0.259	0.6336	0.9979	0.7653	1.0526	1.4024	1.2395	-1.169	-1.2991
332.0312	-1.6518	-1.6595	-0.7612	-1.1329	-0.304	-0.0544	0.8391	0.4983	0.9493	1.1229	0.9903	0.9832	0.8104	-0.1034	-1.7857	-1.5894	-1.2017	-1.2123	-0.728	-1.567	-1.0016	0.1723	0.5542	0.9012	0.72	0.8987	1.2728	1.1246	-1.1358	-1.1635
335.9375	-1.5777	-1.582	-0.7335	-1.0877	-0.31	-0.0483	0.7807	0.4627	0.9262	1.0673	0.9351	0.8945	0.7343	-0.14	-1.7412	-1.5693	-1.2377	-1.2018	-0.8264	-1.5903	-1.0539	0.0986	0.4739	0.8108	0.6706	0.7559	1.1438	1.007	-1.0909	-1.0366
339.8438	-1.518	-1.5124	-0.7108	-1.0486	-0.3081	-0.0385	0.7209	0.4285	0.9019	1.0069	0.8682	0.7894	0.6548	-0.1811	-1.698	-1.5536	-1.2714	-1.2007	-0.9195	-1.6076	-1.0921	0.0333	0.3919	0.7227	0.6134	0.6216	1.0127	0.8841	-1.0387	-0.9277
343.75	-1.4851	-1.468	-0.7062	-1.0315	-0.3117	-0.0351	0.6529	0.3914	0.8695	0.9336	0.7845	0.6658	0.5658	-0.2359	-1.6651	-1.5545	-1.3084	-1.2119	-1.0074	-1.6299	-1.1262	-0.0306	0.3062	0.6316	0.5453	0.4919	0.8757	0.7534	-0.9847	-0.8449
347.6562	-1.4876	-1.4622	-0.7298	-1.0489	-0.3333	-0.0471	0.5706	0.3487	0.8251	0.8408	0.6821	0.5246	0.4615	-0.3125	-1.6501	-1.5827	-1.3551	-1.2354	-1.0922	-1.6685	-1.1677	-0.101	0.2143	0.5323	0.4646	0.3631	0.7294	0.614	-0.9351	-0.7935
351.5625	-1.5289	-1.5021	-0.7878	-1.1078	-0.3824	-0.081	0.4701	0.2991	0.7678	0.7249	0.5627	0.3702	0.3378	-0.4159	-1.6578	-1.6452	-1.4171	-1.2698	-1.1774	-1.7329	-1.2271	-0.1855	0.1138	0.4211	0.3712	0.234	0.5725	0.4678	-0.8956	-0.7756
355.4688	-1.6072	-1.5875	-0.8802	-1.2091	-0.4634	-0.1392	0.3511	0.243	0.6992	0.5872	0.4317	0.2102	0.1942	-0.5471	-1.6907	-1.7446	-1.4983	-1.3125	-1.2671	-1.8286	-1.3114	-0.2894	0.0032	0.2968	0.2671	0.1069	0.407	0.3199	-0.8707	-0.7896
359.375	-1.7151	-1.7115	-1.0019	-1.3467	-0.5744	-0.2201	0.2175	0.1816	0.6233	0.4344	0.2976	0.0548	0.0345	-0.7018	-1.7478	-1.8785	-1.5997	-1.3611	-1.3649	-1.9561	-1.4228	-0.4146	-0.1171	0.1618	0.1563	-0.0119	0.2391	0.179	-0.8624	-0.8312
363.2812	-1.8417	-1.8612	-1.1421	-1.5086	-0.7072	-0.3178	0.0778	0.1172	0.5449	0.2778	0.1709	-0.0842	-0.1329	-0.8704	-1.8255	-2.0397	-1.7191	-1.4136	-1.472	-2.1101	-1.5569	-0.5584	-0.2448	0.0219	0.0442	-0.1133	0.0785	0.0558	-0.8693	-0.8936
367.1875	-1.9732	-2.0199	-1.2865	-1.6783	-0.8486	-0.4225	-0.0561	0.0529	0.4699	0.1321	0.0632	-0.1955	-0.2956	-1.0388	-1.9173	-2.2167	-1.8504	-1.4685	-1.5864	-2.2796	-1.7037	-0.7134	-0.375	-0.1138	-0.0632	-0.1876	-0.0627	-0.0387	-0.8863	-0.9685
371.0938	-2.0947	-2.1695	-1.4187	-1.8368	-0.982	-0.5221	-0.171	-0.007	0.4035	0.0128	-0.0151	-0.2697	-0.439	-1.1905	-2.0141	-2.3947	-1.9839	-1.5237	-1.7023	-2.4491	-1.848	-0.868	-0.5004	-0.2346	-0.1599	-0.2279	-0.1721	-0.0958	-0.9046	-1.0467
375	-2.1928	-2.2928	-1.5237	-1.966	-1.0911	-0.6044	-0.2543	-0.0579	0.3499	-0.0671	-0.0568	-0.3017	-0.5492	-1.3089	-2.1047	-2.5577	-2.1073	-1.5758	-1.8102	-2.601	-1.9729	-1.0082	-0.6122	-0.3298	-0.2414	-0.2316	-0.2398	-0.1114	-0.9136	-1.119
378.9062	-2.2572	-2.3763	-1.5895	-2.0509	-1.1624	-0.6594	-0.2973	-0.0953	0.3114	-0.0996	-0.0595	-0.2914	-0.6153	-1.3811	-2.1772	-2.6897	-2.2072	-1.6199	-1.899	-2.7181	-2.0621	-1.1196	-0.7011	-0.3909	-0.3045	-0.2016	-0.2605	-0.0872	-0.903	-1.1771
382.8125	-2.2823	-2.412	-1.6103	-2.083	-1.1882	-0.6812	-0.2966	-0.1159	0.288	-0.0839	-0.0263	-0.2442	-0.6322	-1.3996	-2.2207	-2.778	-2.2718	-1.6496	-1.9579	-2.7869	-2.104	-1.1907	-0.7593	-0.4139	-0.3488	-0.1457	-0.2349	-0.0304	-0.8656	-1.2149
386.7188	-2.2677	-2.3982	-1.5864	-2.0612	-1.1677	-0.6692	-0.255	-0.1183	0.2778	-0.0256	0.0345	-0.1697	-0.6015	-1.3648	-2.227	-2.8137	-2.2924	-1.6584	-1.9786	-2.7994	-2.093	-1.2154	-0.7824	-0.3997	-0.3759	-0.0748	-0.1695	0.0476	-0.7998	-1.2291
390.625	-2.2178	-2.3394	-1.5242	-1.9919	-1.1068	-0.6278	-0.1804	-0.1031	0.2776	0.0636	0.1108	-0.0804	-0.5312	-1.2836	-2.192	-2.7938	-2.2651	-1.6405	-1.9573	-2.754	-2.0307	-1.1939	-0.7698	-0.3545	-0.389	-0.0006	-0.0763	0.1331	-0.7098	-1.219
394.5312	-2.1398	-2.2453	-1.4346	-1.8871	-1.0164	-0.5655	-0.0849	-0.0729	0.2836	0.1688	0.1893	0.0101	-0.4344	-1.1691	-2.1163	-2.7202	-2.1915	-1.5921	-1.8949	-2.6558	-1.9252	-1.1328	-0.7254	-0.2884	-0.3927	0.0662	0.03	0.2126	-0.6053	-1.1867
398.4375	-2.0431	-2.1284	-1.3309	-1.7622	-0.9108	-0.493	0.0177	-0.0319	0.2924	0.2741	0.2569	0.0892	-0.3267	-1.0376	-2.0051	-2.6001	-2.078	-1.5128	-1.7974	-2.5148	-1.7894	-1.0441	-0.6564	-0.2144	-0.3913	0.1167	0.1336	0.2747	-0.4995	-1.1355
402.3438	-1.937	-2.0026	-1.2264	-1.6335	-0.8053	-0.4218	0.1136	0.015	0.301	0.3646	0.303	0.1466	-0.2239	-0.9061	-1.8677	-2.4442	-1.935	-1.4054	-1.6743	-2.3447	-1.6386	-0.9425	-0.5729	-0.1454	-0.3887	0.1454	0.2203	0.3115	-0.4063	-1.0697
406.25	-1.8299	-1.8803	-1.133	-1.5152	-0.7139	-0.3626	0.1904	0.0622	0.3069	0.4283	0.3207	0.1757	-0.1395	-0.79	-1.7155	-2.266	-1.7755	-1.2767	-1.5377	-2.1606	-1.4881	-0.8431	-0.4852	-0.0928	-0.3876	0.1497	0.2793	0.3195	-0.3374	-0.9939
410.1562	-1.7281	-1.7713	-1.059	-1.4175	-0.6474	-0.3237	0.2389	0.1044	0.3078	0.4577	0.3069	0.1738	-0.0824	-0.7005	-1.5605	-2.0795	-1.6128	-1.1357	-1.3996	-1.977	-1.3509	-0.7584	-0.4029	-0.0645	-0.389	0.1301	0.3044	0.2993	-0.3005	-0.9126
414.0625	-1.6352	-1.681	-1.0081	-1.3453	-0.6114	-0.3093	0.254	0.1368	0.3016	0.4498	0.2628	0.1422	-0.0562	-0.6432	-1.4127	-1.897	-1.4583	-0.9929	-1.2703	-1.8054	-1.2358	-0.6962	-0.3329	-0.0635	-0.393	0.0893	0.2947	0.2546	-0.2974	-0.8296
417.9688	-1.5517	-1.6099	-0.9793	-1.2973	-0.6058	-0.3191	0.2357	0.1557	0.286	0.4069	0.1926	0.0858	-0.0587	-0.6176	-1.2785	-1.7277	-1.32	-0.858	-1.1566	-1.6531	-1.1457	-0.6585	-0.2787	-0.0882	-0.3986	0.0313	0.2537	0.1914	-0.3238	-0.7479
421.875	-1.4749	-1.5534	-0.9666	-1.2667	-0.6243	-0.3475	0.1886	0.1591	0.2592	0.3353	0.1032	0.0114	-0.0823	-0.6171	-1.1592	-1.5759	-1.2012	-0.7381	-1.0604	-1.5213	-1.0778	-0.6414	-0.2398	-0.132	-0.404	-0.039	0.1894	0.1163	-0.3701	-0.6694
425.7812	-1.3998	-1.5026	-0.9604	-1.2423	-0.6556	-0.3846	0.1219	0.1471	0.2203	0.245	0.0029	-0.0725	-0.1159	-0.631	-1.0516	-1.4406	-1.0998	-0.6363	-0.979	-1.4057	-1.0241	-0.6357	-0.2125	-0.1854	-0.4074	-0.1162	0.1118	0.0364	-0.4233	-0.5946
429.6875	-1.3201	-1.4463	-0.9493	-1.2105	-0.6858	-0.418	0.0476	0.1221	0.1701	0.1478	-0.0989	-0.1568	-0.1469	-0.646	-0.9488	-1.3159	-1.0095	-0.5518	-0.9056	-1.2975	-0.9737	-0.6298	-0.1907	-0.2373	-0.4072	-0.1947	0.0326	-0.0414	-0.4696	-0.5233
433.5938	-1.2296	-1.373	-0.9217	-1.158	-0.7002	-0.4349	-0.0217	0.0891	0.1117	0.056	-0.1926	-0.2325	-0.1636	-0.6492	-0.8423	-1.1928	-0.9207	-0.4801	-0.8315	-1.1851	-0.9148	-0.6116	-0.1677	-0.2773	-0.4023	-0.2686	-0.0376	-0.1103	-0.4967	-0.4547
437.5	-1.1239	-1.2734	-0.8688	-1.0745	-0.6868	-0.4249	-0.0745	0.0542	0.0497	-0.0199	-0.2698	-0.2916	-0.158	-0.6309	-0.7249	-1.0614	-0.8238	-0.4156	-0.7479	-1.0571	-0.8379	-0.5721	-0.1375	-0.2976	-0.3927	-0.3322	-0.0901	-0.1642	-0.4963	-0.3886
441.4062	-1.0012	-1.1427	-0.7856	-0.9544	-0.6381	-0.382	-0.1025	0.0244	-0.01	-0.0722	-0.3239	-0.3277	-0.1271	-0.5862	-0.5926	-0.9139	-0.7112	-0.3532	-0.6485	-0.9054	-0.7384	-0.5069	-0.0969	-0.2944	-0.38	-0.3803	-0.1198	-0.198	-0.4651	-0.3262
445.3125	-0.8635	-0.9824	-0.673	-0.7986	-0.5524	-0.3058	-0.1022	0.0053	-0.062	-0.0972	-0.3513	-0.3376	-0.0744	-0.5163	-0.4462	-0.7467	-0.5795	-0.2905	-0.5314	-0.7276	-0.6172	-0.4183	-0.0458	-0.2688	-0.3667	-0.4084	-0.1254	-0.2083	-0.4055	-0.2697
449.2188	-0.7161	-0.7996	-0.5367	-0.6142	-0.4341	-0.2018	-0.0754	0.0004	-0.102	-0.0953	-0.3517	-0.3211	-0.0084	-0.4281	-0.2914	-0.5616	-0.4313	-0.228	-0.3999	-0.5277	-0.4816	-0.3141	0.0124	-0.2259	-0.3558	-0.4134	-0.1094	-0.1938	-0.3243	-0.2222
453.125	-0.567	-0.6064	-0.387	-0.4135	-0.2925	-0.0801	-0.0278	0.0105	-0.1271	-0.0702	-0.3282	-0.2816	0.0593	-0.3324	-0.1373	-0.3661	-0.274	-0.1686	-0.2615	-0.3162	-0.3429	-0.2059	0.0723	-0.1734	-0.3501	-0.3938	-0.0768	-0.156	-0.2315	-0.1864
457.0312	-0.4246	-0.4172	-0.2362	-0.2118	-0.1397	0.0469	0.0318	0.0338	-0.1358	-0.0276	-0.2856	-0.2252	0.1172	-0.2413	0.0065	-0.171	-0.1185	-0.1154	-0.1263	-0.1077	-0.214	-0.1063	0.1277	-0.1192	-0.351	-0.35	-0.0337	-0.0985	-0.138	-0.1629
460.9375	-0.2959	-0.2459	-0.0963	-0.0247	0.0121	0.1665	0.0945	0.0667	-0.1269	0.0264	-0.2299	-0.1601	0.1567	-0.1652	0.1316	0.0111	0.0238	-0.0705	-0.0044	0.0823	-0.1062	-0.0256	0.174	-0.0699	-0.3574	-0.2846	0.0143	-0.0274	-0.0532	-0.1496
464.8438	-0.1855	-0.1034	0.0231	0.1342	0.1521	0.2686	0.1529	0.1044	-0.099	0.0864	-0.1664	-0.0944	0.1746	-0.1103	0.2333	0.1691	0.1438	-0.0332	0.0962	0.2402	-0.0267	0.0305	0.2094	-0.0289	-0.3663	-0.2025	0.0628	0.0498	0.0159	-0.1413
468.75	-0.0949	0.0039	0.1161	0.2553	0.2728	0.3468	0.203	0.1428	-0.0508	0.1488	-0.0987	-0.0349	0.1731	-0.0779	0.3106	0.2948	0.2359	-0.0002	0.1708	0.3571	0.0227	0.0619	0.235	0.0037	-0.3724	-0.1102	0.1097	0.1257	0.0653	-0.1317
472.6562	-0.023	0.0742	0.1809	0.3342	0.3701	0.399	0.244	0.1786	0.0185	0.212	-0.0286	0.0147	0.1594	-0.0641	0.3662	0.3842	0.2988	0.033	0.2188	0.4299	0.0452	0.0738	0.2551	0.0307	-0.3703	-0.015	0.155	0.1942	0.0937	-0.1139
476.5625	0.0329	0.1106	0.2198	0.3716	0.4436	0.4274	0.278	0.2096	0.1081	0.2757	0.0433	0.0542	0.1439	-0.0615	0.4051	0.4382	0.3353	0.0712	0.2432	0.4621	0.0481	0.0752	0.2751	0.0572	-0.3547	0.076	0.2002	0.252	0.1019	-0.0828
480.4688	0.0767	0.1199	0.2382	0.374	0.4958	0.4376	0.3091	0.235	0.2146	0.3404	0.1175	0.0866	0.1372	-0.0603	0.4337	0.462	0.3515	0.1175	0.2502	0.4627	0.0411	0.0768	0.3004	0.0887	-0.3229	0.1571	0.2478	0.2986	0.092	-0.0359
484.375	0.1127	0.1119	0.2439	0.3522	0.5315	0.4371	0.3412	0.2546	0.3316	0.406	0.1933	0.1165	0.1481	-0.0512	0.4588	0.465	0.3557	0.1727	0.2479	0.4448	0.0347	0.0887	0.3354	0.1298	-0.2748	0.2242	0.2995	0.3361	0.067	0.0263
488.2812	0.1454	0.0982	0.2453	0.3203	0.5564	0.4336	0.3767	0.2685	0.4501	0.471	0.2685	0.148	0.1814	-0.0269	0.4865	0.4591	0.3574	0.235	0.2452	0.4231	0.0384	0.1182	0.3819	0.1831	-0.2137	0.2749	0.3557	0.3675	0.0307	0.1005
492.1875	0.1797	0.0909	0.2509	0.2932	0.5756	0.4329	0.4154	0.2767	0.5593	0.5316	0.3386	0.1831	0.2363	0.0158	0.5221	0.4569	0.3656	0.3007	0.2503	0.4118	0.0591	0.1681	0.4389	0.2476	-0.1462	0.3081	0.4138	0.3951	-0.0127	0.181
496.0938	0.2205	0.1009	0.2669	0.2843	0.5931	0.4382	0.4536	0.2781	0.6486	0.582	0.397	0.2201	0.3066	0.0753	0.5692	0.4702	0.3882	0.3654	0.2695	0.4223	0.0998	0.236	0.5025	0.3188	-0.0807	0.3228	0.4687	0.4189	-0.0584	0.2616
500	0.2724	0.1368	0.2973	0.3034	0.6103	0.4485	0.4853	0.2711	0.7089	0.6155	0.4364	0.2539	0.3817	0.1454	0.6299	0.5079	0.4305	0.4251	0.3063	0.4613	0.1596	0.3153	0.5668	0.3892	-0.0265	0.3187	0.5129	0.4364	-0.1015	0.3365
503.9062	0.3395	0.2034	0.3431	0.3555	0.6269	0.4606	0.5033	0.2537	0.7348	0.6257	0.4508	0.2781	0.4496	0.2171	0.7046	0.5757	0.495	0.4781	0.3612	0.5304	0.2342	0.3966	0.6254	0.45	0.0088	0.2958	0.5392	0.4432	-0.137	0.4022
507.8125	0.4246	0.3018	0.4032	0.44	0.6413	0.4697	0.5017	0.2248	0.7257	0.6092	0.437	0.2864	0.4995	0.2817	0.7929	0.675	0.582	0.5256	0.433	0.6271	0.3175	0.4711	0.6729	0.4933	0.0199	0.2555	0.5419	0.4353	-0.161	0.4582
511.7188	0.5288	0.4295	0.4748	0.552	0.652	0.4721	0.4778	0.1853	0.6857	0.5667	0.3961	0.2755	0.5251	0.3328	0.8938	0.8043	0.6895	0.5721	0.5192	0.7462	0.404	0.5322	0.7065	0.5146	0.0056	0.2011	0.5193	0.4105	-0.1706	0.5067
515.625	0.651	0.5809	0.5546	0.6834	0.6588	0.4664	0.4331	0.1385	0.6237	0.5037	0.3337	0.246	0.5259	0.3685	1.0058	0.9593	0.8146	0.6237	0.6176	0.8815	0.49	0.5779	0.7266	0.5138	-0.0312	0.1379	0.4745	0.3697	-0.1651	0.5517
519.5312	0.7873	0.7485	0.6396	0.8246	0.6629	0.4543	0.3737	0.0898	0.5512	0.4299	0.2592	0.2028	0.5075	0.3912	1.1271	1.1341	0.9537	0.6868	0.7262	1.027	0.5743	0.6109	0.7363	0.4954	-0.0847	0.073	0.4148	0.318	-0.1461	0.5973
523.4375	0.9316	0.9236	0.727	0.9665	0.6673	0.4405	0.3085	0.0454	0.4805	0.3575	0.184	0.1538	0.4797	0.4072	1.2553	1.3216	1.103	0.766	0.8436	1.1781	0.6585	0.6373	0.741	0.4675	-0.1469	0.0137	0.3504	0.2629	-0.1165	0.6463
527.3438	1.0761	1.0973	0.8148	1.1015	0.6756	0.431	0.2479	0.011	0.4223	0.2986	0.1193	0.1087	0.454	0.424	1.3873	1.5145	1.2584	0.8624	0.9686	1.3311	0.7451	0.6649	0.7464	0.44	-0.2093	-0.0325	0.2927	0.2135	-0.0805	0.6994
531.25	1.2128	1.2612	0.9008	1.2243	0.6914	0.4315	0.2013	-0.0097	0.3842	0.2628	0.0742	0.0767	0.4414	0.4483	1.5196	1.7051	1.4159	0.9728	1.0991	1.4825	0.8361	0.7009	0.758	0.4222	-0.2641	-0.0598	0.2515	0.1784	-0.042	0.755
535.1562	1.3343	1.4072	0.9828	1.3313	0.7171	0.4455	0.1754	-0.016	0.37	0.255	0.0541	0.0644	0.4492	0.484	1.6479	1.8853	1.5711	1.0906	1.2317	1.6285	0.9321	0.7497	0.7791	0.4209	-0.3055	-0.0646	0.2336	0.1635	-0.0042	0.8101
539.0625	1.4347	1.528	1.0575	1.4199	0.7527	0.4731	0.1728	-0.0105	0.379	0.2747	0.0597	0.0751	0.4801	0.5313	1.7673	2.0467	1.7181	1.2062	1.3607	1.7639	1.0302	0.812	0.8105	0.4395	-0.3306	-0.0458	0.2418	0.1716	0.0301	0.861
542.9688	1.51	1.6167	1.1205	1.4878	0.7954	0.51	0.1918	0.0011	0.4067	0.316	0.0872	0.1069	0.5315	0.5863	1.8721	2.1807	1.8498	1.3094	1.4787	1.8817	1.1248	0.8838	0.8499	0.4768	-0.3392	-0.0054	0.2739	0.2011	0.0588	0.9044
546.875	1.5584	1.6675	1.1668	1.5324	0.8399	0.5485	0.2267	0.011	0.4456	0.3687	0.1289	0.1541	0.596	0.6422	1.9572	2.2789	1.9583	1.391	1.577	1.9743	1.2077	0.9583	0.8926	0.5279	-0.3339	0.0523	0.3241	0.2469	0.0798	0.9384
550.7812	1.5805	1.6772	1.1915	1.5511	0.8793	0.5794	0.2692	0.011	0.4873	0.4212	0.1754	0.2081	0.6637	0.6908	2.0185	2.335	2.0357	1.445	1.6476	2.0345	1.2702	1.0269	0.9325	0.5856	-0.3187	0.1213	0.384	0.3016	0.0914	0.9632
554.6875	1.5788	1.6457	1.1914	1.5427	0.9071	0.5943	0.3106	-0.0052	0.5237	0.4627	0.2174	0.2593	0.7242	0.7247	2.0545	2.3465	2.077	1.47	1.6855	2.0573	1.3053	1.0822	0.9644	0.6418	-0.2981	0.1949	0.4449	0.3574	0.0926	0.9809
558.5938	1.5581	1.5779	1.1664	1.5083	0.919	0.5882	0.3431	-0.0408	0.5486	0.4851	0.2474	0.2991	0.7684	0.7391	2.0668	2.3156	2.0815	1.4699	1.6903	2.0421	1.31	1.1199	0.9851	0.6893	-0.2751	0.2667	0.4991	0.4071	0.0835	0.9951
562.5	1.5246	1.4829	1.1195	1.4524	0.9137	0.5606	0.3611	-0.0954	0.5581	0.4841	0.2603	0.3211	0.7908	0.7327	2.0603	2.2506	2.0543	1.4533	1.6672	1.9934	1.2857	1.1397	0.9951	0.7234	-0.2506	0.3321	0.5418	0.4454	0.0663	1.0101
566.4062	1.4851	1.3737	1.0572	1.3824	0.8936	0.5155	0.3612	-0.1655	0.551	0.4595	0.2544	0.3223	0.7896	0.7079	2.0428	2.1636	2.0058	1.4319	1.6264	1.9203	1.2388	1.1456	0.9985	0.7423	-0.2231	0.3886	0.5713	0.4698	0.0447	1.0302
570.3125	1.4466	1.2653	0.988	1.3087	0.8641	0.4602	0.3429	-0.245	0.528	0.4145	0.2307	0.3037	0.767	0.67	2.0235	2.0698	1.9504	1.4181	1.5817	1.8354	1.1788	1.1443	1.0021	0.7474	-0.1894	0.4365	0.5889	0.4799	0.023	1.0586
574.2188	1.4153	1.1726	0.9217	1.2423	0.8323	0.4038	0.3079	-0.3267	0.4921	0.3555	0.1926	0.2692	0.7284	0.6261	2.0117	1.9843	1.9035	1.4227	1.547	1.7521	1.1168	1.1435	1.0133	0.742	-0.1465	0.4782	0.598	0.4775	0.006	1.097
578.125	1.397	1.1085	0.8674	1.1942	0.8059	0.3551	0.2599	-0.4033	0.4481	0.2907	0.1454	0.2254	0.6808	0.5833	2.0156	1.9197	1.8788	1.4521	1.5342	1.683	1.0631	1.1494	1.0383	0.7307	-0.0931	0.5172	0.6023	0.4651	-0.0025	1.1449
582.0312	1.3959	1.0825	0.8332	1.1732	0.7916	0.3212	0.2038	-0.4683	0.4013	0.2286	0.0949	0.1793	0.6311	0.5472	2.0409	1.8849	1.8851	1.5078	1.55	1.6371	1.0254	1.1656	1.0798	0.7173	-0.031	0.5565	0.6047	0.4458	0.0001	1.1998
585.9375	1.4154	1.0999	0.8247	1.1851	0.7948	0.3069	0.1457	-0.5165	0.3572	0.1767	0.047	0.1376	0.5853	0.5213	2.0898	1.8842	1.9255	1.5852	1.5948	1.6194	1.0085	1.1917	1.1365	0.7038	0.0339	0.5972	0.6058	0.4218	0.015	1.2577
589.8438	1.4575	1.1619	0.845	1.2322	0.8183	0.3147	0.0919	-0.5446	0.3204	0.1407	0.0061	0.1048	0.5474	0.5068	2.1614	1.9171	1.9964	1.6756	1.6631	1.6306	1.0132	1.2243	1.2024	0.6903	0.0933	0.6377	0.6041	0.395	0.042	1.3131
593.75	1.5227	1.2654	0.8948	1.313	0.8631	0.3448	0.0484	-0.5507	0.2946	0.1236	-0.0241	0.0832	0.519	0.5032	2.2517	1.98	2.0894	1.768	1.7449	1.6679	1.0379	1.2578	1.2689	0.6749	0.1374	0.6737	0.5965	0.3662	0.0799	1.3611
597.6562	1.61	1.4042	0.9717	1.4231	0.9277	0.3954	0.0204	-0.5351	0.2823	0.126	-0.0419	0.0731	0.5004	0.5088	2.3551	2.0668	2.1933	1.8512	1.8284	1.7264	1.0788	1.2867	1.3264	0.6546	0.1575	0.699	0.5796	0.336	0.1269	1.3975
601.5625	1.7161	1.5689	1.0713	1.5552	1.0086	0.463	0.0112	-0.4995	0.2852	0.1462	-0.0462	0.0731	0.4907	0.5218	2.4658	2.1707	2.2966	1.9165	1.9024	1.8005	1.1312	1.3064	1.3664	0.6266	0.1478	0.7066	0.551	0.3051	0.1805	1.4204
605.4688	1.8358	1.7483	1.1866	1.7002	1.1004	0.5427	0.0218	-0.4476	0.3045	0.181	-0.0372	0.0809	0.4884	0.5403	2.5782	2.284	2.3895	1.9588	1.959	1.8844	1.1896	1.3143	1.383	0.5891	0.1067	0.6908	0.5103	0.2739	0.2387	1.4296
609.375	1.9618	1.9294	1.3088	1.8473	1.1956	0.6279	0.0502	-0.3842	0.3401	0.2259	-0.0161	0.0937	0.4919	0.5622	2.6873	2.3988	2.4652	1.9771	1.9937	1.9718	1.2482	1.3095	1.3741	0.542	0.0369	0.6482	0.4593	0.2431	0.2989	1.4267
613.2812	2.0853	2.0988	1.428	1.9852	1.2854	0.7111	0.0916	-0.315	0.3907	0.2756	0.015	0.1084	0.4992	0.585	2.7879	2.5068	2.5198	1.9744	2.006	2.0563	1.3011	1.2922	1.3406	0.4871	-0.0552	0.5786	0.4017	0.2129	0.3587	1.4138
617.1875	2.1963	2.2439	1.534	2.103	1.3608	0.785	0.139	-0.2461	0.4534	0.3242	0.053	0.1221	0.5082	0.6057	2.8743	2.5994	2.5522	1.956	1.9984	2.1309	1.3426	1.2636	1.2867	0.4276	-0.1601	0.4858	0.3421	0.1832	0.4157	1.3928
621.0938	2.2852	2.3541	1.6177	2.1914	1.4135	0.843	0.1848	-0.1836	0.5234	0.3659	0.0938	0.1322	0.5171	0.6212	2.9402	2.6681	2.5631	1.9283	1.9751	2.1883	1.3677	1.2251	1.2189	0.3683	-0.2667	0.3774	0.2857	0.1539	0.4671	1.3645
625	2.3431	2.4217	1.672	2.2437	1.4376	0.8807	0.2218	-0.1329	0.5943	0.3957	0.1329	0.137	0.5238	0.6284	2.9785	2.7054	2.5541	1.8977	1.9411	2.221	1.3729	1.1784	1.1447	0.3139	-0.3632	0.2642	0.2373	0.125	0.5103	1.3291
628.9062	2.3633	2.4429	1.6923	2.2569	1.4304	0.8962	0.2444	-0.0986	0.6583	0.4095	0.1655	0.1354	0.5266	0.6249	2.9823	2.7055	2.527	1.8688	1.9006	2.2226	1.3563	1.1254	1.0718	0.2688	-0.4386	0.1589	0.2003	0.0974	0.5423	1.2857
632.8125	2.3416	2.4179	1.6773	2.2314	1.3924	0.89	0.2488	-0.0844	0.7073	0.4048	0.1869	0.1271	0.5235	0.6095	2.9461	2.665	2.4833	1.8447	1.8563	2.1883	1.3178	1.0683	1.0067	0.2361	-0.4844	0.0732	0.1766	0.0722	0.5602	1.2339
636.7188	2.2775	2.3508	1.6288	2.1717	1.3278	0.8651	0.2333	-0.0922	0.7335	0.3809	0.1925	0.1125	0.513	0.5821	2.8673	2.5839	2.4248	1.8262	1.8101	2.1164	1.2592	1.0097	0.9543	0.2165	-0.4958	0.0161	0.1654	0.0507	0.5619	1.1739
640.625	2.175	2.2495	1.5521	2.0858	1.244	0.8268	0.1985	-0.1221	0.7305	0.3388	0.1792	0.0915	0.4941	0.5444	2.7485	2.4659	2.3541	1.8131	1.7631	2.0093	1.1846	0.953	0.9173	0.2087	-0.4724	-0.0087	0.1643	0.0336	0.5464	1.1083
644.5312	2.0424	2.1252	1.4556	1.9844	1.1515	0.7824	0.1474	-0.1712	0.6948	0.2811	0.1453	0.0647	0.467	0.5001	2.5978	2.3193	2.2762	1.8053	1.7173	1.8744	1.1009	0.9025	0.897	0.2095	-0.4188	-0.003	0.1694	0.0209	0.5149	1.0424
648.4375	1.8918	1.991	1.3498	1.8798	1.0628	0.74	0.0857	-0.2339	0.6271	0.2128	0.0924	0.0332	0.4342	0.455	2.4288	2.1564	2.1978	1.8028	1.6762	1.7238	1.017	0.8631	0.8938	0.2158	-0.3432	0.0263	0.1769	0.0122	0.4706	0.9834
652.3438	1.7372	1.861	1.2466	1.7845	0.9912	0.708	0.0215	-0.3023	0.5331	0.141	0.0252	-0.0001	0.4004	0.4163	2.259	1.992	2.1276	1.8064	1.645	1.5735	0.9435	0.8399	0.9074	0.2252	-0.2558	0.0698	0.1841	0.0073	0.4181	0.9394
656.25	1.5929	1.7479	1.1574	1.7097	0.949	0.6935	-0.035	-0.3669	0.4239	0.0749	-0.0477	-0.0306	0.3729	0.3923	2.1067	1.8424	2.0743	1.8175	1.6295	1.4407	0.8914	0.8378	0.9374	0.2372	-0.1665	0.1183	0.1912	0.0071	0.3623	0.9173
660.1562	1.4716	1.6627	1.0923	1.6646	0.9463	0.7018	-0.0728	-0.4181	0.3143	0.0249	-0.1151	-0.052	0.3604	0.3912	1.9885	1.7229	2.0454	1.8381	1.6359	1.3419	0.8709	0.8609	0.9834	0.2539	-0.0829	0.1647	0.201	0.0137	0.3081	0.9216
664.0625	1.3833	1.614	1.0591	1.6555	0.9891	0.7354	-0.0818	-0.4477	0.2211	0.0018	-0.1651	-0.0573	0.3718	0.4207	1.9166	1.6468	2.0466	1.8705	1.669	1.2907	0.8902	0.9123	1.0446	0.2796	-0.0091	0.2061	0.2189	0.0304	0.2595	0.9533
667.9688	1.3355	1.6076	1.0627	1.6859	1.0787	0.7938	-0.0544	-0.4511	0.1596	0.0145	-0.1869	-0.0407	0.4152	0.4865	1.8976	1.6239	2.0805	1.9172	1.7318	1.296	0.9543	0.9942	1.1202	0.3202	0.0552	0.2439	0.2519	0.0612	0.2198	1.0097
671.875	1.3326	1.6465	1.1051	1.756	1.2109	0.8735	0.0125	-0.4279	0.1408	0.0683	-0.1733	0.0015	0.4957	0.5913	1.9315	1.6597	2.1468	1.9797	1.8243	1.3614	1.0642	1.1068	1.2084	0.3815	0.1137	0.2829	0.307	0.1097	0.1909	1.0849
675.7812	1.3754	1.7306	1.1848	1.8634	1.3767	0.9676	0.1169	-0.3827	0.1687	0.1637	-0.1217	0.0695	0.6148	0.7345	2.0127	1.7545	2.2424	2.0578	1.9437	1.4846	1.2171	1.2482	1.3056	0.4679	0.1718	0.3302	0.3894	0.1788	0.1733	1.1702
679.6875	1.4614	1.8564	1.2973	2.0025	1.5636	1.0676	0.2516	-0.3237	0.2399	0.2958	-0.0342	0.1602	0.7695	0.9113	2.1307	1.9036	2.3617	2.1483	2.0838	1.6583	1.4063	1.4135	1.4065	0.5806	0.2349	0.3923	0.501	0.2692	0.1659	1.2548
683.5938	1.5844	2.0169	1.435	2.1653	1.7573	1.1644	0.4059	-0.2606	0.3445	0.4547	0.0827	0.2677	0.9526	1.1135	2.2722	2.0973	2.4974	2.2446	2.2362	1.8712	1.622	1.5948	1.5039	0.7166	0.3059	0.4734	0.6393	0.3792	0.1664	1.3274
687.5	1.7346	2.2013	1.5883	2.3419	1.9447	1.2504	0.5674	-0.2021	0.4679	0.6277	0.2199	0.3845	1.1538	1.3302	2.423	2.3217	2.641	2.3372	2.3905	2.1091	1.8525	1.7812	1.59	0.8692	0.3845	0.5736	0.7976	0.5043	0.172	1.3777
691.4062	1.8994	2.3955	1.7466	2.5214	2.1156	1.3207	0.7245	-0.1535	0.5948	0.801	0.3674	0.5029	1.3611	1.5499	2.5702	2.5599	2.7836	2.4147	2.5362	2.3571	2.086	1.9608	1.6576	1.0284	0.467	0.6884	0.9655	0.6375	0.1799	1.3979
695.3125	2.0642	2.5839	1.899	2.6928	2.2647	1.3742	0.8682	-0.1159	0.7115	0.9626	0.5161	0.6158	1.5633	1.7619	2.7026	2.7939	2.9164	2.4666	2.6639	2.6002	2.3115	2.1224	1.7024	1.1835	0.5478	0.81	1.1312	0.7707	0.1877	1.3844
699.2188	2.2143	2.7504	2.0359	2.8464	2.3914	1.4135	0.9936	-0.0861	0.8082	1.1037	0.6584	0.7178	1.7514	1.958	2.8116	3.0059	3.0315	2.4849	2.7667	2.825	2.5209	2.258	1.7245	1.3252	0.6211	0.9284	1.2835	0.8953	0.1936	1.3378
703.125	2.3363	2.8808	2.1496	2.974	2.499	1.4437	1.0995	-0.0585	0.8804	1.2198	0.789	0.8051	1.9202	2.1338	2.8913	3.1809	3.1222	2.4664	2.8415	3.0209	2.7092	2.3641	1.7285	1.447	0.6825	1.0346	1.414	1.0043	0.1963	1.2625
707.0312	2.4191	2.9647	2.235	3.0702	2.5929	1.471	1.1881	-0.0269	0.9285	1.3107	0.9048	0.8759	2.0677	2.2886	2.937	3.3075	3.1839	2.4125	2.8883	3.1798	2.875	2.4426	1.7237	1.5467	0.7303	1.1217	1.5183	1.0932	0.194	1.1657
710.9375	2.4558	2.9965	2.2896	3.1321	2.6786	1.5009	1.2631	0.013	0.9569	1.3793	1.0041	0.9301	2.1953	2.4241	2.9456	3.3792	3.2129	2.3292	2.9103	3.2969	3.0191	2.4995	1.721	1.6258	0.7657	1.1872	1.5968	1.1606	0.1848	1.055
714.8438	2.443	2.9758	2.3133	3.1589	2.7591	1.5363	1.3284	0.0624	0.9721	1.431	1.0863	0.969	2.3057	2.5436	2.9147	3.3944	3.2073	2.2246	2.9118	3.37	3.1431	2.543	1.7305	1.6884	0.7924	1.2324	1.6541	1.2086	0.1654	0.9371
718.75	2.3814	2.9064	2.3074	3.1515	2.8344	1.5773	1.3871	0.1188	0.9813	1.4714	1.1513	0.995	2.4018	2.6496	2.8433	3.3552	3.1657	2.1073	2.8967	3.3988	3.2484	2.5803	1.7582	1.7395	0.8147	1.2619	1.6967	1.2414	0.1323	0.8163
722.6562	2.2748	2.7953	2.2745	3.1117	2.9011	1.6207	1.4403	0.1775	0.9908	1.5058	1.1995	1.0114	2.4851	2.7431	2.7323	3.2671	3.0881	1.9839	2.8669	3.3847	3.3343	2.6159	1.8038	1.7828	0.8358	1.2808	1.7313	1.2639	0.082	0.6945
726.5625	2.1293	2.6509	2.2173	3.0418	2.9532	1.6609	1.4874	0.2322	1.0047	1.5378	1.2315	1.0212	2.555	2.8223	2.5846	3.1372	2.9753	1.8586	2.822	3.3298	3.3981	2.6493	1.8602	1.8199	0.857	1.2929	1.7621	1.2803	0.0129	0.5715
730.4688	1.9525	2.4818	2.1383	2.9442	2.984	1.6912	1.5266	0.2774	1.0245	1.5693	1.2481	1.027	2.6089	2.8831	2.4057	2.9734	2.8296	1.7321	2.7591	3.237	3.4355	2.6759	1.9144	1.8493	0.8763	1.2993	1.7903	1.2925	-0.0742	0.4462
734.375	1.7528	2.2952	2.0401	2.8214	2.9878	1.7052	1.5558	0.3098	1.0494	1.6	1.2504	1.0304	2.6427	2.9201	2.2029	2.7836	2.6552	1.6031	2.6741	3.1099	3.4416	2.6874	1.9508	1.8676	0.8897	1.2981	1.8137	1.3003	-0.1751	0.3177
738.2812	1.5391	2.0972	1.9253	2.6765	2.9615	1.698	1.5735	0.3286	1.077	1.6282	1.2403	1.0318	2.6524	2.9276	1.985	2.5752	2.4584	1.469	2.5638	2.9533	3.4121	2.6752	1.9551	1.8704	0.8919	1.2855	1.8278	1.3012	-0.2826	0.187
742.1875	1.3208	1.8924	1.7972	2.5132	2.905	1.6672	1.5792	0.336	1.1037	1.6511	1.2201	1.0305	2.6357	2.9018	1.7612	2.3554	2.2472	1.3274	2.4274	2.7729	3.3455	2.6319	1.9177	1.8541	0.8777	1.2573	1.8276	1.2921	-0.3868	0.0564
746.0938	1.1067	1.6848	1.6598	2.3363	2.8219	1.6133	1.5739	0.3358	1.1259	1.6661	1.1926	1.0249	2.5922	2.8418	1.5402	2.1309	2.0312	1.1774	2.2675	2.5763	3.2434	2.5542	1.8357	1.8168	0.8434	1.2109	1.8092	1.2698	-0.4771	-0.0698
750	0.9051	1.4782	1.518	2.1518	2.7185	1.5399	1.5597	0.3321	1.1405	1.6707	1.1612	1.0128	2.5249	2.7504	1.3297	1.9079	1.8196	1.0201	2.0904	2.3719	3.1114	2.4432	1.7142	1.7596	0.7879	1.1459	1.7711	1.2326	-0.5437	-0.1864
753.9062	0.7218	1.2763	1.3768	1.9663	2.6024	1.4525	1.5387	0.3285	1.1448	1.6639	1.1289	0.9921	2.4391	2.6339	1.135	1.6916	1.6206	0.859	1.905	2.1684	2.9577	2.3047	1.5645	1.6856	0.7132	1.0651	1.7145	1.1807	-0.5804	-0.2888
757.8125	0.5596	1.0821	1.2403	1.7858	2.4815	1.3579	1.513	0.3271	1.1369	1.6461	1.0985	0.9618	2.342	2.5013	0.9585	1.4858	1.4393	0.6988	1.721	1.9736	2.7926	2.1481	1.4021	1.6003	0.6243	0.9735	1.6432	1.1169	-0.5858	-0.3745
761.7188	0.4166	0.8973	1.1111	1.6146	2.3619	1.262	1.4835	0.3281	1.1159	1.6191	1.0721	0.9223	2.2415	2.3625	0.7992	1.2921	1.277	0.5443	1.5468	1.7932	2.6257	1.9842	1.2433	1.5102	0.5293	0.8785	1.5635	1.0463	-0.5648	-0.4439
765.625	0.2867	0.7213	0.9887	1.4536	2.2468	1.169	1.4501	0.3299	1.0819	1.5858	1.0511	0.8765	2.1446	2.2264	0.652	1.1087	1.13	0.3986	1.3875	1.6289	2.4646	1.8236	1.1023	1.4217	0.4381	0.7884	1.4823	0.9759	-0.5281	-0.5015
769.5312	0.1594	0.5501	0.8694	1.2991	2.1352	1.0795	1.4112	0.3299	1.036	1.5493	1.0357	0.8285	2.0555	2.0987	0.5082	0.93	0.99	0.2614	1.2431	1.478	2.3129	1.6747	0.9889	1.3405	0.3607	0.7121	1.4066	0.9135	-0.4919	-0.5556
773.4375	0.0208	0.3763	0.7459	1.1431	2.0221	0.99	1.3641	0.3249	0.9802	1.5119	1.0255	0.7836	1.9753	1.9806	0.3566	0.7471	0.8452	0.1287	1.1089	1.3335	2.1694	1.542	0.9069	1.2704	0.3063	0.6582	1.3424	0.8666	-0.475	-0.6177
777.3438	-0.1436	0.1901	0.6091	0.9744	1.8992	0.894	1.3057	0.3123	0.917	1.475	1.0188	0.7463	1.9015	1.8689	0.185	0.5487	0.6821	-0.0069	0.9761	1.1846	2.0285	1.4257	0.8548	1.2129	0.2814	0.6332	1.2932	0.8411	-0.4968	-0.7006
781.25	-0.3472	-0.0187	0.4494	0.781	1.7571	0.7832	1.233	0.29	0.8486	1.4385	1.0133	0.7199	1.8289	1.7573	-0.0179	0.3236	0.4885	-0.1545	0.834	1.0197	1.8817	1.3223	0.8262	1.1673	0.2891	0.6414	1.2605	0.8405	-0.5727	-0.8161
785.1562	-0.5986	-0.258	0.2596	0.5537	1.5884	0.6507	1.1442	0.2578	0.7767	1.4015	1.0068	0.7056	1.7518	1.6385	-0.2592	0.0637	0.2557	-0.3223	0.6732	0.8289	1.7202	1.2258	0.8125	1.1312	0.3286	0.6835	1.2433	0.8649	-0.7115	-0.972
789.0625	-0.899	-0.5308	0.0372	0.2889	1.3898	0.4932	1.0396	0.2165	0.7025	1.363	0.9978	0.7024	1.6658	1.507	-0.5403	-0.2339	-0.018	-0.5145	0.4882	0.6075	1.5384	1.1301	0.8049	1.1013	0.3948	0.7556	1.2387	0.9112	-0.9117	-1.1697
792.9688	-1.2408	-0.8336	-0.2136	-0.0094	1.1644	0.3128	0.9221	0.1682	0.6269	1.3224	0.9857	0.7076	1.5694	1.3613	-0.8554	-0.5648	-0.327	-0.73	0.2796	0.3575	1.3358	1.0306	0.7963	1.0738	0.4795	0.8495	1.2421	0.9732	-1.1609	-1.4024
796.875	-1.6078	-1.1561	-0.4826	-0.3295	0.9214	0.1175	0.797	0.1163	0.5508	1.2803	0.9711	0.7171	1.4647	1.2043	-1.1917	-0.9172	-0.6583	-0.9616	0.0538	0.0878	1.1178	0.9252	0.7824	1.0458	0.5724	0.9536	1.2483	1.0425	-1.4375	-1.6563
