time	FP1	F3	F7	FC3	C3	C5	P3	P7	PO7	PO3	O1	Oz	Pz	CPz	FP2	Fz	F4	F8	FC4	FCz	Cz	C4	C6	P4	P8	PO8	PO4	O2	HEOG_left	HEOG_right
-199.2188	-0.2433	-0.1025	0.1701	0.2349	0.7274	0.1478	0.7713	0.0924	-0.0151	0.6048	0.2815	0.8274	2.0291	1.8175	0.1045	-0.2787	0.0359	0.41	0.1334	0.4486	1.2894	0.5791	0.2027	1.7845	0.7965	1.7353	1.7085	1.2466	-0.9137	-0.6572
-195.3125	-0.255	-0.1231	0.1416	0.2711	0.6753	0.1165	0.8023	0.239	0.0643	0.6022	0.3137	0.675	1.8531	1.6476	0.1112	-0.2585	-0.0854	0.3451	0.0858	0.4268	1.1418	0.5433	0.212	1.5901	0.6863	1.5348	1.4904	0.9996	-0.9208	-0.7246
-191.4062	-0.2601	-0.1423	0.1204	0.3058	0.6373	0.0933	0.8396	0.3783	0.1453	0.6079	0.3534	0.5459	1.6977	1.4989	0.113	-0.234	-0.1905	0.2875	0.054	0.4143	1.0104	0.5148	0.2215	1.4124	0.5848	1.353	1.2917	0.7754	-0.9244	-0.7891
-187.5	-0.2553	-0.1574	0.1117	0.3376	0.6223	0.0848	0.8846	0.5022	0.2264	0.626	0.4037	0.4579	1.5778	1.3853	0.1046	-0.2025	-0.2642	0.2432	0.0489	0.4171	0.9066	0.4987	0.2309	1.2647	0.4999	1.2038	1.1281	0.5933	-0.924	-0.8485
-183.5938	-0.2389	-0.1657	0.119	0.3659	0.634	0.0944	0.936	0.6048	0.3056	0.6576	0.4653	0.4214	1.5017	1.3131	0.0826	-0.1617	-0.2956	0.2157	0.0775	0.4382	0.8362	0.4984	0.2393	1.1549	0.4356	1.0966	1.0101	0.4658	-0.9188	-0.8995
-179.6875	-0.2112	-0.1639	0.1431	0.3911	0.6705	0.1222	0.9891	0.6832	0.3806	0.7006	0.5361	0.4372	1.4692	1.2795	0.047	-0.1115	-0.28	0.2056	0.1405	0.4764	0.7984	0.5145	0.2446	1.0849	0.3917	1.0336	0.9411	0.3965	-0.9074	-0.9375
-175.7812	-0.1749	-0.1492	0.1821	0.4135	0.7236	0.1645	1.0364	0.7372	0.4477	0.7493	0.6101	0.497	1.4718	1.273	0.0002	-0.0541	-0.2204	0.2102	0.2307	0.5259	0.7857	0.5434	0.2434	1.0495	0.3649	1.0105	0.9171	0.3807	-0.8884	-0.9574
-171.875	-0.1344	-0.1206	0.231	0.4325	0.7807	0.2154	1.0688	0.7686	0.5026	0.7956	0.6785	0.5846	1.494	1.2759	-0.0534	0.0051	-0.1273	0.2233	0.333	0.5766	0.7852	0.577	0.2314	1.0377	0.3496	1.016	0.9273	0.4056	-0.861	-0.9547
-167.9688	-0.0957	-0.0793	0.2826	0.4463	0.8268	0.2671	1.0776	0.7798	0.5405	0.8303	0.731	0.6795	1.5163	1.2679	-0.1091	0.0577	-0.0178	0.2358	0.4267	0.6159	0.7812	0.6041	0.2037	1.0346	0.34	1.0341	0.9559	0.4535	-0.8256	-0.9275
-164.0625	-0.0653	-0.0299	0.3279	0.451	0.8476	0.3114	1.0562	0.7736	0.5571	0.8447	0.758	0.7601	1.5186	1.2302	-0.1625	0.0934	0.0867	0.2376	0.489	0.6302	0.7586	0.6114	0.1566	1.0239	0.3309	1.0454	0.984	0.5042	-0.7842	-0.8773
-160.1562	-0.0486	0.02	0.358	0.4424	0.8323	0.3415	1.0015	0.7525	0.5497	0.8324	0.7529	0.8076	1.4839	1.1495	-0.2104	0.1019	0.1645	0.2195	0.4996	0.608	0.7056	0.5863	0.088	0.9907	0.318	1.0311	0.9933	0.539	-0.7399	-0.809
-156.25	-0.0486	0.0608	0.366	0.4171	0.7768	0.3532	0.9152	0.719	0.5186	0.7908	0.7134	0.8096	1.4012	1.0206	-0.2507	0.0754	0.1976	0.1752	0.4457	0.5428	0.6167	0.5198	-0.0009	0.9238	0.2979	0.9763	0.9688	0.543	-0.6957	-0.7302
-152.3438	-0.065	0.0828	0.3482	0.3734	0.6844	0.3467	0.8036	0.6759	0.4675	0.7217	0.6426	0.7617	1.2673	0.8476	-0.2821	0.0107	0.1754	0.1029	0.3248	0.4342	0.4932	0.4085	-0.1055	0.8179	0.2688	0.8732	0.9012	0.5081	-0.6529	-0.6489
-148.4375	-0.0939	0.0785	0.3053	0.3123	0.5648	0.3251	0.6765	0.6266	0.403	0.6307	0.548	0.668	1.0868	0.6424	-0.3048	-0.0887	0.0975	0.006	0.146	0.289	0.3433	0.256	-0.218	0.6739	0.2297	0.7234	0.7889	0.4336	-0.6109	-0.572
-144.5312	-0.1292	0.0446	0.2417	0.2362	0.432	0.2939	0.5453	0.5746	0.334	0.5263	0.44	0.5401	0.8709	0.4222	-0.3204	-0.2132	-0.0252	-0.1074	-0.0712	0.1195	0.1795	0.0725	-0.329	0.4989	0.1807	0.5375	0.6377	0.3256	-0.5671	-0.5044
-140.625	-0.1643	-0.0172	0.1643	0.1483	0.2999	0.2579	0.4208	0.5233	0.2691	0.418	0.3298	0.3943	0.6354	0.2056	-0.3326	-0.348	-0.1729	-0.2261	-0.3003	-0.058	0.0158	-0.1263	-0.4283	0.3046	0.1237	0.3336	0.4597	0.196	-0.5189	-0.4487
-136.7188	-0.1945	-0.1	0.0805	0.0514	0.1794	0.22	0.311	0.4746	0.2148	0.3142	0.2265	0.2483	0.3971	0.009	-0.3457	-0.4755	-0.3202	-0.3376	-0.5125	-0.2267	-0.1349	-0.3216	-0.5068	0.1061	0.0619	0.1338	0.2709	0.0595	-0.4646	-0.4058
-132.8125	-0.218	-0.1934	-0.0033	-0.0524	0.0762	0.1797	0.2197	0.4293	0.1742	0.2208	0.1359	0.1179	0.172	-0.1558	-0.3636	-0.5789	-0.4423	-0.4299	-0.6819	-0.3713	-0.2631	-0.4945	-0.557	-0.0809	0.0006	-0.04	0.0883	-0.0687	-0.4055	-0.3757
-128.9062	-0.2363	-0.2851	-0.0827	-0.1612	-0.01	0.134	0.1465	0.3857	0.1461	0.1408	0.0595	0.0144	-0.0269	-0.2828	-0.3885	-0.645	-0.5203	-0.4937	-0.7899	-0.4808	-0.3639	-0.6286	-0.5743	-0.2415	-0.0536	-0.1699	-0.0724	-0.1756	-0.3456	-0.3576
-125	-0.2528	-0.364	-0.1556	-0.2722	-0.0839	0.0786	0.0879	0.341	0.1264	0.0742	-0.0046	-0.0573	-0.1907	-0.3716	-0.4194	-0.6671	-0.5457	-0.5238	-0.8282	-0.5498	-0.4371	-0.7125	-0.5564	-0.3641	-0.094	-0.2452	-0.1991	-0.2517	-0.2909	-0.3496
-121.0938	-0.2713	-0.4219	-0.2217	-0.3816	-0.1526	0.0096	0.0382	0.2914	0.1095	0.0192	-0.0607	-0.0984	-0.3146	-0.4264	-0.452	-0.6464	-0.5217	-0.5193	-0.8002	-0.5791	-0.4856	-0.7409	-0.5041	-0.4409	-0.1147	-0.264	-0.2844	-0.2924	-0.2472	-0.3486
-117.1875	-0.2941	-0.455	-0.2811	-0.4837	-0.2228	-0.0746	-0.008	0.2337	0.0903	-0.0263	-0.113	-0.1149	-0.3979	-0.4538	-0.4799	-0.5913	-0.4611	-0.4839	-0.7194	-0.5748	-0.5144	-0.7154	-0.4207	-0.4695	-0.1127	-0.2327	-0.3255	-0.2969	-0.2186	-0.3495
-113.2812	-0.3206	-0.4639	-0.3338	-0.5715	-0.2985	-0.1723	-0.0548	0.1664	0.0659	-0.0643	-0.1639	-0.115	-0.4431	-0.4612	-0.496	-0.5156	-0.3824	-0.4243	-0.6059	-0.5471	-0.5286	-0.6432	-0.3121	-0.4525	-0.0883	-0.1646	-0.3242	-0.2682	-0.2057	-0.3462
-109.375	-0.3474	-0.453	-0.3792	-0.6381	-0.3803	-0.2784	-0.1047	0.0901	0.0364	-0.0957	-0.213	-0.1074	-0.4561	-0.4556	-0.4941	-0.4349	-0.3048	-0.3496	-0.4817	-0.5075	-0.5328	-0.5363	-0.1866	-0.3973	-0.0459	-0.077	-0.2864	-0.2124	-0.2053	-0.3318
-105.4688	-0.3693	-0.428	-0.4156	-0.6777	-0.4647	-0.385	-0.1583	0.0078	0.0036	-0.1212	-0.2576	-0.0993	-0.4452	-0.4427	-0.4706	-0.3631	-0.2428	-0.2689	-0.3661	-0.467	-0.5301	-0.4091	-0.0544	-0.3156	0.0068	0.0117	-0.2216	-0.1379	-0.2109	-0.3006
-101.5625	-0.3804	-0.3946	-0.4405	-0.6872	-0.5452	-0.4824	-0.2157	-0.0766	-0.0299	-0.1419	-0.2942	-0.0959	-0.4204	-0.4263	-0.425	-0.309	-0.2035	-0.19	-0.2716	-0.4331	-0.5223	-0.2762	0.0742	-0.2212	0.0603	0.0853	-0.142	-0.055	-0.2143	-0.2491
-97.6562	-0.3753	-0.3557	-0.4513	-0.6657	-0.6137	-0.5604	-0.2764	-0.1589	-0.0625	-0.16	-0.3199	-0.1009	-0.3922	-0.4089	-0.3599	-0.2747	-0.1852	-0.1187	-0.2022	-0.4092	-0.5098	-0.1502	0.189	-0.1286	0.1056	0.1314	-0.0617	0.025	-0.2071	-0.1766
-93.75	-0.3505	-0.3112	-0.4451	-0.6153	-0.6616	-0.61	-0.3398	-0.2357	-0.0942	-0.1783	-0.3342	-0.1163	-0.3703	-0.3917	-0.2803	-0.2553	-0.1793	-0.0578	-0.1544	-0.3935	-0.4921	-0.0405	0.2826	-0.0509	0.136	0.1439	0.0061	0.0911	-0.1826	-0.0851
-89.8438	-0.3047	-0.2576	-0.4197	-0.5395	-0.6819	-0.624	-0.4047	-0.3048	-0.1267	-0.1996	-0.3387	-0.1428	-0.362	-0.3752	-0.1929	-0.241	-0.1729	-0.0076	-0.1194	-0.3805	-0.4678	0.0477	0.3505	0.0024	0.1488	0.1226	0.0506	0.1344	-0.1367	0.021
-85.9375	-0.2387	-0.1894	-0.3736	-0.4433	-0.67	-0.599	-0.4684	-0.365	-0.1618	-0.2256	-0.3369	-0.1794	-0.3706	-0.3593	-0.1046	-0.2196	-0.1531	0.0335	-0.0864	-0.362	-0.4355	0.1128	0.3917	0.0263	0.1455	0.0734	0.0656	0.1499	-0.0683	0.1364
-82.0312	-0.1555	-0.1012	-0.3069	-0.332	-0.6255	-0.5356	-0.5266	-0.4156	-0.2004	-0.2558	-0.3325	-0.2231	-0.3957	-0.344	-0.0208	-0.1799	-0.11	0.0688	-0.0454	-0.3303	-0.394	0.1562	0.409	0.0207	0.131	0.0066	0.0507	0.1378	0.0209	0.2562
-78.125	-0.0593	0.009	-0.222	-0.2121	-0.5522	-0.4392	-0.5739	-0.4565	-0.2416	-0.2877	-0.3282	-0.269	-0.4335	-0.3297	0.0555	-0.1147	-0.0394	0.1018	0.0098	-0.2801	-0.3435	0.1814	0.4076	-0.0102	0.112	-0.0655	0.0109	0.1037	0.1278	0.3769
-74.2188	0.0447	0.1384	-0.124	-0.0906	-0.4585	-0.3196	-0.6048	-0.4882	-0.2822	-0.3166	-0.3249	-0.3106	-0.4782	-0.317	0.1243	-0.0223	0.0565	0.1357	0.0813	-0.21	-0.2864	0.193	0.3941	-0.0597	0.0945	-0.1313	-0.045	0.057	0.2487	0.4964
-70.3125	0.1513	0.2785	-0.0204	0.0246	-0.3557	-0.1896	-0.6152	-0.5118	-0.3177	-0.3377	-0.3214	-0.3416	-0.5242	-0.3075	0.1873	0.0928	0.1697	0.1722	0.1662	-0.1234	-0.2271	0.195	0.3748	-0.1207	0.0823	-0.1823	-0.1072	0.0086	0.3793	0.6136
-66.4062	0.255	0.4163	0.08	0.1252	-0.2567	-0.0631	-0.6041	-0.529	-0.3433	-0.3466	-0.3154	-0.3575	-0.5675	-0.3036	0.2464	0.2217	0.288	0.2107	0.2575	-0.0279	-0.1713	0.1906	0.3542	-0.187	0.0755	-0.2154	-0.1675	-0.0322	0.5153	0.7275
-62.5	0.3507	0.5374	0.1681	0.2035	-0.1735	0.0472	-0.574	-0.5419	-0.3555	-0.3416	-0.305	-0.3566	-0.6067	-0.3085	0.3025	0.3526	0.3981	0.2483	0.3451	0.0667	-0.1249	0.1809	0.3339	-0.2551	0.0705	-0.2342	-0.2218	-0.0604	0.651	0.8351
-58.5938	0.4329	0.6286	0.2357	0.2539	-0.1148	0.1316	-0.5314	-0.5525	-0.3529	-0.324	-0.2894	-0.3411	-0.6437	-0.3256	0.3546	0.4737	0.4881	0.28	0.4179	0.1497	-0.0929	0.1652	0.3126	-0.3245	0.0608	-0.248	-0.2713	-0.0763	0.7797	0.9312
-54.6875	0.4965	0.6806	0.277	0.2734	-0.0853	0.185	-0.4858	-0.5625	-0.3375	-0.2994	-0.27	-0.3168	-0.6824	-0.3583	0.3998	0.5748	0.5497	0.2998	0.4652	0.2119	-0.078	0.1411	0.2861	-0.3971	0.0383	-0.2702	-0.3218	-0.0856	0.8933	1.0083
-50.7812	0.5372	0.6894	0.2892	0.2625	-0.0846	0.2067	-0.4479	-0.5727	-0.3138	-0.2764	-0.2506	-0.2917	-0.7279	-0.4082	0.4339	0.6486	0.5788	0.3019	0.4791	0.2468	-0.0802	0.1054	0.2493	-0.4762	-0.0046	-0.3157	-0.3822	-0.098	0.984	1.0585
-46.875	0.5528	0.6561	0.2728	0.2252	-0.1081	0.2005	-0.428	-0.5831	-0.2884	-0.2656	-0.2358	-0.275	-0.7847	-0.4755	0.4527	0.6917	0.5761	0.2819	0.4567	0.252	-0.0977	0.0553	0.1976	-0.5653	-0.0732	-0.3967	-0.4616	-0.1241	1.0451	1.0748
-42.9688	0.5443	0.5872	0.2319	0.1687	-0.1482	0.1733	-0.433	-0.5925	-0.2684	-0.2771	-0.2308	-0.2751	-0.8553	-0.5571	0.4533	0.704	0.5452	0.2383	0.4007	0.2288	-0.1266	-0.0102	0.1288	-0.6659	-0.169	-0.5202	-0.5666	-0.1734	1.0736	1.0548
-39.0625	0.5158	0.493	0.1734	0.1025	-0.1957	0.1344	-0.4652	-0.5992	-0.259	-0.3176	-0.2389	-0.2973	-0.939	-0.6479	0.436	0.6886	0.4922	0.1731	0.3193	0.1824	-0.1626	-0.0891	0.0445	-0.7767	-0.2886	-0.6853	-0.6988	-0.2509	1.0712	1.0013
-35.1562	0.474	0.3861	0.106	0.037	-0.2418	0.0933	-0.5211	-0.6005	-0.2632	-0.389	-0.2612	-0.3431	-1.0319	-0.7405	0.4055	0.6512	0.4238	0.0921	0.2242	0.1203	-0.2015	-0.1762	-0.0497	-0.8923	-0.4234	-0.8824	-0.8536	-0.3557	1.0441	0.923
-31.25	0.4263	0.2789	0.0385	-0.0183	-0.2797	0.058	-0.5917	-0.5939	-0.2802	-0.4869	-0.296	-0.4091	-1.1276	-0.8273	0.3701	0.598	0.3473	0.0042	0.128	0.0506	-0.2401	-0.2641	-0.1456	-1.004	-0.5612	-1.0942	-1.02	-0.481	1.0025	0.8332
-27.3438	0.3791	0.1807	-0.0226	-0.0574	-0.3057	0.0335	-0.6649	-0.5778	-0.3059	-0.6018	-0.3386	-0.4875	-1.2183	-0.9019	0.3405	0.5351	0.2698	-0.0799	0.0412	-0.0199	-0.2771	-0.3445	-0.2338	-1.1008	-0.6872	-1.2985	-1.1825	-0.6148	0.9584	0.7473
-23.4375	0.3364	0.0965	-0.0744	-0.0792	-0.3204	0.02	-0.7278	-0.5522	-0.3345	-0.7203	-0.3831	-0.5682	-1.297	-0.9605	0.3273	0.4671	0.1976	-0.15	-0.0297	-0.0868	-0.3124	-0.4102	-0.3065	-1.1721	-0.7872	-1.472	-1.3238	-0.7429	0.9231	0.6796
-19.5312	0.299	0.026	-0.1178	-0.0878	-0.3281	0.0136	-0.7704	-0.5192	-0.3595	-0.8286	-0.4231	-0.6404	-1.3588	-1.0028	0.3378	0.3962	0.1355	-0.1982	-0.0827	-0.149	-0.3475	-0.4568	-0.359	-1.21	-0.8493	-1.5941	-1.428	-0.8506	0.905	0.6407
-15.625	0.2655	-0.0357	-0.1567	-0.0921	-0.3362	0.0066	-0.7875	-0.483	-0.3755	-0.9142	-0.4533	-0.6946	-1.4014	-1.0318	0.3736	0.3226	0.0858	-0.2211	-0.1199	-0.2082	-0.3842	-0.4832	-0.3903	-1.2106	-0.8656	-1.6503	-1.4832	-0.9256	0.9071	0.6355
-11.7188	0.2337	-0.0955	-0.1964	-0.1031	-0.3533	-0.0104	-0.7794	-0.449	-0.3786	-0.9681	-0.47	-0.7236	-1.4251	-1.0522	0.4278	0.2446	0.0476	-0.2208	-0.1461	-0.2675	-0.4237	-0.4916	-0.4032	-1.1754	-0.8334	-1.6337	-1.4832	-0.9588	0.9264	0.6616
-7.8125	0.2021	-0.1604	-0.2412	-0.1312	-0.3875	-0.046	-0.752	-0.4226	-0.3674	-0.9858	-0.4711	-0.723	-1.4323	-1.0686	0.4865	0.1607	0.0166	-0.2044	-0.1675	-0.3297	-0.4655	-0.4863	-0.4032	-1.1105	-0.7549	-1.5459	-1.428	-0.9456	0.9542	0.7101
-3.9062	0.1709	-0.2346	-0.2928	-0.1833	-0.4441	-0.1057	-0.7143	-0.4076	-0.3425	-0.9676	-0.456	-0.6914	-1.4255	-1.0837	0.5318	0.0705	-0.0133	-0.1824	-0.1899	-0.3958	-0.507	-0.4728	-0.3968	-1.0248	-0.6367	-1.3957	-1.3233	-0.8857	0.9774	0.7672
0	0.1416	-0.3177	-0.3495	-0.2605	-0.5237	-0.1896	-0.6765	-0.4059	-0.3065	-0.9182	-0.4252	-0.6303	-1.4067	-1.0969	0.5469	-0.0238	-0.0479	-0.1653	-0.217	-0.4635	-0.5432	-0.4553	-0.3904	-0.9284	-0.4894	-1.1979	-1.1795	-0.7835	0.9825	0.8175
3.9062	0.1173	-0.4043	-0.4065	-0.3565	-0.621	-0.2925	-0.6473	-0.4171	-0.2634	-0.8459	-0.3806	-0.5441	-1.3766	-1.1043	0.5224	-0.1161	-0.0899	-0.1607	-0.2492	-0.5271	-0.5671	-0.4359	-0.3882	-0.8307	-0.3265	-0.971	-1.0104	-0.6479	0.9589	0.8472
7.8125	0.1016	-0.4832	-0.4555	-0.4576	-0.7243	-0.4029	-0.6319	-0.4378	-0.2183	-0.7607	-0.3252	-0.4405	-1.3343	-1.0992	0.4596	-0.1962	-0.137	-0.1704	-0.2827	-0.577	-0.5702	-0.4133	-0.3916	-0.7389	-0.1637	-0.735	-0.8317	-0.4919	0.9024	0.8477
11.7188	0.099	-0.5389	-0.4862	-0.5435	-0.8157	-0.5041	-0.6303	-0.463	-0.1763	-0.6725	-0.263	-0.3288	-1.2773	-1.0731	0.3713	-0.2503	-0.1812	-0.1893	-0.3092	-0.601	-0.5432	-0.3825	-0.3973	-0.657	-0.0171	-0.5096	-0.6589	-0.331	0.8173	0.8175
15.625	0.1139	-0.5538	-0.487	-0.5899	-0.8727	-0.5762	-0.6359	-0.4854	-0.1409	-0.5883	-0.1985	-0.2198	-1.2018	-1.0167	0.2801	-0.2628	-0.2094	-0.2058	-0.317	-0.5851	-0.477	-0.3352	-0.3978	-0.5856	0.0985	-0.3113	-0.5056	-0.1811	0.7157	0.7626
19.5312	0.1506	-0.5118	-0.4468	-0.5726	-0.8713	-0.5987	-0.6366	-0.4964	-0.1129	-0.5111	-0.1354	-0.1229	-1.1032	-0.9214	0.2135	-0.2189	-0.2063	-0.2043	-0.2924	-0.5157	-0.3639	-0.2614	-0.3814	-0.5216	0.1726	-0.1525	-0.381	-0.0555	0.615	0.6941
23.4375	0.2118	-0.4025	-0.3581	-0.4732	-0.7908	-0.5549	-0.6165	-0.4872	-0.0903	-0.4391	-0.0759	-0.0454	-0.9768	-0.7812	0.1977	-0.1084	-0.1582	-0.1684	-0.2235	-0.3828	-0.1992	-0.1522	-0.335	-0.4594	0.2007	-0.04	-0.2885	0.0372	0.5336	0.6257
27.3438	0.2978	-0.2255	-0.2192	-0.2846	-0.619	-0.4361	-0.5602	-0.4504	-0.0682	-0.3675	-0.0208	0.0089	-0.8198	-0.5944	0.2509	0.0702	-0.0573	-0.0859	-0.1041	-0.1835	0.0161	-0.0034	-0.2479	-0.3926	0.1857	0.0249	-0.2264	0.0939	0.487	0.57
31.25	0.4047	0.0064	-0.0373	-0.0154	-0.358	-0.2454	-0.4572	-0.382	-0.0414	-0.291	0.0303	0.0393	-0.6334	-0.3666	0.3784	0.3067	0.0948	0.0468	0.0621	0.0745	0.2734	0.1808	-0.1153	-0.3166	0.1373	0.046	-0.1884	0.1167	0.4836	0.5357
35.1562	0.5238	0.2675	0.1708	0.3087	-0.0268	0.0001	-0.307	-0.2833	-0.0064	-0.2072	0.0768	0.0469	-0.4252	-0.1121	0.57	0.5788	0.2855	0.2223	0.2604	0.3711	0.5546	0.3864	0.0576	-0.2307	0.0702	0.0308	-0.1672	0.1115	0.5232	0.5261
39.0625	0.6425	0.5225	0.3801	0.6478	0.3389	0.2707	-0.1212	-0.1623	0.0366	-0.1195	0.117	0.0339	-0.2101	0.1464	0.8011	0.8542	0.4928	0.4221	0.4656	0.6757	0.8334	0.5897	0.2549	-0.1399	0.0015	-0.0111	-0.1562	0.0852	0.5972	0.539
42.9688	0.7456	0.7335	0.5616	0.9552	0.6915	0.5277	0.0768	-0.0331	0.0827	-0.0373	0.1467	0.0025	-0.0093	0.3805	1.0377	1.0971	0.6894	0.6199	0.6475	0.9518	1.0787	0.7618	0.4522	-0.054	-0.0523	-0.0686	-0.1516	0.0443	0.6909	0.5686
46.875	0.8188	0.8688	0.6876	1.1866	0.9797	0.7305	0.2558	0.0857	0.1224	0.0249	0.1606	-0.0454	0.1533	0.5616	1.2438	1.2758	0.8492	0.7872	0.7779	1.1638	1.2602	0.875	0.6208	0.0147	-0.0783	-0.1304	-0.1526	-0.0062	0.787	0.6076
50.7812	0.8514	0.9109	0.7385	1.31	1.1588	0.845	0.3827	0.1739	0.1443	0.0512	0.1537	-0.1073	0.2564	0.6668	1.3887	1.3696	0.9532	0.9001	0.8376	1.2853	1.3553	0.9093	0.7348	0.0548	-0.0688	-0.1858	-0.1604	-0.0625	0.8699	0.6495
54.6875	0.8393	0.8611	0.7076	1.3127	1.2001	0.8506	0.4307	0.2148	0.1384	0.0283	0.1233	-0.1795	0.2858	0.6842	1.4529	1.3742	0.9939	0.9443	0.8223	1.3041	1.3537	0.8581	0.7759	0.0593	-0.0226	-0.2259	-0.1771	-0.1221	0.9283	0.6908
58.5938	0.7854	0.7395	0.6026	1.204	1.097	0.7456	0.3848	0.1981	0.099	-0.0495	0.0704	-0.2569	0.2381	0.6151	1.4309	1.3019	0.9774	0.918	0.7443	1.2247	1.2605	0.7301	0.7382	0.0276	0.0546	-0.245	-0.2035	-0.1827	0.9575	0.7307
62.5	0.6987	0.58	0.4444	1.0117	0.8655	0.5468	0.2458	0.1238	0.0271	-0.1786	0.0008	-0.3331	0.1211	0.4736	1.3298	1.1784	0.9209	0.8316	0.6299	1.0661	1.0939	0.5477	0.6291	-0.0339	0.1522	-0.241	-0.239	-0.2416	0.9586	0.7701
66.4062	0.592	0.4215	0.2617	0.7754	0.5406	0.2853	0.0305	0.0023	-0.0687	-0.3453	-0.0765	-0.4011	-0.0478	0.2817	1.1662	1.0355	0.8485	0.7045	0.5132	0.8568	0.8807	0.3416	0.4675	-0.1134	0.2569	-0.2161	-0.2804	-0.2956	0.9373	0.8108
70.3125	0.4786	0.2981	0.0841	0.5361	0.1682	-0.0003	-0.2323	-0.1468	-0.1747	-0.5282	-0.1511	-0.4553	-0.2463	0.0648	0.9617	0.9032	0.7842	0.5604	0.4271	0.6278	0.65	0.1441	0.28	-0.1966	0.3561	-0.1754	-0.323	-0.341	0.9015	0.8535
74.2188	0.3706	0.2314	-0.0636	0.3282	-0.2026	-0.271	-0.5069	-0.2987	-0.2749	-0.7021	-0.2138	-0.4919	-0.4506	-0.1533	0.739	0.8037	0.7472	0.4224	0.395	0.4072	0.4281	-0.0172	0.0967	-0.2691	0.4413	-0.1258	-0.3608	-0.3741	0.8594	0.8979
78.125	0.2775	0.227	-0.1649	0.1748	-0.5268	-0.4932	-0.7561	-0.4284	-0.3544	-0.8427	-0.258	-0.5101	-0.6388	-0.3523	0.5194	0.7479	0.7477	0.3102	0.4265	0.2167	0.2359	-0.1232	-0.0529	-0.3183	0.5106	-0.0731	-0.3867	-0.3912	0.8181	0.9419
82.0312	0.2072	0.2766	-0.2124	0.0872	-0.7671	-0.6413	-0.947	-0.5151	-0.4028	-0.9298	-0.2806	-0.5107	-0.7911	-0.5147	0.3222	0.7367	0.7873	0.2384	0.5164	0.0721	0.0898	-0.1633	-0.1431	-0.3335	0.5696	-0.0201	-0.3929	-0.3887	0.7824	0.983
85.9375	0.1664	0.3635	-0.2053	0.0678	-0.8959	-0.6989	-1.0538	-0.546	-0.4151	-0.9503	-0.281	-0.4956	-0.89	-0.6241	0.1655	0.7648	0.8604	0.2171	0.6497	-0.0145	0.0043	-0.1339	-0.1537	-0.3061	0.6299	0.0349	-0.3705	-0.3632	0.7549	1.0182
89.8438	0.1612	0.4701	-0.1471	0.1143	-0.8961	-0.6589	-1.0602	-0.5174	-0.3923	-0.899	-0.2601	-0.4659	-0.9198	-0.6634	0.0669	0.8255	0.9581	0.2532	0.8078	-0.032	-0.0059	-0.0345	-0.0717	-0.2283	0.7057	0.098	-0.3108	-0.3117	0.7362	1.0451
93.75	0.1968	0.5842	-0.0427	0.2232	-0.7618	-0.5232	-0.9606	-0.4348	-0.34	-0.7787	-0.2196	-0.4218	-0.8673	-0.6158	0.0422	0.9156	1.0721	0.351	0.975	0.0304	0.0742	0.1336	0.1078	-0.0943	0.8101	0.1776	-0.2064	-0.2318	0.7252	1.0621
97.6562	0.2754	0.7023	0.1025	0.3912	-0.4988	-0.303	-0.7608	-0.3109	-0.2673	-0.5998	-0.1612	-0.3624	-0.7245	-0.4674	0.1039	1.0363	1.1974	0.5122	1.1435	0.1826	0.2574	0.3687	0.3808	0.0985	0.9508	0.2819	-0.0529	-0.1231	0.7197	1.0683
101.5625	0.3952	0.8288	0.2821	0.6144	-0.1248	-0.0183	-0.4768	-0.1638	-0.1852	-0.3789	-0.088	-0.2865	-0.4905	-0.212	0.2568	1.1936	1.3337	0.7352	1.3144	0.4302	0.5496	0.6673	0.7341	0.3478	1.128	0.4155	0.1487	0.0128	0.7164	1.0635
105.4688	0.549	0.9732	0.4881	0.8868	0.3323	0.3042	-0.1335	-0.0134	-0.1051	-0.1366	-0.0042	-0.1941	-0.1741	0.1455	0.4951	1.3947	1.485	1.0135	1.4966	0.7718	0.9466	1.0221	1.1463	0.6448	1.3338	0.5778	0.3919	0.1713	0.7114	1.0474
109.375	0.7248	1.1452	0.711	1.199	0.8377	0.634	0.2389	0.1219	-0.0364	0.1049	0.0845	-0.0869	0.2066	0.5874	0.7999	1.6444	1.6572	1.335	1.7028	1.1967	1.4317	1.4211	1.5901	0.9748	1.5545	0.7621	0.664	0.3452	0.6996	1.0195
113.2812	0.9077	1.3504	0.94	1.538	1.3544	0.9413	0.6096	0.2286	0.015	0.3259	0.1716	0.0314	0.6262	1.0858	1.1405	1.9423	1.8552	1.6821	1.9444	1.6848	1.9771	1.8474	2.035	1.3187	1.7731	0.9567	0.9489	0.5255	0.6758	0.9784
117.1875	1.0828	1.5877	1.1647	1.8881	1.8488	1.2021	0.9522	0.3005	0.0479	0.512	0.2516	0.1556	1.0563	1.6066	1.4787	2.2796	2.0796	2.0328	2.2272	2.2085	2.5483	2.2808	2.4515	1.6563	1.9729	1.1473	1.2288	0.7027	0.6349	0.9218
121.0938	1.2379	1.8477	1.3758	2.232	2.296	1.4022	1.2483	0.3395	0.0663	0.657	0.3213	0.2803	1.4703	2.1163	1.7757	2.6394	2.324	2.3636	2.5478	2.7363	3.1094	2.7004	2.8142	1.9698	2.1403	1.3201	1.4882	0.8684	0.5728	0.8469
125	1.3659	2.1138	1.5671	2.5529	2.682	1.5391	1.4901	0.3546	0.0785	0.7631	0.3803	0.4008	1.8474	2.587	1.9994	2.9981	2.5754	2.6526	2.8925	3.2368	3.6292	3.0874	3.1058	2.2467	2.2664	1.4648	1.716	1.0167	0.4877	0.7513
128.9062	1.4651	2.3644	1.735	2.8363	3.0039	1.6219	1.6792	0.359	0.0948	0.84	0.4317	0.5144	2.1748	3.0002	2.1309	3.3289	2.8159	2.8833	3.239	3.6832	4.0847	3.4279	3.3185	2.4812	2.3484	1.5763	1.9071	1.1449	0.3809	0.6343
132.8125	1.5385	2.577	1.8781	3.0709	3.2672	1.6677	1.8244	0.3665	0.1247	0.9011	0.4799	0.6196	2.4481	3.3475	2.1683	3.606	3.0269	3.0474	3.5605	4.0557	4.4635	3.7136	3.4549	2.6739	2.3886	1.6557	2.062	1.2534	0.2571	0.4981
136.7188	1.592	2.7319	1.9965	3.25	3.4818	1.697	1.9368	0.388	0.1746	0.9596	0.5299	0.7163	2.669	3.6287	2.1269	3.8093	3.192	3.1457	3.8301	4.3435	4.7622	3.9421	3.5262	2.8297	2.3941	1.7094	2.1855	1.3445	0.1249	0.349
140.625	1.6325	2.8161	2.0903	3.3707	3.6574	1.7284	2.0264	0.4289	0.2457	1.0246	0.5845	0.8037	2.8426	3.8487	2.0349	3.9278	3.3004	3.1868	4.0264	4.5447	4.9849	4.1158	3.5498	2.9553	2.3752	1.7469	2.2837	1.4208	-0.0046	0.1969
144.5312	1.6659	2.8253	2.1592	3.4348	3.8004	1.7746	2.0986	0.4882	0.3337	1.0981	0.6438	0.8799	2.9749	4.0142	1.9266	3.9609	3.3479	3.185	4.1371	4.665	5.1392	4.2402	3.5454	3.0567	2.343	1.7786	2.3621	1.4839	-0.1198	0.0538
148.4375	1.6966	2.7649	2.2031	3.4477	3.913	1.8402	2.1536	0.5593	0.4292	1.1743	0.7037	0.9409	3.0702	4.1315	1.8347	3.9187	3.3368	3.1566	4.1619	4.7162	5.2347	4.3224	3.5319	3.1373	2.3081	1.8132	2.4235	1.5335	-0.2106	-0.068
152.3438	1.7271	2.6483	2.2222	3.4181	3.9937	1.9227	2.1872	0.632	0.5194	1.2414	0.7569	0.9807	3.1309	4.2059	1.7834	3.8198	3.2754	3.1169	4.1131	4.7139	5.2817	4.3708	3.5251	3.1975	2.2791	1.8563	2.4674	1.567	-0.2703	-0.1584
156.25	1.7584	2.4955	2.2186	3.3578	4.0395	2.0144	2.1938	0.6955	0.5906	1.284	0.7944	0.9925	3.158	4.2419	1.7841	3.688	3.1762	3.0779	4.0138	4.6758	5.2906	4.3937	3.536	3.2351	2.2617	1.9089	2.4903	1.5809	-0.297	-0.2118
160.1562	1.7909	2.3287	2.1958	3.2797	4.048	2.1056	2.1686	0.7416	0.6312	1.2872	0.8073	0.9699	3.1515	4.2439	1.8343	3.5475	3.0543	3.0471	3.8935	4.6188	5.2719	4.399	3.5704	3.2468	2.2584	1.9677	2.4874	1.5706	-0.2939	-0.2282
164.0625	1.8246	2.1679	2.159	3.1962	4.0183	2.1863	2.1099	0.7664	0.6337	1.2402	0.7891	0.909	3.1119	4.2166	1.9194	3.4186	2.9249	3.0266	3.7818	4.5572	5.2352	4.3935	3.6286	3.229	2.2684	2.0256	2.4537	1.5324	-0.2681	-0.2132
167.9688	1.8587	2.0274	2.1131	3.1162	3.9513	2.2477	2.0195	0.7707	0.5968	1.1385	0.737	0.8092	3.0396	4.1647	2.0164	3.3135	2.8008	3.0136	3.7015	4.5005	5.1881	4.3809	3.7057	3.1792	2.2887	2.0732	2.386	1.4638	-0.2298	-0.1771
171.875	1.8912	1.9126	2.0612	3.0431	3.8488	2.2827	1.9027	0.7598	0.525	0.9853	0.6529	0.6743	2.9359	4.0919	2.1003	3.2345	2.6906	3.0016	3.6628	4.4514	5.1342	4.3612	3.7921	3.0963	2.3143	2.1008	2.284	1.3647	-0.1901	-0.1328
175.7812	1.9177	1.8199	2.0032	2.9734	3.7124	2.286	1.7663	0.741	0.4276	0.7906	0.5422	0.5126	2.8024	4.0001	2.1495	3.1746	2.5977	2.9817	3.6607	4.4061	5.0727	4.3301	3.8754	2.9812	2.3392	2.1005	2.1511	1.2382	-0.1592	-0.0936
179.6875	1.9314	1.7389	1.9355	2.8979	3.5432	2.2535	1.6168	0.7213	0.316	0.569	0.4128	0.3351	2.6411	3.8884	2.1509	3.1193	2.5197	2.9457	3.6772	4.3548	4.9978	4.28	3.9419	2.8369	2.3576	2.0682	1.9943	1.0903	-0.1451	-0.0703
183.5938	1.9233	1.656	1.8521	2.8039	3.3419	2.1835	1.4591	0.7053	0.2016	0.337	0.2736	0.1549	2.455	3.7535	2.1019	3.0509	2.4505	2.8872	3.6862	4.2842	4.9006	4.2019	3.979	2.6685	2.3645	2.0044	1.8236	0.9292	-0.1526	-0.0699
187.5	1.8839	1.5588	1.7467	2.6799	3.1104	2.077	1.2962	0.694	0.093	0.1103	0.1328	-0.0153	2.2474	3.5905	2.0097	2.9531	2.3817	2.8033	3.6606	4.1803	4.7705	4.0877	3.9765	2.4826	2.3572	1.9144	1.6504	0.7647	-0.1831	-0.0938
191.4062	1.8052	1.4395	1.6152	2.5184	2.8524	1.9389	1.1296	0.6853	-0.0044	-0.0982	-0.0028	-0.1646	2.0231	3.3951	1.8878	2.8141	2.3054	2.6948	3.5799	4.0311	4.5988	3.9328	3.9287	2.2871	2.3354	1.8076	1.4859	0.6061	-0.2349	-0.139
195.3125	1.6835	1.2964	1.4578	2.319	2.575	1.7781	0.9607	0.6753	-0.0886	-0.2798	-0.1282	-0.2856	1.7876	3.1648	1.7516	2.6291	2.2155	2.5654	3.4353	3.8295	4.3808	3.7378	3.834	2.0908	2.302	1.6957	1.3397	0.461	-0.304	-0.1987
199.2188	1.5202	1.1334	1.2791	2.0886	2.2882	1.6067	0.7925	0.6605	-0.1598	-0.4297	-0.2402	-0.3748	1.5479	2.9012	1.6143	2.4007	2.1092	2.4208	3.2311	3.5746	4.1179	3.5083	3.6955	1.9021	2.2613	1.5905	1.218	0.3344	-0.3845	-0.2646
203.125	1.3231	0.958	1.0882	1.8397	2.0041	1.438	0.6294	0.6393	-0.2191	-0.547	-0.337	-0.4327	1.3115	2.6104	1.4842	2.1385	1.9861	2.2665	2.9823	3.2724	3.8177	3.2543	3.5195	1.7282	2.2183	1.502	1.1235	0.2282	-0.4694	-0.328
207.0312	1.1053	0.7789	0.8963	1.5879	1.7348	1.2842	0.4782	0.6135	-0.267	-0.6333	-0.4181	-0.4638	1.0863	2.3023	1.3646	1.8566	1.8482	2.1074	2.7101	2.9349	3.493	2.9879	3.3142	1.5744	2.1769	1.4357	1.0546	0.142	-0.5505	-0.3809
210.9375	0.8832	0.6044	0.7152	1.3483	1.4909	1.1539	0.3466	0.588	-0.3022	-0.692	-0.4829	-0.4746	0.8796	1.9899	1.2544	1.5725	1.6992	1.9469	2.4367	2.5786	3.1593	2.7207	3.0884	1.4432	2.1382	1.3927	1.0068	0.0732	-0.6191	-0.4169
214.8438	0.6743	0.4415	0.5553	1.1337	1.2803	1.0512	0.2421	0.5705	-0.3216	-0.7268	-0.5307	-0.473	0.6978	1.6873	1.1506	1.3047	1.5447	1.7873	2.1808	2.2229	2.8321	2.4625	2.8507	1.3346	2.1004	1.3686	0.9734	0.0186	-0.666	-0.4309
218.75	0.4942	0.2972	0.4246	0.9526	1.1071	0.9757	0.171	0.5693	-0.321	-0.7409	-0.5602	-0.4661	0.5463	1.408	1.0497	1.0711	1.3923	1.6308	1.9555	1.8875	2.5249	2.2209	2.6095	1.2465	2.0588	1.3557	0.9475	-0.0254	-0.6836	-0.42
222.6562	0.3536	0.1783	0.3281	0.8097	0.9722	0.9234	0.1375	0.592	-0.2962	-0.7363	-0.5697	-0.459	0.4286	1.1637	0.9496	0.8876	1.2517	1.4805	1.768	1.5907	2.2471	2.0009	2.3732	1.1763	2.0074	1.3441	0.9229	-0.0618	-0.6665	-0.3839
226.5625	0.2569	0.0924	0.2677	0.7059	0.8738	0.8884	0.1427	0.6432	-0.2446	-0.714	-0.558	-0.4543	0.3469	0.963	0.8498	0.7657	1.1335	1.3406	1.6205	1.3465	2.0041	1.8054	2.15	1.1216	1.9403	1.3242	0.896	-0.0931	-0.6138	-0.3252
230.4688	0.2015	0.0461	0.2422	0.6395	0.8079	0.8639	0.1844	0.723	-0.1668	-0.6737	-0.5245	-0.4519	0.3015	0.8106	0.7519	0.711	1.0474	1.2158	1.5108	1.1632	1.7971	1.6361	1.947	1.0811	1.8532	1.2886	0.8653	-0.1204	-0.5297	-0.2495
234.375	0.1793	0.044	0.2479	0.6072	0.7692	0.844	0.258	0.8268	-0.0665	-0.6145	-0.4698	-0.4493	0.2916	0.7081	0.6588	0.7222	0.9996	1.1107	1.4338	1.0423	1.6246	1.4933	1.7697	1.0549	1.7447	1.2335	0.8324	-0.144	-0.4227	-0.1652
238.2812	0.1788	0.087	0.2788	0.6048	0.7525	0.8246	0.3564	0.9459	0.05	-0.5346	-0.3955	-0.4427	0.3155	0.6545	0.5746	0.791	0.9914	1.0288	1.3827	0.9787	1.4836	1.3766	1.6205	1.0451	1.6169	1.1589	0.8009	-0.163	-0.3047	-0.0817
242.1875	0.1872	0.1713	0.3283	0.628	0.7527	0.8036	0.4715	1.069	0.1746	-0.4329	-0.304	-0.428	0.3713	0.6469	0.5045	0.9032	1.0186	0.9723	1.3495	0.962	1.3709	1.2852	1.4996	1.0544	1.4755	1.0694	0.7763	-0.1751	-0.1889	-0.0081
246.0938	0.1935	0.2887	0.389	0.6723	0.766	0.7815	0.595	1.1841	0.2994	-0.3097	-0.1981	-0.4018	0.4567	0.6816	0.4542	1.0411	1.0729	0.9415	1.3268	0.9785	1.2837	1.2184	1.4048	1.0862	1.329	0.9722	0.7653	-0.1768	-0.0871	0.049
250	0.1895	0.4271	0.4542	0.7329	0.7889	0.7599	0.7189	1.281	0.4174	-0.1679	-0.0816	-0.3619	0.5695	0.7534	0.4279	1.1853	1.1433	0.9351	1.3082	1.0126	1.2197	1.1755	1.3324	1.143	1.1875	0.8768	0.7746	-0.164	-0.0085	0.0862
253.9062	0.1716	0.5713	0.5176	0.8036	0.8178	0.7404	0.8363	1.3525	0.5228	-0.0139	0.0412	-0.3084	0.7059	0.8557	0.4266	1.3168	1.2179	0.9492	1.2887	1.0486	1.1756	1.1554	1.2784	1.2252	1.0609	0.7925	0.8096	-0.1331	0.0421	0.1045
257.8125	0.1405	0.7048	0.5735	0.8761	0.8483	0.7228	0.9409	1.3955	0.6119	0.143	0.1652	-0.2431	0.8603	0.9786	0.4451	1.4179	1.2844	0.9769	1.2646	1.0714	1.1465	1.1556	1.238	1.3296	0.957	0.7268	0.8732	-0.0821	0.0642	0.1085
261.7188	0.1002	0.8108	0.6169	0.9399	0.8746	0.7048	1.0279	1.4114	0.6828	0.292	0.2848	-0.1697	1.0245	1.1096	0.4721	1.4732	1.3313	1.0084	1.2327	1.0667	1.1246	1.1708	1.2062	1.4494	0.88	0.6845	0.9647	-0.0116	0.0615	0.1052
265.625	0.0562	0.875	0.6438	0.9829	0.8903	0.6821	1.0936	1.4055	0.7358	0.4227	0.3949	-0.0926	1.188	1.233	0.4919	1.4703	1.3484	1.0318	1.1896	1.022	1.0994	1.1929	1.1775	1.5739	0.8305	0.6666	1.0795	0.0753	0.04	0.1025
269.5312	0.0138	0.8875	0.651	0.9933	0.889	0.65	1.1361	1.3859	0.7731	0.5279	0.4915	-0.0155	1.339	1.3327	0.4879	1.4009	1.3269	1.035	1.1307	0.9272	1.0587	1.2112	1.1461	1.6904	0.8058	0.6711	1.2096	0.1742	0.0075	0.1073
273.4375	-0.0241	0.8439	0.6365	0.9615	0.8658	0.6049	1.1546	1.362	0.7984	0.6041	0.5722	0.0597	1.4659	1.3936	0.4471	1.2619	1.2601	1.0078	1.0508	0.7762	0.9905	1.2135	1.1066	1.786	0.8007	0.6938	1.3447	0.2798	-0.0289	0.1239
277.3438	-0.0578	0.746	0.5996	0.8817	0.8179	0.5455	1.1492	1.3417	0.8158	0.6523	0.6363	0.1327	1.5583	1.4042	0.3641	1.0559	1.1438	0.9435	0.944	0.5674	0.8849	1.1877	1.054	1.8497	0.809	0.7292	1.4732	0.3872	-0.0634	0.1531
281.25	-0.0904	0.5999	0.54	0.7524	0.7448	0.4728	1.1208	1.3303	0.8285	0.6764	0.6843	0.2049	1.6083	1.3586	0.2417	0.791	0.9765	0.8402	0.8049	0.3046	0.736	1.1243	0.9847	1.8738	0.8239	0.7715	1.5839	0.4917	-0.093	0.1918
285.1562	-0.1278	0.414	0.4576	0.5777	0.6478	0.3888	1.0703	1.3293	0.8382	0.6813	0.7173	0.2781	1.611	1.2565	0.0905	0.4796	0.7598	0.7005	0.629	-0.0044	0.5429	1.0175	0.8963	1.8547	0.8387	0.8153	1.6673	0.589	-0.1179	0.233
289.0625	-0.1769	0.1973	0.3527	0.3659	0.53	0.2959	0.9988	1.3361	0.8444	0.6717	0.7364	0.3532	1.5652	1.1033	-0.074	0.136	0.4987	0.5307	0.4143	-0.3476	0.3103	0.866	0.7883	1.7926	0.8468	0.8558	1.716	0.6744	-0.1413	0.2673
292.9688	-0.2434	-0.0421	0.2262	0.1298	0.3963	0.1963	0.9083	1.3457	0.8452	0.6512	0.7425	0.4287	1.474	0.9092	-0.2355	-0.225	0.202	0.34	0.1623	-0.711	0.0481	0.6741	0.662	1.6914	0.8421	0.8889	1.7259	0.7433	-0.1682	0.2847
296.875	-0.3307	-0.2967	0.0803	-0.1153	0.2534	0.0919	0.8025	1.3517	0.838	0.6224	0.7365	0.5013	1.3453	0.6887	-0.3797	-0.5895	-0.1173	0.1395	-0.1203	-1.0785	-0.2287	0.4512	0.5213	1.5583	0.8201	0.912	1.6967	0.7914	-0.2041	0.2762
300.7812	-0.4377	-0.5585	-0.0796	-0.3521	0.1103	-0.0143	0.6873	1.3483	0.8209	0.5878	0.7196	0.5661	1.1916	0.4588	-0.4967	-0.9448	-0.4428	-0.0587	-0.4204	-1.4332	-0.5012	0.2116	0.3728	1.4033	0.7789	0.9243	1.6325	0.8159	-0.2529	0.2371
304.6875	-0.5586	-0.8183	-0.2456	-0.5643	-0.0228	-0.1187	0.5702	1.3311	0.7928	0.5499	0.693	0.6182	1.0293	0.2379	-0.5817	-1.2789	-0.7555	-0.242	-0.7187	-1.7577	-0.7486	-0.0265	0.2264	1.2389	0.7208	0.927	1.5413	0.8168	-0.3156	0.1673
308.5938	-0.6832	-1.0645	-0.4071	-0.7382	-0.1356	-0.2166	0.46	1.2978	0.7541	0.512	0.6582	0.6535	0.8762	0.0439	-0.635	-1.5803	-1.0357	-0.3984	-0.9914	-2.0354	-0.9506	-0.243	0.0942	1.0786	0.6514	0.9234	1.4342	0.7969	-0.3898	0.0725
312.5	-0.7991	-1.2844	-0.5526	-0.8651	-0.2193	-0.3034	0.3649	1.2484	0.7063	0.4775	0.617	0.6704	0.7493	-0.1081	-0.6607	-1.8384	-1.2661	-0.5178	-1.2132	-2.2518	-1.0902	-0.4189	-0.011	0.9358	0.5794	0.9174	1.3237	0.762	-0.4702	-0.0378
316.4062	-0.8938	-1.4657	-0.6712	-0.9421	-0.2686	-0.3749	0.2921	1.1849	0.6518	0.4498	0.572	0.6699	0.6619	-0.2073	-0.6655	-2.0442	-1.4342	-0.5938	-1.3623	-2.3962	-1.1561	-0.5389	-0.0786	0.8221	0.5143	0.9125	1.2219	0.7194	-0.55	-0.1521
320.3125	-0.9573	-1.5982	-0.7546	-0.9723	-0.2818	-0.4281	0.2469	1.1117	0.5948	0.4327	0.5271	0.6563	0.6217	-0.2481	-0.6568	-2.1914	-1.5342	-0.6243	-1.4242	-2.463	-1.1447	-0.5944	-0.1029	0.7455	0.464	0.9109	1.1389	0.6774	-0.6232	-0.2601
324.2188	-0.984	-1.6762	-0.7983	-0.9621	-0.2607	-0.4615	0.2326	1.0348	0.5409	0.4303	0.4878	0.636	0.6307	-0.2302	-0.6406	-2.2773	-1.5686	-0.6122	-1.3958	-2.4519	-1.0593	-0.585	-0.0852	0.7095	0.4333	0.9129	1.0819	0.6434	-0.6855	-0.3546
328.125	-0.9731	-1.699	-0.8013	-0.9199	-0.2089	-0.4742	0.2512	0.9615	0.4971	0.4468	0.4611	0.6175	0.686	-0.1575	-0.6201	-2.3029	-1.5461	-0.5646	-1.2857	-2.3673	-0.9091	-0.5184	-0.0338	0.7135	0.4231	0.9172	1.0547	0.6229	-0.7349	-0.4328
332.0312	-0.9279	-1.6705	-0.7658	-0.8528	-0.1306	-0.4656	0.3034	0.8993	0.4709	0.4866	0.4544	0.6089	0.7816	-0.0365	-0.5957	-2.2724	-1.4794	-0.4906	-1.1125	-2.2173	-0.7062	-0.4079	0.038	0.7534	0.4309	0.9217	1.0579	0.6189	-0.7715	-0.4955
335.9375	-0.8547	-1.5981	-0.6965	-0.7655	-0.0286	-0.4353	0.3887	0.8546	0.4695	0.5533	0.4739	0.6169	0.91	0.1256	-0.5647	-2.192	-1.3816	-0.3995	-0.9009	-2.0115	-0.463	-0.2701	0.1158	0.8233	0.452	0.9246	1.0899	0.6317	-0.7966	-0.5462
339.8438	-0.761	-1.4903	-0.5986	-0.6594	0.0952	-0.3822	0.5051	0.8314	0.4979	0.6483	0.5233	0.6455	1.0643	0.3214	-0.5232	-2.0689	-1.2631	-0.2986	-0.6761	-1.76	-0.1898	-0.1201	0.1875	0.9169	0.4815	0.9253	1.1475	0.6588	-0.812	-0.5894
343.75	-0.6541	-1.3546	-0.4774	-0.5331	0.2404	-0.3062	0.6488	0.8309	0.5578	0.7704	0.6026	0.6951	1.2383	0.5449	-0.4675	-1.9104	-1.13	-0.192	-0.4587	-1.4723	0.1056	0.0308	0.2469	1.0289	0.5161	0.9255	1.227	0.6971	-0.8199	-0.6291
347.6562	-0.5404	-1.1963	-0.3376	-0.3835	0.4061	-0.208	0.8141	0.8512	0.6468	0.9152	0.7077	0.7632	1.4268	0.7903	-0.3963	-1.7228	-0.984	-0.0808	-0.2618	-1.157	0.418	0.1767	0.2946	1.1557	0.5544	0.9292	1.3247	0.7434	-0.823	-0.668
351.5625	-0.4245	-1.0181	-0.1833	-0.2084	0.5902	-0.0907	0.9929	0.8881	0.7586	1.075	0.8311	0.8451	1.6246	1.0519	-0.3109	-1.512	-0.8249	0.0359	-0.0897	-0.8224	0.7427	0.3177	0.3372	1.2956	0.5973	0.942	1.4375	0.7958	-0.8242	-0.707
355.4688	-0.3097	-0.8215	-0.0189	-0.0084	0.7878	0.0398	1.1756	0.9355	0.8837	1.2401	0.9623	0.9347	1.8255	1.3227	-0.2147	-1.2835	-0.6538	0.1593	0.0604	-0.4768	1.0741	0.4576	0.3847	1.4477	0.647	0.9706	1.5628	0.854	-0.8264	-0.7453
359.375	-0.1982	-0.609	0.1509	0.2112	0.9907	0.1757	1.3518	0.9871	1.0113	1.3998	1.0899	1.0261	2.0226	1.5938	-0.1122	-1.0434	-0.4757	0.289	0.1956	-0.1295	1.4041	0.6015	0.4464	1.6104	0.7058	1.0206	1.6975	0.9186	-0.8319	-0.7805
363.2812	-0.0919	-0.3854	0.3195	0.4402	1.1887	0.3078	1.5115	1.037	1.1307	1.5442	1.2031	1.1137	2.2077	1.8543	-0.0078	-0.7985	-0.3	0.4227	0.3235	0.2092	1.7217	0.7528	0.5284	1.7809	0.7752	1.095	1.8377	0.9899	-0.8415	-0.8096
367.1875	0.0073	-0.159	0.4798	0.6645	1.3706	0.4278	1.6471	1.0804	1.2331	1.6659	1.2935	1.1933	2.3732	2.0918	0.0955	-0.5565	-0.1386	0.5557	0.4496	0.5286	2.0144	0.9114	0.6306	1.9538	0.8553	1.1931	1.9784	1.0669	-0.8548	-0.8296
371.0938	0.0976	0.0592	0.6246	0.869	1.5264	0.5302	1.7537	1.1146	1.3129	1.761	1.3564	1.2617	2.5127	2.2946	0.1955	-0.325	-0.0029	0.682	0.5756	0.8191	2.2695	1.0731	0.7476	2.1219	0.9447	1.3098	2.1134	1.1464	-0.8694	-0.8381
375	0.1776	0.2577	0.7482	1.0403	1.6487	0.6128	1.8306	1.1381	1.3679	1.8292	1.3911	1.3175	2.622	2.4534	0.2899	-0.11	0.0998	0.7954	0.6995	1.0732	2.4768	1.2303	0.8692	2.2772	1.0404	1.4364	2.2362	1.2236	-0.8816	-0.8333
378.9062	0.2472	0.4268	0.8476	1.1697	1.7334	0.677	1.8804	1.1501	1.3994	1.8733	1.4009	1.3609	2.7004	2.5626	0.3756	0.0844	0.1693	0.8909	0.8173	1.2869	2.63	1.3742	0.9841	2.4119	1.1385	1.5622	2.3406	1.2928	-0.8867	-0.8144
382.8125	0.3072	0.5605	0.9223	1.2537	1.7798	0.7255	1.9081	1.1502	1.4105	1.8977	1.3918	1.3934	2.75	2.622	0.4483	0.257	0.2123	0.9659	0.9239	1.46	2.7278	1.497	1.0822	2.5202	1.2341	1.6764	2.422	1.3486	-0.8805	-0.7814
386.7188	0.3585	0.6573	0.974	1.2949	1.7896	0.7609	1.9196	1.1371	1.4056	1.907	1.3709	1.4173	2.7749	2.6361	0.5033	0.4089	0.2416	1.0203	1.015	1.5949	2.7736	1.5932	1.1567	2.5988	1.3223	1.7702	2.478	1.3876	-0.8601	-0.7353
390.625	0.4018	0.7199	1.0052	1.2999	1.7659	0.7834	1.9203	1.1092	1.389	1.9044	1.3445	1.4354	2.7805	2.613	0.5365	0.5424	0.2721	1.0569	1.0876	1.6958	2.7745	1.6604	1.2053	2.6466	1.3981	1.8381	2.5085	1.4084	-0.8246	-0.6782
394.5312	0.436	0.7544	1.0181	1.278	1.7131	0.7906	1.9141	1.0651	1.3641	1.8914	1.3172	1.4498	2.7718	2.5625	0.5469	0.6597	0.3167	1.08	1.1408	1.7669	2.7394	1.6987	1.2295	2.6645	1.4577	1.8783	2.515	1.4115	-0.775	-0.6134
398.4375	0.4594	0.7685	1.0145	1.2397	1.6366	0.7791	1.9033	1.0048	1.334	1.868	1.291	1.4621	2.7527	2.4947	0.5366	0.7624	0.3829	1.0947	1.1752	1.8115	2.6779	1.7102	1.2335	2.6545	1.4983	1.8927	2.5006	1.399	-0.7143	-0.5444
402.3438	0.4703	0.77	0.9965	1.1949	1.5436	0.7466	1.8889	0.9313	1.3014	1.8335	1.2665	1.4728	2.7254	2.4182	0.511	0.8506	0.4709	1.1051	1.1931	1.8322	2.5986	1.6977	1.2227	2.6188	1.5193	1.8855	2.4682	1.3738	-0.646	-0.475
406.25	0.4688	0.766	0.967	1.1521	1.4429	0.6952	1.8717	0.8515	1.2692	1.7879	1.2431	1.4819	2.6908	2.3394	0.4764	0.9239	0.5749	1.1135	1.197	1.8318	2.5097	1.6642	1.2025	2.5601	1.5223	1.8619	2.4209	1.3389	-0.5735	-0.4082
410.1562	0.4579	0.7613	0.9306	1.1172	1.3451	0.6316	1.8524	0.7747	1.2407	1.7323	1.2205	1.4882	2.6483	2.2622	0.4387	0.9811	0.6848	1.1204	1.1904	1.8135	2.4177	1.613	1.1779	2.4814	1.511	1.8271	2.3606	1.297	-0.4995	-0.3461
414.0625	0.4426	0.7582	0.8926	1.0927	1.26	0.5666	1.8312	0.7112	1.218	1.6685	1.1985	1.4899	2.5962	2.1874	0.4014	1.0217	0.7897	1.1242	1.1764	1.7814	2.328	1.5479	1.1533	2.386	1.4904	1.7848	2.2889	1.2502	-0.4263	-0.2899
417.9688	0.4293	0.7558	0.8581	1.0774	1.1954	0.512	1.8079	0.6696	1.2016	1.5989	1.1767	1.4841	2.5317	2.1137	0.3654	1.0452	0.8805	1.1227	1.1579	1.7401	2.2438	1.4728	1.1322	2.2779	1.4652	1.7373	2.2066	1.1999	-0.3555	-0.2399
421.875	0.423	0.7512	0.8302	1.0668	1.1545	0.4773	1.7805	0.6541	1.1897	1.5253	1.1544	1.4674	2.4518	2.0375	0.3302	1.0517	0.9506	1.1137	1.1374	1.6935	2.1666	1.3919	1.1168	2.1611	1.439	1.6858	2.1145	1.1468	-0.2887	-0.1959
425.7812	0.4263	0.7396	0.8092	1.0543	1.1356	0.4671	1.7458	0.6641	1.1784	1.449	1.1304	1.4364	2.3541	1.954	0.2954	1.0417	0.996	1.0958	1.1164	1.6436	2.0953	1.3093	1.1087	2.0399	1.4131	1.6309	2.0138	1.0914	-0.2276	-0.1573
429.6875	0.438	0.7162	0.7921	1.0325	1.1316	0.4794	1.6998	0.6943	1.1633	1.3707	1.1031	1.389	2.2373	1.8583	0.2624	1.0156	1.0146	1.0687	1.0946	1.5899	2.0267	1.2285	1.1081	1.9185	1.3868	1.5731	1.9067	1.0343	-0.1736	-0.1228
433.5938	0.4539	0.6764	0.7737	0.995	1.132	0.5067	1.6386	0.7364	1.1403	1.2911	1.0711	1.3245	2.1023	1.7464	0.2346	0.9733	1.0047	1.0335	1.0703	1.5293	1.9558	1.1519	1.1136	1.8004	1.3576	1.5137	1.7961	0.9767	-0.1275	-0.0909
437.5	0.4677	0.6169	0.7475	0.9372	1.1246	0.5374	1.5592	0.7809	1.1069	1.2106	1.033	1.2441	1.952	1.6161	0.2165	0.9144	0.965	0.9914	1.0404	1.4564	1.8767	1.0803	1.123	1.688	1.3227	1.4538	1.685	0.92	-0.0889	-0.0594
441.4062	0.4734	0.5371	0.7078	0.8575	1.0982	0.5593	1.4601	0.819	1.0627	1.1293	0.9878	1.1498	1.791	1.4673	0.212	0.839	0.8955	0.9439	1.0015	1.3657	1.7837	1.0133	1.1327	1.5823	1.2795	1.3946	1.5758	0.8657	-0.0564	-0.0257
445.3125	0.4662	0.4392	0.6513	0.7578	1.0448	0.5623	1.3417	0.8434	1.0091	1.0471	0.9344	1.0444	1.6246	1.302	0.2232	0.7481	0.7984	0.8922	0.9508	1.2533	1.6729	0.9494	1.139	1.4829	1.2272	1.336	1.4701	0.8148	-0.0274	0.0127
449.2188	0.4434	0.3297	0.5777	0.6436	0.9611	0.5408	1.2064	0.8496	0.9487	0.963	0.8716	0.9308	1.4574	1.1238	0.2492	0.6449	0.6794	0.8377	0.8873	1.1183	1.5436	0.8863	1.1385	1.388	1.1676	1.2774	1.3682	0.7677	0.0007	0.0583
453.125	0.405	0.2187	0.4905	0.5233	0.8493	0.4949	1.0577	0.8361	0.8851	0.8755	0.7987	0.8121	1.293	0.9369	0.2859	0.535	0.5483	0.782	0.8122	0.9642	1.398	0.8221	1.1291	1.2956	1.105	1.2177	1.2698	0.7244	0.0301	0.1124
457.0312	0.3533	0.1186	0.3964	0.4069	0.7164	0.4296	0.9004	0.8041	0.8221	0.7833	0.7163	0.692	1.1333	0.7458	0.3272	0.4264	0.4185	0.7272	0.7291	0.7984	1.2422	0.7554	1.1108	1.2034	1.0459	1.1555	1.1738	0.684	0.062	0.1753
460.9375	0.2926	0.042	0.3036	0.3044	0.5728	0.3547	0.7399	0.7575	0.763	0.6858	0.6261	0.5748	0.979	0.5544	0.3653	0.3277	0.3053	0.6761	0.644	0.6315	1.0843	0.6864	1.0856	1.11	0.9972	1.0908	1.0797	0.6456	0.0964	0.2457
464.8438	0.2289	-0.0012	0.2212	0.2238	0.4303	0.2814	0.5816	0.7014	0.7107	0.5837	0.5314	0.465	0.8297	0.3663	0.3928	0.2476	0.2227	0.6315	0.5648	0.4748	0.9334	0.6171	1.0578	1.0147	0.9649	1.024	0.987	0.6076	0.1329	0.3211
468.75	0.1689	-0.0059	0.1563	0.1694	0.2995	0.2207	0.4306	0.6412	0.6661	0.479	0.4366	0.3673	0.6851	0.1851	0.4046	0.1922	0.1802	0.5961	0.4999	0.3391	0.7978	0.5511	1.0326	0.9177	0.9515	0.9564	0.8954	0.5683	0.1704	0.3983
472.6562	0.1188	0.0259	0.113	0.1407	0.1875	0.1798	0.291	0.5808	0.6287	0.3744	0.3457	0.2845	0.5449	0.0143	0.3989	0.1637	0.1798	0.571	0.4565	0.2312	0.6831	0.4924	1.0153	0.8201	0.9558	0.8895	0.8048	0.525	0.2087	0.4736
476.5625	0.0832	0.0848	0.0905	0.1322	0.0964	0.1608	0.1656	0.5221	0.596	0.2722	0.2614	0.2178	0.4094	-0.1432	0.3784	0.1593	0.2145	0.5561	0.4381	0.1534	0.5916	0.4445	1.0092	0.7233	0.9728	0.824	0.7148	0.475	0.2479	0.5442
480.4688	0.0645	0.1551	0.0835	0.1346	0.0229	0.1595	0.0556	0.4646	0.5641	0.1741	0.1846	0.1657	0.2791	-0.2847	0.3487	0.1716	0.2709	0.5492	0.4439	0.1026	0.5216	0.4088	1.0151	0.6291	0.9948	0.76	0.625	0.416	0.2893	0.6079
484.375	0.063	0.2178	0.0837	0.1363	-0.04	0.1674	-0.0394	0.4062	0.5288	0.0806	0.1146	0.1252	0.1553	-0.4082	0.3163	0.1905	0.3319	0.5468	0.4686	0.0719	0.4687	0.3848	1.0319	0.5393	1.0141	0.6975	0.5355	0.3469	0.334	0.6641
488.2812	0.0776	0.2562	0.0825	0.1274	-0.101	0.1745	-0.1204	0.3448	0.4871	-0.0079	0.0497	0.0923	0.0396	-0.5122	0.2859	0.2063	0.3824	0.5452	0.5047	0.0528	0.4273	0.3707	1.0567	0.4561	1.0247	0.6369	0.4471	0.2693	0.3835	0.7136
492.1875	0.1064	0.2603	0.0744	0.1022	-0.1663	0.1729	-0.1887	0.2795	0.4381	-0.0905	-0.011	0.0633	-0.0655	-0.5957	0.26	0.213	0.4132	0.5417	0.5445	0.0384	0.3922	0.3641	1.0873	0.3818	1.0242	0.5794	0.3621	0.1867	0.4386	0.7584
496.0938	0.1477	0.2308	0.0587	0.0619	-0.2383	0.1602	-0.2447	0.2121	0.384	-0.1646	-0.0672	0.036	-0.1572	-0.6577	0.2388	0.2105	0.4235	0.5355	0.5827	0.0256	0.3603	0.3631	1.1218	0.3186	1.0137	0.5273	0.2835	0.1047	0.5003	0.8023
500	0.1998	0.1789	0.0397	0.014	-0.3132	0.1395	-0.2881	0.1466	0.3293	-0.2256	-0.1167	0.0092	-0.2323	-0.6983	0.2225	0.205	0.4201	0.5286	0.6165	0.0158	0.3305	0.3661	1.1593	0.2679	0.997	0.483	0.2149	0.0296	0.5695	0.8494
503.9062	0.2607	0.1229	0.0251	-0.0293	-0.383	0.1187	-0.3177	0.0887	0.2794	-0.2678	-0.1566	-0.0166	-0.2888	-0.7183	0.2137	0.2076	0.4147	0.5252	0.645	0.0145	0.304	0.3716	1.1987	0.2294	0.9789	0.4486	0.1592	-0.0336	0.6474	0.9041
507.8125	0.3273	0.0833	0.0224	-0.0548	-0.4371	0.1068	-0.3324	0.0435	0.2393	-0.2851	-0.1835	-0.0401	-0.3261	-0.72	0.2181	0.2301	0.4195	0.5301	0.6677	0.0283	0.2826	0.3777	1.2379	0.2008	0.9628	0.4244	0.1178	-0.0821	0.7348	0.9692
511.7188	0.3958	0.077	0.0372	-0.052	-0.4655	0.1113	-0.3317	0.0147	0.2121	-0.2737	-0.1952	-0.0597	-0.3459	-0.7073	0.2437	0.2816	0.4429	0.5474	0.6829	0.0626	0.2681	0.3812	1.2731	0.1782	0.95	0.4084	0.0898	-0.1158	0.832	1.0456
515.625	0.462	0.1129	0.0707	-0.0156	-0.4613	0.1355	-0.3164	0.0024	0.1983	-0.2332	-0.1914	-0.0737	-0.3521	-0.685	0.2977	0.3654	0.4872	0.5785	0.688	0.1197	0.2615	0.3783	1.2994	0.1564	0.9394	0.397	0.0724	-0.1372	0.9376	1.1313
519.5312	0.5225	0.1913	0.1205	0.0531	-0.4224	0.1787	-0.2892	0.0036	0.1954	-0.1682	-0.1736	-0.0811	-0.3502	-0.6582	0.3835	0.4784	0.5485	0.6218	0.6804	0.198	0.263	0.3654	1.3119	0.1308	0.9282	0.3849	0.0615	-0.1502	1.0488	1.2227
523.4375	0.5757	0.3043	0.1819	0.1475	-0.3515	0.2365	-0.2541	0.0121	0.1992	-0.0885	-0.1456	-0.0813	-0.346	-0.6316	0.4977	0.6125	0.6195	0.6728	0.6605	0.2927	0.2724	0.3408	1.3075	0.0982	0.9131	0.3675	0.0523	-0.1588	1.1615	1.3145
527.3438	0.6224	0.4387	0.2488	0.2578	-0.2556	0.3025	-0.2166	0.0205	0.2043	-0.0074	-0.1129	-0.0743	-0.3445	-0.6087	0.6292	0.7575	0.6921	0.7256	0.6334	0.3974	0.2893	0.306	1.2865	0.0583	0.8913	0.342	0.041	-0.166	1.2703	1.402
531.25	0.6651	0.5791	0.3161	0.3729	-0.1453	0.3694	-0.1823	0.0209	0.2056	0.06	-0.0813	-0.0606	-0.3489	-0.5916	0.7608	0.9034	0.7613	0.7743	0.6087	0.5058	0.3133	0.2662	1.2531	0.0136	0.8607	0.3084	0.0257	-0.1728	1.3697	1.4806
535.1562	0.707	0.711	0.3798	0.4825	-0.0325	0.4304	-0.1567	0.0075	0.1993	0.1007	-0.0559	-0.0411	-0.3603	-0.5806	0.8726	1.0425	0.8251	0.8143	0.5985	0.6124	0.3439	0.2291	1.215	-0.0308	0.8207	0.2701	0.0066	-0.1783	1.454	1.547
539.0625	0.7497	0.8233	0.4367	0.5788	0.0708	0.4796	-0.1438	-0.0226	0.1835	0.106	-0.0403	-0.0173	-0.3772	-0.5748	0.9473	1.1693	0.8846	0.8433	0.614	0.713	0.3803	0.2036	1.1814	-0.068	0.7715	0.2334	-0.0137	-0.1801	1.5182	1.5986
542.9688	0.7927	0.909	0.4848	0.6572	0.154	0.5122	-0.1456	-0.0685	0.1584	0.0735	-0.0361	0.0091	-0.3968	-0.572	0.9748	1.2804	0.9417	0.8615	0.6616	0.8043	0.4211	0.1971	1.1605	-0.0909	0.7142	0.2054	-0.0307	-0.1758	1.5582	1.6337
546.875	0.8328	0.9652	0.5221	0.7155	0.2097	0.5247	-0.1622	-0.1261	0.126	0.0076	-0.0426	0.0352	-0.4158	-0.5693	0.9546	1.373	0.9977	0.871	0.7405	0.8836	0.4644	0.2144	1.1577	-0.0936	0.6509	0.1924	-0.04	-0.1636	1.5717	1.6512
550.7812	0.8655	0.9921	0.5465	0.7538	0.2341	0.5155	-0.1914	-0.1892	0.0892	-0.0823	-0.0577	0.0578	-0.4314	-0.564	0.896	1.4446	1.0517	0.8747	0.8423	0.949	0.5084	0.2561	1.1741	-0.0729	0.5846	0.1976	-0.0378	-0.1434	1.5587	1.6512
554.6875	0.8862	0.9919	0.5564	0.7738	0.2276	0.4847	-0.23	-0.2511	0.0508	-0.1839	-0.0789	0.0732	-0.4417	-0.5538	0.8154	1.4925	1.1002	0.8757	0.9518	0.9991	0.5516	0.319	1.2062	-0.0292	0.5192	0.22	-0.0229	-0.1176	1.5219	1.6349
558.5938	0.8923	0.9675	0.5507	0.7778	0.1947	0.4352	-0.274	-0.306	0.0126	-0.2855	-0.1037	0.0772	-0.4464	-0.5375	0.7325	1.5149	1.1384	0.876	1.0509	1.0337	0.5931	0.3965	1.247	0.0335	0.4593	0.254	0.0028	-0.0913	1.4669	1.6054
562.5	0.8843	0.9229	0.5297	0.7688	0.1433	0.3722	-0.319	-0.3498	-0.0245	-0.3778	-0.1309	0.0666	-0.4462	-0.5148	0.6662	1.5122	1.1608	0.8765	1.123	1.0543	0.6334	0.4801	1.2883	0.1081	0.4091	0.2907	0.0344	-0.0715	1.4015	1.5665
566.4062	0.8647	0.8629	0.4958	0.7498	0.0838	0.3032	-0.3607	-0.3802	-0.06	-0.455	-0.1598	0.0395	-0.4417	-0.4857	0.6304	1.4879	1.1642	0.8775	1.1571	1.0639	0.6737	0.5613	1.3225	0.1861	0.3721	0.3197	0.0651	-0.0658	1.3345	1.5225
570.3125	0.838	0.7938	0.4529	0.724	0.0274	0.2371	-0.3943	-0.3957	-0.0932	-0.5151	-0.1901	-0.0036	-0.4332	-0.4505	0.6313	1.4488	1.1491	0.8791	1.1516	1.0675	0.7166	0.633	1.345	0.2592	0.35	0.3326	0.0878	-0.0804	1.2736	1.4766
574.2188	0.8082	0.723	0.4066	0.6944	-0.0152	0.1824	-0.4151	-0.3962	-0.1225	-0.5585	-0.2215	-0.0591	-0.42	-0.4092	0.6666	1.4041	1.1208	0.8822	1.1148	1.0703	0.7646	0.6914	1.3548	0.321	0.3428	0.3247	0.097	-0.1185	1.2243	1.4302
578.125	0.7785	0.6586	0.3629	0.6632	-0.0354	0.1468	-0.4184	-0.3819	-0.145	-0.5868	-0.2527	-0.121	-0.4008	-0.3624	0.7268	1.3637	1.0891	0.8883	1.0631	1.077	0.82	0.7362	1.3547	0.3679	0.3484	0.2967	0.0903	-0.1789	1.1888	1.383
582.0312	0.7506	0.6078	0.3277	0.6321	-0.0277	0.1363	-0.4005	-0.3537	-0.1571	-0.6015	-0.2818	-0.1818	-0.3742	-0.311	0.7979	1.3359	1.0657	0.8997	1.0173	1.091	0.8838	0.7709	1.3502	0.3995	0.3645	0.2546	0.0697	-0.2555	1.1659	1.3335
585.9375	0.7249	0.5757	0.3056	0.6021	0.0088	0.154	-0.3602	-0.3134	-0.1556	-0.604	-0.3063	-0.2333	-0.3395	-0.2568	0.8656	1.3262	1.0616	0.9186	0.997	1.1129	0.9551	0.801	1.3477	0.4183	0.3891	0.2087	0.0407	-0.3384	1.1526	1.2811
589.8438	0.7015	0.5648	0.2992	0.5733	0.0708	0.2003	-0.299	-0.2632	-0.138	-0.5949	-0.3233	-0.2686	-0.297	-0.2025	0.9196	1.3358	1.0839	0.947	1.0163	1.1418	1.0313	0.833	1.3528	0.4287	0.4221	0.1711	0.012	-0.4154	1.1454	1.2271
593.75	0.6811	0.5748	0.3089	0.5462	0.1507	0.2718	-0.222	-0.2054	-0.1036	-0.5744	-0.3298	-0.2825	-0.2483	-0.151	0.9564	1.3631	1.1352	0.9864	1.0806	1.1752	1.1084	0.873	1.3695	0.4365	0.4656	0.1533	-0.0064	-0.4744	1.1423	1.1762
597.6562	0.6654	0.6034	0.333	0.5213	0.2383	0.3612	-0.1369	-0.1422	-0.0535	-0.5428	-0.3233	-0.2725	-0.1954	-0.1043	0.9797	1.4046	1.2133	1.0377	1.1863	1.2112	1.1823	0.9251	1.3995	0.4478	0.5238	0.1644	-0.0051	-0.5054	1.1438	1.1361
601.5625	0.6575	0.6473	0.3682	0.5002	0.3222	0.4581	-0.0529	-0.0745	0.0094	-0.5004	-0.3017	-0.2382	-0.1403	-0.0629	0.9992	1.4563	1.3121	1.1012	1.3216	1.2494	1.2503	0.9907	1.4426	0.4679	0.6017	0.2096	0.0232	-0.5018	1.1526	1.1155
605.4688	0.6604	0.7033	0.4106	0.485	0.3923	0.5503	0.0215	-0.0029	0.0815	-0.4472	-0.2635	-0.1811	-0.0838	-0.0248	1.0269	1.5153	1.4237	1.1763	1.4696	1.2911	1.3113	1.0687	1.4966	0.501	0.7035	0.29	0.0827	-0.4613	1.1717	1.1218
609.375	0.6769	0.7682	0.456	0.4782	0.4416	0.6257	0.0803	0.073	0.1592	-0.3833	-0.2077	-0.1037	-0.0255	0.0143	1.0732	1.5799	1.5392	1.2611	1.6118	1.3389	1.3669	1.155	1.5584	0.5495	0.8309	0.4028	0.1743	-0.3852	1.2031	1.1582
613.2812	0.7076	0.8391	0.501	0.4814	0.4674	0.6748	0.1217	0.1538	0.2401	-0.3084	-0.1334	-0.0086	0.037	0.0598	1.1428	1.6492	1.6507	1.3527	1.732	1.3959	1.4201	1.2434	1.6241	0.6137	0.9819	0.5425	0.2953	-0.2778	1.2454	1.2219
617.1875	0.7506	0.9127	0.5427	0.495	0.4717	0.6922	0.1482	0.2392	0.323	-0.2221	-0.0407	0.1014	0.1068	0.1174	1.2334	1.7222	1.7518	1.4466	1.8195	1.464	1.4751	1.3268	1.6898	0.6923	1.1504	0.7016	0.4402	-0.1449	1.2936	1.3041
621.0938	0.8012	0.9847	0.5791	0.5176	0.46	0.6773	0.1656	0.3281	0.408	-0.1252	0.0697	0.2237	0.1866	0.1912	1.3353	1.7968	1.8377	1.5375	1.8707	1.5427	1.5349	1.3984	1.7519	0.782	1.3267	0.8719	0.6016	0.0068	1.3393	1.3908
625	0.8524	1.0502	0.6086	0.546	0.4392	0.6341	0.1806	0.4174	0.4954	-0.0204	0.1946	0.3546	0.277	0.2816	1.434	1.8695	1.9043	1.6194	1.8885	1.6282	1.6008	1.4527	1.8075	0.8783	1.4986	1.0444	0.7701	0.1701	1.3718	1.4658
628.9062	0.8961	1.1036	0.6298	0.576	0.4163	0.5697	0.199	0.5021	0.5845	0.0867	0.328	0.4889	0.3753	0.385	1.5126	1.9346	1.9478	1.6861	1.8809	1.7132	1.6708	1.4863	1.8548	0.9752	1.6535	1.2103	0.9353	0.3371	1.3806	1.5142
632.8125	0.9251	1.1401	0.6417	0.6037	0.3966	0.4935	0.2234	0.5759	0.6728	0.1877	0.4608	0.6195	0.4748	0.4932	1.556	1.9854	1.9644	1.7318	1.858	1.7885	1.7401	1.4987	1.8927	1.0666	1.7812	1.3609	1.0866	0.4985	1.3577	1.5251
636.7188	0.9347	1.1561	0.6441	0.6264	0.3828	0.4152	0.253	0.6325	0.7553	0.2726	0.5811	0.7374	0.5664	0.5951	1.5537	2.0158	1.9517	1.7519	1.8296	1.8445	1.8018	1.4924	1.9206	1.1468	1.8755	1.4881	1.2144	0.6442	1.2997	1.4944
640.625	0.9237	1.1506	0.6375	0.6432	0.3754	0.3442	0.2837	0.667	0.8254	0.332	0.6764	0.8333	0.6399	0.6785	1.5025	2.0213	1.9095	1.7448	1.8033	1.8737	1.8492	1.4719	1.9385	1.2113	1.9358	1.5859	1.311	0.7636	1.2091	1.4258
644.5312	0.8941	1.1252	0.6238	0.6553	0.3735	0.2884	0.3099	0.6776	0.876	0.3592	0.7355	0.8993	0.6877	0.7335	1.4077	2.0012	1.842	1.7119	1.7842	1.8728	1.8774	1.4439	1.9463	1.2583	1.9665	1.6507	1.3721	0.848	1.094	1.3291
648.4375	0.8502	1.0853	0.6055	0.6657	0.3762	0.2536	0.3268	0.6658	0.9008	0.3527	0.7511	0.9305	0.7058	0.7547	1.2832	1.9593	1.7577	1.6595	1.775	1.8439	1.8852	1.4157	1.945	1.2883	1.9758	1.6822	1.3974	0.8919	0.9665	1.218
652.3438	0.7976	1.039	0.5864	0.6795	0.3841	0.2437	0.3323	0.6372	0.897	0.3165	0.7213	0.9265	0.6961	0.7424	1.1489	1.9035	1.6694	1.5977	1.7769	1.7948	1.8756	1.3949	1.9367	1.3041	1.9733	1.6839	1.3904	0.8946	0.8401	1.1069
656.25	0.7415	0.9971	0.5709	0.703	0.4003	0.2609	0.3282	0.5998	0.8653	0.2598	0.6508	0.8916	0.6654	0.7038	1.0269	1.8451	1.5928	1.5391	1.7909	1.7375	1.8556	1.3878	1.9257	1.3101	1.9674	1.6619	1.3579	0.8602	0.7272	1.0075
660.1562	0.6873	0.971	0.5641	0.7429	0.4305	0.3058	0.3202	0.5631	0.8119	0.1957	0.5503	0.8343	0.6245	0.6509	0.9362	1.7967	1.5426	1.4965	1.818	1.6865	1.8353	1.3992	1.9178	1.3114	1.9642	1.6243	1.3086	0.7974	0.6369	0.9273
664.0625	0.6398	0.971	0.5712	0.805	0.4822	0.378	0.3171	0.5363	0.7469	0.1387	0.4354	0.7653	0.586	0.5985	0.8883	1.7701	1.53	1.48	1.859	1.6557	1.8254	1.4316	1.9199	1.3126	1.9661	1.5793	1.2518	0.7168	0.5735	0.8681
667.9688	0.6035	1.0043	0.597	0.8927	0.5631	0.4753	0.3283	0.5268	0.6837	0.1022	0.3234	0.6959	0.5624	0.5616	0.8852	1.7744	1.5595	1.4945	1.9133	1.6559	1.8354	1.4848	1.9381	1.3177	1.9734	1.5339	1.1963	0.6299	0.537	0.8272
671.875	0.5823	1.0735	0.6443	1.0064	0.6782	0.5935	0.3622	0.5392	0.6356	0.0965	0.2313	0.6356	0.5633	0.5523	0.9206	1.8136	1.6276	1.5393	1.9792	1.6929	1.8719	1.5565	1.9767	1.3294	1.9846	1.4935	1.1493	0.5472	0.523	0.799
675.7812	0.5786	1.1758	0.7134	1.1425	0.8288	0.7263	0.4233	0.5747	0.6141	0.1273	0.1722	0.5913	0.5946	0.5784	0.9822	1.8868	1.7234	1.6087	2.0529	1.7669	1.937	1.6419	2.0372	1.3493	1.998	1.461	1.1162	0.4772	0.5249	0.777
679.6875	0.5935	1.3031	0.801	1.2936	1.0104	0.8651	0.5113	0.6312	0.6258	0.1949	0.1537	0.5667	0.6572	0.6419	1.0551	1.9877	1.8309	1.6932	2.1296	1.8726	2.0289	1.7356	2.1181	1.3784	2.0123	1.4376	1.1008	0.4262	0.5349	0.7553
683.5938	0.626	1.4436	0.9014	1.4501	1.2137	0.9994	0.621	0.7038	0.6713	0.2946	0.1765	0.5622	0.7471	0.7399	1.1245	2.106	1.9333	1.782	2.2042	2.0012	2.1424	1.832	2.2152	1.4165	2.0263	1.4224	1.1051	0.3975	0.5451	0.7296
687.5	0.674	1.5842	1.0075	1.6019	1.4258	1.1189	0.7435	0.7859	0.7451	0.4177	0.2352	0.5752	0.8566	0.865	1.1774	2.2303	2.0163	1.8649	2.2733	2.1423	2.2709	1.9267	2.3228	1.463	2.039	1.4134	1.1295	0.3912	0.5483	0.6972
691.4062	0.7346	1.7136	1.1126	1.7417	1.6334	1.2158	0.8688	0.8706	0.8375	0.5534	0.3192	0.6011	0.9763	1.0081	1.2039	2.3504	2.0725	1.9341	2.3355	2.2872	2.4089	2.0173	2.434	1.5167	2.0488	1.408	1.1731	0.4046	0.5393	0.6568
695.3125	0.8045	1.8256	1.213	1.8671	1.8259	1.2868	0.9883	0.9515	0.9361	0.6905	0.415	0.6342	1.0974	1.1602	1.1997	2.4608	2.1021	1.9858	2.3922	2.4305	2.5536	2.1038	2.5422	1.5767	2.0541	1.4035	1.2339	0.4324	0.5153	0.6092
699.2188	0.8815	1.9204	1.3083	1.9811	1.9976	1.3356	1.0969	1.0242	1.0289	0.8191	0.5085	0.6685	1.2136	1.3151	1.1673	2.5614	2.1127	2.0208	2.4473	2.572	2.7057	2.1887	2.6421	1.643	2.0537	1.3982	1.3093	0.4683	0.4765	0.5565
703.125	0.9635	2.0038	1.4013	2.0915	2.1488	1.3715	1.1938	1.0859	1.1063	0.9313	0.5876	0.6991	1.323	1.4704	1.1166	2.6577	2.1172	2.0446	2.5057	2.7159	2.8693	2.2761	2.7308	1.7166	2.047	1.3915	1.3968	0.5063	0.4265	0.5024
707.0312	1.0492	2.0838	1.4963	2.2073	2.2845	1.4082	1.2822	1.135	1.1618	1.0218	0.6432	0.7223	1.4275	1.6275	1.0633	2.758	2.1294	2.0664	2.5731	2.8693	3.0499	2.3713	2.8091	1.7996	2.0351	1.3841	1.4941	0.5421	0.3706	0.4513
710.9375	1.1373	2.1672	1.5968	2.3356	2.4119	1.4588	1.367	1.171	1.1922	1.0875	0.6705	0.7365	1.532	1.7908	1.0258	2.87	2.1609	2.0968	2.6542	3.0392	3.2521	2.4794	2.8812	1.8944	2.0206	1.3785	1.5994	0.5736	0.3152	0.4072
714.8438	1.2262	2.2562	1.7033	2.4781	2.5375	1.5329	1.4529	1.1935	1.1972	1.1275	0.6692	0.7421	1.6428	1.9657	1.0214	2.9983	2.2178	2.1452	2.7521	3.2296	3.4773	2.6041	2.9541	2.0035	2.0071	1.3782	1.7115	0.6014	0.2659	0.3731
718.75	1.3139	2.3475	1.8131	2.6312	2.6652	1.6334	1.543	1.2027	1.1787	1.1433	0.6428	0.7415	1.7657	2.1568	1.0616	3.1419	2.2996	2.2184	2.8673	3.4402	3.7226	2.7475	3.036	2.1284	1.9999	1.3885	1.8299	0.6288	0.2262	0.3504
722.6562	1.3982	2.434	1.9208	2.7857	2.7951	1.7563	1.6375	1.1998	1.1406	1.1383	0.5987	0.7393	1.9049	2.3656	1.1503	3.2947	2.4001	2.3186	2.998	3.6653	3.981	2.9093	3.1348	2.2695	2.0041	1.4157	1.9546	0.6614	0.1972	0.3384
726.5625	1.4769	2.5069	2.0198	2.9303	2.9244	1.8913	1.7336	1.1874	1.0878	1.1184	0.5462	0.7416	2.0615	2.5897	1.2822	3.4461	2.5092	2.4434	3.1401	3.8947	4.2422	3.0874	3.2562	2.4263	2.0251	1.4667	2.0859	0.7058	0.1769	0.335
730.4688	1.5477	2.5581	2.1033	3.0529	3.0472	2.0247	1.8261	1.169	1.0262	1.0902	0.4956	0.7551	2.2331	2.8225	1.4442	3.5832	2.6156	2.5865	3.2887	4.1155	4.4942	3.2785	3.4028	2.5965	2.0664	1.5473	2.2235	0.7687	0.1614	0.3367
734.375	1.6084	2.5821	2.1662	3.1437	3.1567	2.1415	1.9082	1.1487	0.9614	1.0601	0.4557	0.7849	2.4134	3.0529	1.6179	3.693	2.7097	2.7385	3.4379	4.3134	4.725	3.4778	3.5729	2.7764	2.1296	1.6606	2.3657	0.8535	0.1455	0.3396
738.2812	1.6568	2.5759	2.2045	3.196	3.2454	2.2286	1.9729	1.1299	0.8982	1.0326	0.4324	0.8331	2.5926	3.2674	1.7822	3.7643	2.7843	2.8884	3.5813	4.4752	4.9233	3.6792	3.7605	2.9601	2.2129	1.8046	2.5084	0.9591	0.1239	0.3391
742.1875	1.6913	2.5389	2.2168	3.2077	3.3076	2.2769	2.0147	1.1146	0.8409	1.0099	0.4278	0.8973	2.7591	3.4524	1.9172	3.7893	2.8361	3.0248	3.7116	4.5904	5.0803	3.8754	3.9555	3.1398	2.3121	1.9711	2.6451	1.0784	0.092	0.331
746.0938	1.7114	2.4727	2.2038	3.1816	3.3401	2.2834	2.0309	1.1038	0.7924	0.9914	0.4399	0.9707	2.9008	3.5965	2.0065	3.7656	2.8646	3.1367	3.8204	4.6533	5.1901	4.0577	4.145	3.3063	2.421	2.147	2.7674	1.1991	0.0471	0.3115
750	1.7183	2.3813	2.1692	3.1257	3.3439	2.2518	2.0227	1.0977	0.7554	0.9756	0.4638	1.0434	3.008	3.6927	2.04	3.6968	2.872	3.2157	3.8993	4.664	5.2507	4.2172	4.3151	3.45	2.532	2.3156	2.8667	1.3059	-0.0109	0.2784
753.9062	1.7146	2.2716	2.1192	3.0522	3.3242	2.1922	1.9943	1.0961	0.7316	0.9601	0.4931	1.1041	3.0747	3.7401	2.0157	3.5927	2.8629	3.257	3.9416	4.6291	5.2642	4.3457	4.4528	3.5621	2.6377	2.46	2.9352	1.384	-0.0793	0.2312
757.8125	1.7039	2.1531	2.0621	2.9755	3.2898	2.1192	1.9528	1.0992	0.7222	0.9436	0.5213	1.1432	3.0995	3.7429	1.9404	3.4689	2.8428	3.2601	3.9453	4.5599	5.2368	4.437	4.5483	3.6358	2.7308	2.5661	2.9677	1.4222	-0.1532	0.1719
761.7188	1.6894	2.0371	2.0064	2.9086	3.251	2.0492	1.9059	1.1074	0.727	0.9251	0.5424	1.1539	3.0857	3.7095	1.8281	3.3434	2.8172	3.2289	3.9135	4.4709	5.1777	4.4873	4.5954	3.6671	2.805	2.625	2.9623	1.4156	-0.2262	0.1042
765.625	1.673	1.9345	1.9592	2.8603	3.2169	1.9963	1.8605	1.1213	0.7439	0.9047	0.5526	1.1344	3.0395	3.6499	1.6975	3.2337	2.7906	3.1708	3.8551	4.3768	5.0977	4.4962	4.5918	3.6555	2.8549	2.6338	2.9207	1.3663	-0.2916	0.0331
769.5312	1.6549	1.8528	1.9242	2.8322	3.193	1.9697	1.8211	1.1413	0.7695	0.8826	0.5499	1.0878	2.9692	3.5734	1.5685	3.1531	2.7656	3.0946	3.782	4.2892	5.0071	4.4654	4.5391	3.6033	2.8776	2.596	2.8482	1.283	-0.3438	-0.0361
773.4375	1.6338	1.7947	1.9012	2.8188	3.1798	1.9714	1.7896	1.1676	0.7994	0.8595	0.5348	1.0223	2.883	3.4875	1.4577	3.1082	2.7435	3.0092	3.707	4.2154	4.9144	4.3993	4.4416	3.5161	2.8727	2.5204	2.7528	1.18	-0.3787	-0.0979
777.3438	1.6079	1.7577	1.8866	2.8086	3.1729	1.9968	1.7654	1.2002	0.8297	0.836	0.5097	0.9493	2.7884	3.3968	1.3759	3.0983	2.7252	2.9222	3.6412	4.1574	4.8254	4.3034	4.3064	3.4014	2.843	2.4193	2.6443	1.074	-0.394	-0.1478
781.25	1.5756	1.735	1.8746	2.7881	3.165	2.0365	1.746	1.2383	0.857	0.8127	0.4785	0.8812	2.6911	3.3034	1.3262	3.117	2.7111	2.8392	3.5923	4.1131	4.7429	4.1844	4.1419	3.2678	2.7943	2.306	2.5327	0.9813	-0.3896	-0.183
785.1562	1.536	1.7178	1.8595	2.7451	3.148	2.08	1.7284	1.2808	0.8797	0.79	0.445	0.8285	2.5945	3.2079	1.305	3.1545	2.7019	2.763	3.5639	4.0776	4.6671	4.0489	3.9572	3.1234	2.7335	2.1925	2.4264	0.9139	-0.3673	-0.2023
789.0625	1.4896	1.6982	1.8369	2.673	3.1169	2.1181	1.7099	1.3265	0.8975	0.7679	0.4124	0.7969	2.5003	3.1099	1.3042	3.2006	2.6973	2.6939	3.5551	4.0456	4.5961	3.9034	3.7606	2.975	2.6674	2.087	2.3301	0.877	-0.3309	-0.2074
792.9688	1.4376	1.6714	1.8055	2.5729	3.0709	2.1466	1.6886	1.3741	0.9113	0.7463	0.3824	0.7854	2.4085	3.0091	1.3148	3.2471	2.6962	2.6304	3.5617	4.0124	4.5277	3.7532	3.5592	2.8269	2.6011	1.9927	2.2445	0.8676	-0.2854	-0.2023
796.875	1.382	1.637	1.7668	2.4537	3.0141	2.1656	1.6642	1.4225	0.9225	0.7249	0.3552	0.7877	2.3183	2.9061	1.3286	3.2892	2.6963	2.5702	3.5768	3.9758	4.4596	3.603	3.3584	2.6816	2.5373	1.9084	2.1665	0.8759	-0.2368	-0.1926
