time	FP1	F3	F7	FC3	C3	C5	P3	P7	PO7	PO3	O1	Oz	Pz	CPz	FP2	Fz	F4	F8	FC4	FCz	Cz	C4	C6	P4	P8	PO8	PO4	O2	HEOG_left	HEOG_right
-199.2188	-1.4712	-1.7649	-1.6826	-1.7007	-1.315	-1.035	-0.4314	0.0524	0.0797	-0.0982	-0.0381	-0.2597	-0.7232	-1.2947	-1.5824	-1.9601	-2.1684	-1.2888	-2.1856	-1.9952	-1.7702	-1.6654	-1.772	-1.0339	-0.8133	-0.6386	-0.8589	-0.4086	-0.7096	-1.1109
-195.3125	-1.414	-1.7197	-1.5284	-1.6325	-1.2383	-0.979	-0.334	0.0795	0.1903	0.046	0.0979	-0.1456	-0.6271	-1.1448	-1.4788	-1.8232	-2.0351	-1.2886	-2.0797	-1.8166	-1.6213	-1.5586	-1.6932	-0.9491	-0.7638	-0.57	-0.7211	-0.3306	-0.6785	-1.0752
-191.4062	-1.3618	-1.6802	-1.3917	-1.5738	-1.1736	-0.9342	-0.2523	0.0983	0.2807	0.1684	0.2103	-0.0478	-0.54	-1.0058	-1.3859	-1.6961	-1.9117	-1.2968	-1.9787	-1.6499	-1.4802	-1.4584	-1.6187	-0.87	-0.7195	-0.5075	-0.5959	-0.2622	-0.6532	-1.0427
-187.5	-1.3174	-1.6489	-1.2843	-1.5301	-1.1284	-0.9069	-0.1973	0.1035	0.3359	0.2527	0.2814	0.0216	-0.4689	-0.8865	-1.3114	-1.5865	-1.8053	-1.3172	-1.886	-1.5045	-1.3525	-1.3696	-1.5508	-0.8009	-0.6837	-0.4551	-0.4932	-0.2101	-0.6374	-1.0147
-183.5938	-1.2807	-1.6252	-1.2111	-1.5022	-1.1046	-0.8981	-0.1738	0.0937	0.3483	0.2906	0.3023	0.0566	-0.4174	-0.7912	-1.2591	-1.4979	-1.7187	-1.3497	-1.8025	-1.3852	-1.241	-1.2942	-1.4888	-0.7433	-0.6566	-0.414	-0.4182	-0.1771	-0.6325	-0.9912
-179.6875	-1.2485	-1.6049	-1.1687	-1.4857	-1.0978	-0.903	-0.1798	0.0713	0.3188	0.2827	0.2737	0.058	-0.3853	-0.7198	-1.2287	-1.4294	-1.6505	-1.3899	-1.7271	-1.2913	-1.1455	-1.2312	-1.4298	-0.6964	-0.6355	-0.3819	-0.3703	-0.1622	-0.6373	-0.97
-175.7812	-1.216	-1.5817	-1.1474	-1.4724	-1.0993	-0.913	-0.2076	0.0421	0.2557	0.2375	0.2054	0.0326	-0.3693	-0.6683	-1.2161	-1.3772	-1.5961	-1.4293	-1.6575	-1.2187	-1.0634	-1.1781	-1.3698	-0.6574	-0.6154	-0.3546	-0.3444	-0.1601	-0.6484	-0.948
-171.875	-1.1786	-1.549	-1.1343	-1.4532	-1.0988	-0.9183	-0.2462	0.0125	0.1725	0.1687	0.1127	-0.0091	-0.3639	-0.6309	-1.2148	-1.3355	-1.5498	-1.4567	-1.5917	-1.1613	-0.992	-1.1315	-1.3051	-0.6229	-0.5908	-0.327	-0.3327	-0.1639	-0.661	-0.9218
-167.9688	-1.1334	-1.5022	-1.1162	-1.4207	-1.0871	-0.9108	-0.2847	-0.0118	0.0839	0.0912	0.0128	-0.0561	-0.3629	-0.6019	-1.2174	-1.2991	-1.5068	-1.4608	-1.5291	-1.1139	-0.9291	-1.0892	-1.2342	-0.59	-0.5574	-0.2945	-0.3271	-0.1665	-0.6706	-0.8888
-164.0625	-1.0812	-1.4404	-1.0838	-1.3715	-1.0589	-0.8866	-0.3145	-0.027	0.0031	0.0182	-0.0784	-0.0988	-0.3613	-0.5773	-1.2173	-1.2645	-1.4644	-1.4331	-1.4708	-1.0731	-0.8742	-1.0504	-1.1585	-0.5573	-0.5138	-0.2553	-0.3211	-0.1626	-0.673	-0.8485
-160.1562	-1.0257	-1.3673	-1.0328	-1.3073	-1.0143	-0.8464	-0.3309	-0.0323	-0.0604	-0.0415	-0.1496	-0.1312	-0.3563	-0.5555	-1.2101	-1.2309	-1.423	-1.3692	-1.4197	-1.038	-0.8285	-1.0161	-1.082	-0.5255	-0.4615	-0.2103	-0.3115	-0.1501	-0.6661	-0.8024
-156.25	-0.9736	-1.2903	-0.9652	-1.2346	-0.958	-0.7957	-0.3342	-0.029	-0.1027	-0.0845	-0.1948	-0.1513	-0.3478	-0.5378	-1.1941	-1.1997	-1.385	-1.2709	-1.3792	-1.0102	-0.7939	-0.9884	-1.0103	-0.4969	-0.4049	-0.1629	-0.2984	-0.1297	-0.6497	-0.7537
-152.3438	-0.9319	-1.2192	-0.8878	-1.1627	-0.8983	-0.7431	-0.3284	-0.0207	-0.1246	-0.1128	-0.214	-0.1607	-0.3383	-0.5271	-1.1704	-1.1735	-1.354	-1.1454	-1.3518	-0.9921	-0.7726	-0.9692	-0.9486	-0.4745	-0.3499	-0.1184	-0.2844	-0.1049	-0.6255	-0.7068
-148.4375	-0.906	-1.1627	-0.8099	-1.1009	-0.8442	-0.6974	-0.3205	-0.0123	-0.1317	-0.1319	-0.2121	-0.1636	-0.3317	-0.5266	-1.1419	-1.1549	-1.3325	-1.0046	-1.3381	-0.9854	-0.7652	-0.9597	-0.8999	-0.461	-0.3022	-0.0823	-0.2735	-0.0808	-0.5967	-0.6658
-144.5312	-0.8978	-1.1263	-0.7406	-1.0555	-0.8028	-0.666	-0.3178	-0.0092	-0.1316	-0.1494	-0.1972	-0.1654	-0.3321	-0.5385	-1.1123	-1.1444	-1.3207	-0.8626	-1.3353	-0.99	-0.7706	-0.9585	-0.864	-0.4576	-0.2664	-0.0591	-0.2694	-0.0626	-0.5666	-0.6334
-140.625	-0.9042	-1.1097	-0.6856	-1.0281	-0.7775	-0.652	-0.3265	-0.0162	-0.133	-0.1724	-0.179	-0.171	-0.3425	-0.5625	-1.0843	-1.1401	-1.3153	-0.7333	-1.3377	-1.0031	-0.785	-0.9621	-0.8368	-0.4631	-0.2443	-0.051	-0.2739	-0.0546	-0.5381	-0.6101
-136.7188	-0.9177	-1.1067	-0.6462	-1.0145	-0.7669	-0.6542	-0.3501	-0.037	-0.1425	-0.2058	-0.166	-0.1839	-0.3637	-0.596	-1.0588	-1.1367	-1.3097	-0.6277	-1.3367	-1.0189	-0.8024	-0.9644	-0.8116	-0.4744	-0.235	-0.0581	-0.2871	-0.0589	-0.5121	-0.5937
-132.8125	-0.9276	-1.106	-0.6185	-1.0063	-0.7655	-0.6665	-0.3883	-0.0724	-0.1642	-0.251	-0.164	-0.2053	-0.3945	-0.6337	-1.0338	-1.1268	-1.2947	-0.5515	-1.3222	-1.03	-0.8157	-0.9585	-0.7801	-0.4866	-0.2356	-0.0782	-0.3069	-0.0758	-0.4877	-0.5797
-128.9062	-0.9224	-1.094	-0.5947	-0.9926	-0.7647	-0.6803	-0.4371	-0.1203	-0.1981	-0.306	-0.1749	-0.2341	-0.4311	-0.6689	-1.0047	-1.1017	-1.2603	-0.5046	-1.2841	-1.0279	-0.8174	-0.9373	-0.7348	-0.4943	-0.2418	-0.108	-0.3299	-0.1032	-0.4615	-0.5623
-125	-0.8922	-1.0578	-0.5659	-0.963	-0.7558	-0.6856	-0.4895	-0.1753	-0.2408	-0.3651	-0.197	-0.2672	-0.4681	-0.6943	-0.9651	-1.0542	-1.1979	-0.4803	-1.2145	-1.0056	-0.8014	-0.8953	-0.671	-0.4929	-0.2488	-0.1435	-0.3522	-0.1375	-0.4293	-0.5353
-121.0938	-0.8315	-0.9888	-0.5245	-0.9104	-0.7313	-0.6743	-0.5362	-0.2298	-0.286	-0.421	-0.2255	-0.3002	-0.499	-0.7029	-0.9094	-0.98	-1.1023	-0.4681	-1.1094	-0.9583	-0.7642	-0.8296	-0.5873	-0.4793	-0.2527	-0.1813	-0.3698	-0.174	-0.3871	-0.4943
-117.1875	-0.7401	-0.885	-0.4664	-0.8327	-0.6869	-0.6413	-0.5677	-0.2752	-0.3264	-0.4653	-0.2536	-0.3279	-0.5171	-0.6891	-0.8334	-0.879	-0.973	-0.4554	-0.9695	-0.8853	-0.7056	-0.7407	-0.4864	-0.4523	-0.2508	-0.2177	-0.3791	-0.208	-0.3329	-0.4372
-113.2812	-0.624	-0.7517	-0.3923	-0.7333	-0.6226	-0.5859	-0.5759	-0.304	-0.3549	-0.4907	-0.2747	-0.3456	-0.5167	-0.6501	-0.737	-0.7566	-0.815	-0.431	-0.801	-0.7905	-0.6289	-0.6321	-0.3735	-0.4123	-0.2411	-0.2496	-0.3772	-0.2349	-0.2674	-0.3656
-109.375	-0.494	-0.6008	-0.3068	-0.6204	-0.542	-0.5115	-0.5555	-0.3114	-0.3658	-0.4921	-0.2833	-0.3494	-0.494	-0.586	-0.6237	-0.6218	-0.638	-0.3867	-0.6143	-0.6815	-0.5407	-0.51	-0.2556	-0.3611	-0.2228	-0.2733	-0.3618	-0.2508	-0.1946	-0.2842
-105.4688	-0.3634	-0.4482	-0.2178	-0.5048	-0.452	-0.425	-0.5058	-0.2962	-0.3561	-0.468	-0.2763	-0.3371	-0.4479	-0.501	-0.5003	-0.4861	-0.4549	-0.3187	-0.4223	-0.5684	-0.4496	-0.3819	-0.1393	-0.3009	-0.1955	-0.2852	-0.3317	-0.253	-0.1212	-0.1997
-101.5625	-0.245	-0.31	-0.134	-0.3973	-0.3609	-0.3348	-0.4305	-0.2616	-0.326	-0.4207	-0.2534	-0.3084	-0.3803	-0.4023	-0.3758	-0.3605	-0.2793	-0.2279	-0.238	-0.4613	-0.3643	-0.2554	-0.0301	-0.2345	-0.1589	-0.2822	-0.287	-0.2405	-0.0548	-0.1195
-97.6562	-0.1485	-0.1987	-0.0637	-0.3057	-0.2765	-0.2493	-0.3375	-0.2138	-0.2788	-0.3559	-0.217	-0.265	-0.2963	-0.299	-0.2583	-0.2527	-0.1226	-0.1187	-0.0722	-0.3681	-0.2918	-0.137	0.0688	-0.1648	-0.1133	-0.2622	-0.2295	-0.2138	-0.0022	-0.0498
-93.75	-0.0777	-0.1197	-0.0124	-0.2324	-0.2037	-0.1745	-0.2373	-0.1611	-0.2204	-0.2821	-0.1714	-0.2103	-0.203	-0.2006	-0.1534	-0.1658	0.0084	0.0023	0.0691	-0.2925	-0.2357	-0.0311	0.1567	-0.0943	-0.0594	-0.2247	-0.1626	-0.1747	0.0326	0.006
-89.8438	-0.0296	-0.0696	0.0189	-0.1734	-0.1436	-0.1126	-0.141	-0.1118	-0.1577	-0.2082	-0.1218	-0.1486	-0.1085	-0.1145	-0.0624	-0.0964	0.1132	0.1279	0.1855	-0.2327	-0.1946	0.0612	0.2349	-0.0253	0.0012	-0.1716	-0.0906	-0.1266	0.0501	0.0481
-85.9375	0.0046	-0.0367	0.0337	-0.1193	-0.0928	-0.0615	-0.0576	-0.0721	-0.0978	-0.1422	-0.0731	-0.0847	-0.0202	-0.0447	0.0183	-0.0364	0.1977	0.2516	0.2822	-0.1818	-0.1626	0.1417	0.3069	0.0407	0.0665	-0.1067	-0.0183	-0.0733	0.0552	0.0804
-82.0312	0.0378	-0.0037	0.0406	-0.0572	-0.0444	-0.0156	0.0074	-0.0457	-0.0464	-0.0895	-0.0295	-0.0232	0.0562	0.0087	0.0955	0.0256	0.2724	0.3686	0.368	-0.1297	-0.1305	0.2145	0.3764	0.103	0.1341	-0.0353	0.0499	-0.0188	0.0565	0.1094
-78.125	0.0832	0.0481	0.0511	0.0255	0.01	0.0328	0.0525	-0.0329	-0.007	-0.0522	0.0068	0.0322	0.1176	0.0493	0.1774	0.1011	0.3493	0.476	0.453	-0.0655	-0.088	0.2852	0.4474	0.1615	0.2016	0.0371	0.111	0.0336	0.064	0.1429
-74.2188	0.1513	0.1335	0.0778	0.1373	0.0779	0.091	0.0804	-0.0311	0.0193	-0.0294	0.0348	0.0789	0.1636	0.083	0.271	0.1982	0.4386	0.5725	0.5455	0.0195	-0.0261	0.3589	0.5225	0.2169	0.267	0.1056	0.1634	0.0816	0.0867	0.1877
-70.3125	0.2466	0.2599	0.1308	0.2804	0.1636	0.1638	0.0966	-0.0358	0.0339	-0.0176	0.0554	0.1161	0.1958	0.1171	0.3798	0.3201	0.5463	0.6578	0.6502	0.1301	0.061	0.4392	0.6024	0.2704	0.3288	0.1664	0.2071	0.1237	0.1304	0.2483
-66.4062	0.3676	0.4253	0.2152	0.4497	0.2674	0.2521	0.1083	-0.0415	0.0399	-0.0116	0.07	0.1443	0.2179	0.1585	0.5034	0.4648	0.673	0.7322	0.7675	0.2667	0.175	0.5276	0.6859	0.323	0.3858	0.2179	0.2432	0.1598	0.1957	0.3256
-62.5	0.507	0.6197	0.3301	0.6349	0.3857	0.3531	0.1224	-0.0431	0.0414	-0.006	0.0808	0.1651	0.2343	0.2132	0.6376	0.6256	0.8142	0.7964	0.8939	0.4256	0.3142	0.6233	0.7706	0.3758	0.437	0.2594	0.2739	0.19	0.2787	0.4172
-58.5938	0.6548	0.828	0.4687	0.8228	0.5126	0.4609	0.1447	-0.037	0.0422	0.004	0.0894	0.1811	0.2503	0.285	0.776	0.7939	0.9627	0.8516	1.0241	0.601	0.4736	0.7241	0.8532	0.4296	0.4812	0.292	0.3016	0.2149	0.3716	0.5179
-54.6875	0.8011	1.0346	0.6214	1.0021	0.6423	0.5694	0.179	-0.021	0.0454	0.0218	0.0969	0.1948	0.2712	0.376	0.9127	0.9616	1.1109	0.9003	1.1533	0.7865	0.6473	0.8272	0.9311	0.4849	0.5173	0.317	0.3289	0.2353	0.4652	0.6214
-50.7812	0.939	1.2274	0.7778	1.1659	0.7709	0.6737	0.2271	0.0048	0.0524	0.0491	0.1037	0.2083	0.3018	0.4863	1.0437	1.1235	1.2537	0.9463	1.2786	0.977	0.8289	0.9305	1.0028	0.542	0.5443	0.3367	0.3582	0.2521	0.5513	0.7216
-46.875	1.0662	1.4008	0.93	1.3139	0.8981	0.7724	0.2889	0.0388	0.0636	0.0859	0.1098	0.2229	0.3462	0.6143	1.1685	1.2782	1.3901	0.9943	1.401	1.1695	1.0129	1.0336	1.0686	0.6016	0.5621	0.3533	0.3914	0.2663	0.6246	0.8145
-42.9688	1.1851	1.5564	1.0738	1.4513	1.0267	0.8677	0.363	0.078	0.078	0.131	0.1149	0.2393	0.4071	0.757	1.2905	1.4285	1.5236	1.05	1.5248	1.3629	1.1951	1.1381	1.1308	0.6641	0.5715	0.3692	0.4302	0.279	0.684	0.8982
-39.0625	1.3018	1.7016	1.2091	1.5871	1.1617	0.9648	0.447	0.1186	0.0941	0.1816	0.119	0.257	0.4847	0.9098	1.4154	1.5799	1.6613	1.1186	1.6568	1.5577	1.3722	1.247	1.1933	0.7302	0.5744	0.3864	0.4754	0.291	0.732	0.9739
-35.1562	1.4231	1.8463	1.338	1.7307	1.3076	1.0701	0.5375	0.1567	0.1098	0.2342	0.1219	0.2745	0.577	1.0669	1.5491	1.7383	1.8112	1.2039	1.8037	1.7543	1.542	1.364	1.2602	0.7999	0.5741	0.4059	0.5266	0.3022	0.7742	1.0445
-31.25	1.5546	1.9995	1.4635	1.8881	1.4663	1.1887	0.63	0.1883	0.1229	0.2844	0.1231	0.2897	0.679	1.2209	1.6959	1.9083	1.9799	1.307	1.9701	1.9519	1.702	1.4916	1.3354	0.8723	0.5739	0.4278	0.5824	0.3116	0.8167	1.1136
-27.3438	1.6976	2.1656	1.5873	2.0599	1.6354	1.322	0.7191	0.2104	0.1311	0.3277	0.1216	0.3003	0.7834	1.3639	1.8563	2.0907	2.1696	1.4253	2.156	2.1474	1.8497	1.6302	1.4206	0.9453	0.5771	0.4503	0.6398	0.317	0.8652	1.1843
-23.4375	1.849	2.3429	1.7083	2.2409	1.8078	1.4668	0.7993	0.2206	0.1323	0.3601	0.116	0.3042	0.8819	1.4882	2.0262	2.2817	2.3768	1.5527	2.356	2.3357	1.9819	1.7765	1.515	1.0157	0.5857	0.4708	0.6952	0.3159	0.9223	1.2581
-19.5312	2.0013	2.5236	1.8226	2.4206	1.9733	1.6156	0.8653	0.2181	0.125	0.3791	0.1059	0.3009	0.967	1.5878	2.1976	2.4737	2.5921	1.68	2.5598	2.5102	2.0958	1.9245	1.6151	1.0797	0.6002	0.486	0.7446	0.3063	0.9878	1.3339
-15.625	2.1446	2.696	1.9246	2.5866	2.1203	1.7577	0.9135	0.2039	0.1092	0.3849	0.092	0.2912	1.0332	1.6601	2.3601	2.6566	2.802	1.797	2.7539	2.6642	2.1892	2.0662	1.715	1.1338	0.6192	0.4933	0.785	0.2876	1.058	1.4085
-11.7188	2.2697	2.8478	2.0081	2.7277	2.2398	1.8825	0.943	0.1812	0.0869	0.3806	0.0777	0.2782	1.0792	1.7068	2.503	2.8202	2.9912	1.8935	2.9251	2.7933	2.2622	2.1933	1.8076	1.1762	0.6396	0.4912	0.8149	0.2612	1.1271	1.4772
-7.8125	2.3702	2.9699	2.0691	2.8371	2.3274	1.9816	0.9565	0.1551	0.0623	0.3724	0.0684	0.2665	1.1078	1.7343	2.6182	2.957	3.1471	1.9623	3.0633	2.8962	2.3177	2.2999	1.8859	1.2074	0.6572	0.4804	0.835	0.2309	1.1888	1.5353
-3.9062	2.4453	3.0597	2.107	2.9154	2.3861	2.0519	0.9604	0.1319	0.0419	0.3685	0.0715	0.2617	1.1257	1.7528	2.7025	3.0643	3.2626	2.0008	3.1643	2.9763	2.3622	2.3833	1.9452	1.2305	0.6676	0.4634	0.8482	0.2021	1.238	1.579
0	2.5003	3.1224	2.1267	2.9708	2.426	2.0966	0.9639	0.1186	0.0337	0.3785	0.0944	0.2695	1.1424	1.7752	2.7589	3.1459	3.3384	2.0118	3.2314	3.0418	2.4049	2.446	1.9844	1.251	0.6673	0.4441	0.8593	0.181	1.2726	1.6075
3.9062	2.5462	3.1708	2.1383	3.0183	2.4634	2.126	0.9781	0.1211	0.0453	0.411	0.1432	0.2949	1.1682	1.8149	2.7962	3.2111	3.3837	2.0041	3.2748	3.104	2.4566	2.4947	2.0069	1.2755	0.6548	0.4272	0.874	0.1732	1.2941	1.6232
7.8125	2.597	3.2225	2.1559	3.0769	2.5174	2.1554	1.0136	0.1433	0.0827	0.4724	0.2205	0.3406	1.2121	1.8825	2.8278	3.2733	3.4135	1.9913	3.3097	3.1754	2.5276	2.5398	2.0201	1.3105	0.6303	0.4166	0.8975	0.1825	1.3078	1.6316
11.7188	2.6665	3.2954	2.1944	3.1653	2.606	2.2027	1.0779	0.1858	0.1479	0.5646	0.324	0.4061	1.2798	1.9844	2.8684	3.3464	3.4456	1.9896	3.3523	3.2669	2.6249	2.5921	2.0344	1.3606	0.5969	0.4153	0.9337	0.21	1.3205	1.6403
15.625	2.7642	3.4029	2.2659	3.2973	2.7418	2.285	1.1744	0.2457	0.2384	0.685	0.4463	0.4884	1.3724	2.1204	2.9303	3.4413	3.4954	2.0148	3.4156	3.3844	2.7509	2.6611	2.0606	1.4283	0.5601	0.4249	0.9845	0.2543	1.3392	1.6569
19.5312	2.8927	3.5505	2.3758	3.4777	2.929	2.4146	1.301	0.3174	0.3475	0.8268	0.5766	0.5818	1.4874	2.2848	3.02	3.5624	3.5718	2.0783	3.5058	3.5275	2.9024	2.7521	2.108	1.5135	0.528	0.4466	1.0494	0.3118	1.368	1.6874
23.4375	3.0465	3.7333	2.5213	3.7013	3.162	2.5961	1.4513	0.3941	0.4654	0.9807	0.7031	0.6803	1.6189	2.4672	3.1363	3.7067	3.6753	2.1849	3.6207	3.6889	3.0713	2.8659	2.1827	1.6152	0.5104	0.4822	1.1273	0.3789	1.4068	1.7345
27.3438	3.2135	3.9378	2.6915	3.953	3.4263	2.8247	1.6159	0.4688	0.5817	1.1371	0.816	0.7791	1.7601	2.6553	3.2706	3.8643	3.7983	2.3305	3.7508	3.8568	3.2467	2.9991	2.2875	1.7319	0.5184	0.5355	1.2176	0.4536	1.4513	1.7971
31.25	3.3788	4.1467	2.8704	4.2126	3.7019	3.0867	1.7845	0.5367	0.6877	1.2884	0.9105	0.8762	1.9055	2.838	3.41	4.0226	3.9284	2.503	3.8826	4.0184	3.4182	3.1459	2.4221	1.8635	0.5628	0.6123	1.3211	0.5369	1.4947	1.871
35.1562	3.5304	4.345	3.0418	4.4612	3.9687	3.363	1.9485	0.595	0.7779	1.4306	0.9878	0.9731	2.0521	3.0084	3.5426	4.1716	4.0551	2.6853	4.0052	4.1656	3.5794	3.3015	2.5849	2.0113	0.6517	0.7195	1.4406	0.6327	1.5305	1.9512
39.0625	3.6652	4.5281	3.1958	4.6882	4.2123	3.6336	2.1031	0.6441	0.8516	1.5635	1.0544	1.0742	2.2017	3.1665	3.6638	4.3102	4.1758	2.8611	4.1164	4.3005	3.7317	3.4649	2.7742	2.178	0.7882	0.8624	1.5804	0.7467	1.557	2.0346
42.9688	3.7925	4.7065	3.3338	4.8977	4.4297	3.8839	2.2483	0.6863	0.912	1.6909	1.1201	1.1849	2.3599	3.3204	3.7813	4.4511	4.3017	3.0211	4.2273	4.438	3.8861	3.6409	2.9896	2.3664	0.9684	1.0421	1.7446	0.8834	1.5796	2.1229
46.875	3.9338	4.9049	3.4689	5.1081	4.6301	4.1081	2.3889	0.7255	0.9653	1.8181	1.1949	1.3095	2.5354	3.484	3.9155	4.6202	4.4572	3.1667	4.3619	4.6051	4.0615	3.84	3.2315	2.5775	1.18	1.2528	1.9349	1.0438	1.6114	2.2229
50.7812	4.1165	5.1549	3.6221	5.3468	4.8313	4.3089	2.5315	0.765	1.0174	1.9498	1.2849	1.4489	2.7351	3.6727	4.0936	4.849	4.6738	3.3099	4.5511	4.8329	4.2792	4.0738	3.4992	2.8086	1.4041	1.4812	2.1482	1.223	1.6702	2.3444
54.6875	4.3633	5.4822	3.8139	5.6386	5.0519	4.4936	2.6805	0.8064	1.0717	2.0865	1.3894	1.5983	2.9596	3.8962	4.34	5.1637	4.9775	3.4678	4.8204	5.1454	4.5537	4.3488	3.7871	3.0499	1.6171	1.7075	2.3742	1.4098	1.772	2.4961
58.5938	4.6812	5.893	4.054	5.993	5.3011	4.6676	2.8334	0.8473	1.1263	2.222	1.4999	1.7467	3.1983	4.1516	4.6641	5.5708	5.3759	3.6547	5.1777	5.5467	4.8837	4.6595	4.0815	3.2844	1.7951	1.9079	2.5952	1.5871	1.9244	2.6803
62.5	5.0539	6.3655	4.335	6.3952	5.5709	4.8283	2.9786	0.8818	1.1743	2.3427	1.6001	1.8776	3.4279	4.4188	5.0515	6.0485	5.848	3.8731	5.6041	6.0133	5.2461	4.9833	4.3589	3.4875	1.918	2.0591	2.7868	1.7345	2.1217	2.8888
66.4062	5.4407	6.8488	4.6305	6.8034	5.8335	4.9625	3.0951	0.9006	1.2045	2.4288	1.6697	1.9711	3.6139	4.6614	5.4618	6.5449	6.3423	4.1093	6.0515	6.4933	5.5963	5.2815	4.5869	3.63	1.9723	2.1422	2.9213	1.8315	2.3434	3.1025
70.3125	5.7829	7.2711	4.8994	7.1557	6.0445	5.0472	3.1562	0.8941	1.2042	2.4582	1.6879	2.0079	3.7167	4.8318	5.8335	6.9853	6.7834	4.3333	6.4489	6.9132	5.8744	5.5032	4.7283	3.683	1.9536	2.1464	2.9725	1.8617	2.5575	3.2932
74.2188	6.0149	7.5544	5.0945	7.3819	6.1517	5.0544	3.1347	0.8544	1.1629	2.4112	1.6385	1.9728	3.6993	4.8804	6.0963	7.2863	7.0862	4.5044	6.7157	7.1923	6.0167	5.5949	4.7471	3.6227	1.8661	2.0707	2.9204	1.8155	2.7271	3.4291
78.125	6.0785	7.6308	5.1724	7.4187	6.106	4.9576	3.0091	0.7782	1.0749	2.2749	1.5135	1.8581	3.5351	4.766	6.1851	7.373	7.1739	4.5802	6.7775	7.2584	5.9685	5.5111	4.6155	3.4355	1.7213	1.9241	2.7552	1.6925	2.8187	3.481
82.0312	5.9353	7.458	5.103	7.2238	5.8738	4.738	2.7694	0.6682	0.9415	2.0472	1.3156	1.666	3.2149	4.4655	6.0552	7.1956	6.9951	4.5263	6.5829	7.0634	5.6964	5.2243	4.3201	3.1216	1.5351	1.7229	2.4799	1.5014	2.8092	3.4287
85.9375	5.5763	7.0288	4.8758	6.7862	5.4446	4.3904	2.4199	0.5328	0.7711	1.7382	1.0578	1.4081	2.7496	3.9802	5.6929	6.7415	6.5371	4.3257	6.1164	6.5949	5.1965	4.7325	3.8659	2.6964	1.3253	1.4875	2.1106	1.2583	2.6913	3.2651
89.8438	5.0248	6.3743	4.503	6.1303	4.8367	3.9253	1.9802	0.3851	0.5779	1.3695	0.7618	1.105	2.1705	3.3384	5.1204	6.04	5.831	3.9839	5.404	5.881	4.4978	4.0628	3.2784	2.1895	1.1081	1.2391	1.6752	0.9848	2.4754	2.9993
93.75	4.3343	5.5597	4.0181	5.3137	4.0957	3.37	1.4833	0.2405	0.3793	0.9711	0.4544	0.7827	1.5259	2.5921	4.3939	5.1598	4.9485	3.5296	4.5118	4.988	3.6598	3.2693	2.6016	1.6415	0.8974	0.9968	1.2095	0.7046	2.1874	2.6552
97.6562	3.5794	4.6738	3.4704	4.4191	3.2889	2.765	0.9715	0.1143	0.1937	0.578	0.1635	0.4698	0.8749	1.8112	3.5942	4.1978	3.9898	3.01	3.5352	4.0106	2.7641	2.4259	1.8925	1.0993	0.7036	0.7764	0.7541	0.4411	1.864	2.268
101.5625	2.8442	3.8142	2.9171	3.5413	2.4958	2.1599	0.4909	0.0192	0.0376	0.2252	-0.0852	0.1936	0.2794	1.0734	2.8135	3.2629	3.0663	2.4813	2.5841	3.0567	1.9029	1.616	1.2141	0.61	0.5343	0.59	0.3485	0.2149	1.5457	1.8787
105.4688	2.2076	3.0716	2.4136	2.7726	1.7962	1.607	0.0857	-0.036	-0.0757	-0.0562	-0.2714	-0.0225	-0.2037	0.4527	2.1393	2.4581	2.2811	1.9992	1.7631	2.2303	1.165	0.9199	0.6259	0.2155	0.3951	0.4464	0.0276	0.0422	1.2692	1.5266
109.375	1.7315	2.5156	2.0054	2.1883	1.2581	1.1541	-0.2075	-0.0479	-0.1378	-0.2431	-0.3815	-0.1618	-0.5305	0.0091	1.6403	1.8639	1.7123	1.6087	1.1551	1.6142	0.6228	0.4024	0.1757	-0.0528	0.29	0.3515	-0.1828	-0.0665	1.0617	1.2435
113.2812	1.451	2.1853	1.7217	1.836	0.9282	0.8383	-0.3646	-0.0179	-0.1452	-0.3218	-0.4096	-0.2155	-0.6758	-0.2199	1.3566	1.5263	1.4013	1.3379	0.8084	1.2586	0.3215	0.1035	-0.1068	-0.1781	0.2217	0.3083	-0.2689	-0.1065	0.9369	1.049
117.1875	1.3716	2.0853	1.573	1.7289	0.8249	0.6805	-0.3765	0.0478	-0.0998	-0.2908	-0.3581	-0.1836	-0.6362	-0.2247	1.295	1.4518	1.3493	1.1954	0.7306	1.1743	0.2735	0.0332	-0.2135	-0.1596	0.1914	0.3166	-0.2303	-0.0796	0.8947	0.9484
121.0938	1.4697	2.1878	1.5508	1.8458	0.9367	0.6827	-0.2514	0.1396	-0.0087	-0.1602	-0.237	-0.0753	-0.4309	-0.0241	1.4303	1.6098	1.5205	1.1709	0.8911	1.3335	0.4572	0.1715	-0.1581	-0.0129	0.1977	0.3723	-0.0801	0.0064	0.9229	0.933
125	1.699	2.4395	1.6308	2.1357	1.2238	0.8262	-0.014	0.2452	0.1157	0.0479	-0.0639	0.0917	-0.099	0.337	1.7119	1.9398	1.8511	1.2395	1.228	1.6771	0.822	0.472	0.0277	0.2316	0.2356	0.4667	0.1556	0.1374	1.0003	0.9836
128.9062	1.9994	2.7715	1.7773	2.5273	1.6252	1.0748	0.2971	0.3514	0.2564	0.302	0.1371	0.2922	0.305	0.7949	2.0729	2.3631	2.2617	1.3675	1.6611	2.1252	1.2959	0.8703	0.2992	0.5327	0.2965	0.5861	0.4411	0.2943	1.1014	1.0742
132.8125	2.3069	3.1107	1.9492	2.9407	2.0675	1.3791	0.6335	0.4443	0.3933	0.5641	0.3376	0.4967	0.7189	1.2759	2.4424	2.7961	2.6708	1.5188	2.1056	2.5913	1.7972	1.2944	0.6068	0.8432	0.3685	0.7132	0.7343	0.4542	1.2005	1.1773
136.7188	2.5632	3.3911	2.1061	3.3005	2.4763	1.6838	0.9437	0.5111	0.5054	0.7948	0.5082	0.6737	1.0809	1.7069	2.756	3.1631	3.0067	1.6602	2.4854	2.995	2.2469	1.6757	0.9029	1.1164	0.4382	0.8286	0.9925	0.593	1.2758	1.2681
140.625	2.7247	3.563	2.2141	3.5474	2.7882	1.9365	1.1806	0.5416	0.5736	0.9584	0.6225	0.795	1.3387	2.0259	2.9656	3.4068	3.2174	1.7667	2.7449	3.2743	2.5798	1.9591	1.149	1.3127	0.4929	0.9138	1.1779	0.6886	1.3121	1.3292
144.5312	2.7675	3.5997	2.2511	3.6463	2.9593	2.0957	1.3085	0.5291	0.5844	1.0287	0.6606	0.8396	1.4569	2.1908	3.0449	3.495	3.276	1.824	2.8549	3.3928	2.7538	2.1111	1.3206	1.4055	0.5235	0.9546	1.2634	0.7245	1.3025	1.3518
148.4375	2.6895	3.4991	2.2094	3.5901	2.9716	2.1374	1.3088	0.4721	0.5318	0.9933	0.6134	0.7973	1.4216	2.1842	2.991	3.4228	3.1827	1.8295	2.8148	3.3432	2.7545	2.1226	1.4092	1.385	0.5259	0.9432	1.2367	0.6928	1.2483	1.3366
152.3438	2.5083	3.2816	2.0955	3.3976	2.833	2.0575	1.1824	0.3745	0.4188	0.8552	0.4835	0.6709	1.2418	2.0141	2.8218	3.2101	2.9609	1.7908	2.649	3.1445	2.5945	2.0085	1.4221	1.2588	0.5023	0.8804	1.1023	0.5956	1.1582	1.292
156.25	2.2557	2.9833	1.9266	3.1068	2.5739	1.8714	0.9492	0.2457	0.2568	0.6321	0.2855	0.4755	0.9465	1.7112	2.5692	2.8943	2.6504	1.7231	2.3986	2.8357	2.309	1.802	1.3782	1.0504	0.4601	0.7743	0.88	0.4446	1.045	1.2312
160.1562	1.97	2.647	1.7257	2.7655	2.2387	1.6092	0.643	0.0991	0.0632	0.3536	0.0433	0.2362	0.5789	1.3213	2.2724	2.5219	2.2984	1.6448	2.112	2.4661	1.947	1.5466	1.303	0.7935	0.4103	0.6394	0.6011	0.2591	0.9233	1.168
164.0625	1.6883	2.3138	1.5162	2.4215	1.8768	1.309	0.306	-0.0504	-0.1416	0.0548	-0.2144	-0.0165	0.1885	0.8975	1.9697	2.1394	1.9508	1.574	1.8354	2.0858	1.5627	1.2878	1.2224	0.5263	0.3649	0.4932	0.303	0.0627	0.8063	1.1142
167.9688	1.4398	2.0157	1.3177	2.1142	1.534	1.0097	-0.0193	-0.1885	-0.3379	-0.2284	-0.4583	-0.2515	-0.1767	0.4917	1.6936	1.7865	1.6453	1.5249	1.6048	1.7387	1.2064	1.065	1.1583	0.2845	0.3343	0.3536	0.0225	-0.1205	0.7038	1.077
171.875	1.2428	1.7723	1.143	1.8695	1.2459	0.7443	-0.2963	-0.3041	-0.51	-0.466	-0.6638	-0.4421	-0.4766	0.1479	1.467	1.4913	1.4073	1.5055	1.4427	1.4564	0.9184	0.906	1.1246	0.0962	0.326	0.2359	-0.2094	-0.27	0.6216	1.0582
175.7812	1.1035	1.5899	0.9984	1.6983	1.0342	0.5358	-0.4994	-0.3912	-0.6482	-0.6373	-0.8142	-0.5701	-0.6846	-0.103	1.3023	1.2692	1.2484	1.5168	1.3569	1.257	0.7251	0.8244	1.1262	-0.0215	0.3425	0.1507	-0.3717	-0.3717	0.5609	1.0553
179.6875	1.0182	1.4643	0.8845	1.5975	0.9062	0.3951	-0.6163	-0.4494	-0.7493	-0.7332	-0.9028	-0.628	-0.7888	-0.2453	1.2019	1.1237	1.1683	1.5533	1.3423	1.1453	0.6372	0.8197	1.1598	-0.0641	0.382	0.1023	-0.4558	-0.4204	0.5197	1.0625
183.5938	0.9763	1.384	0.7986	1.5542	0.8566	0.3215	-0.6478	-0.4823	-0.8159	-0.7562	-0.933	-0.6195	-0.7918	-0.2782	1.1595	1.0484	1.1567	1.6046	1.3847	1.1149	0.6515	0.8794	1.2159	-0.0378	0.4383	0.0886	-0.4646	-0.4194	0.4934	1.0725
187.5	0.9638	1.3348	0.7364	1.5497	0.8714	0.3057	-0.6053	-0.4961	-0.8546	-0.7179	-0.9162	-0.5576	-0.708	-0.214	1.1631	1.0299	1.1971	1.6577	1.4647	1.1512	0.7528	0.983	1.2814	0.0423	0.5025	0.1025	-0.411	-0.3798	0.4764	1.0787
191.4062	0.9672	1.3027	0.6931	1.565	0.9317	0.3332	-0.5077	-0.4976	-0.8739	-0.636	-0.8693	-0.4613	-0.5591	-0.0738	1.1967	1.051	1.2696	1.6993	1.5615	1.2348	0.9178	1.1069	1.3426	0.1569	0.5646	0.1333	-0.314	-0.3171	0.4623	1.0756
195.3125	0.9745	1.2757	0.664	1.5833	1.0182	0.3877	-0.3761	-0.4919	-0.8812	-0.5302	-0.8105	-0.3518	-0.37	0.1167	1.2431	1.0928	1.3532	1.7181	1.6558	1.3442	1.119	1.2286	1.388	0.2858	0.6158	0.1699	-0.195	-0.248	0.4452	1.0599
199.2188	0.977	1.2448	0.6442	1.5924	1.1137	0.4547	-0.2309	-0.4814	-0.8815	-0.4181	-0.7555	-0.2482	-0.1644	0.331	1.285	1.1366	1.4279	1.706	1.7315	1.4577	1.3279	1.3302	1.4096	0.4115	0.6498	0.2029	-0.0735	-0.1865	0.4193	1.0299
203.125	0.968	1.2031	0.6283	1.5843	1.2047	0.523	-0.0877	-0.4653	-0.8757	-0.3125	-0.7146	-0.164	0.0378	0.5452	1.3071	1.1649	1.4754	1.6591	1.7759	1.5551	1.5184	1.4001	1.404	0.5216	0.6641	0.2267	0.0355	-0.1416	0.3796	0.9854
207.0312	0.9423	1.145	0.6103	1.5544	1.2815	0.5857	0.0435	-0.4401	-0.8607	-0.22	-0.6909	-0.1056	0.2226	0.7403	1.2965	1.1621	1.4799	1.5765	1.7792	1.6184	1.6685	1.4332	1.3724	0.6093	0.6602	0.2402	0.1233	-0.1163	0.3223	0.9268
210.9375	0.8956	1.0658	0.5839	1.4999	1.3378	0.6394	0.1591	-0.4007	-0.8305	-0.1405	-0.6808	-0.0721	0.382	0.9032	1.244	1.1158	1.4296	1.4602	1.7343	1.6328	1.7622	1.4295	1.3194	0.6734	0.6429	0.2463	0.1874	-0.108	0.245	0.8544
214.8438	0.8235	0.9618	0.543	1.4188	1.3697	0.683	0.2604	-0.3421	-0.7778	-0.0694	-0.6755	-0.0569	0.5138	1.0264	1.1446	1.0172	1.3169	1.314	1.6365	1.5877	1.7904	1.3925	1.2515	0.7165	0.6188	0.2505	0.2306	-0.1101	0.1472	0.7683
218.75	0.7227	0.8306	0.4832	1.3101	1.3748	0.7165	0.3521	-0.2607	-0.6966	0.0006	-0.6637	-0.0501	0.6196	1.108	0.9984	0.8629	1.1394	1.1431	1.4833	1.4779	1.7507	1.3267	1.1749	0.7433	0.5946	0.2585	0.2585	-0.1146	0.0312	0.6687
222.6562	0.5913	0.6722	0.4021	1.1739	1.3518	0.7388	0.439	-0.1561	-0.584	0.0767	-0.6351	-0.0417	0.7035	1.1497	0.81	0.6547	0.9006	0.9533	1.2753	1.3036	1.6473	1.2361	1.0944	0.7587	0.5753	0.2749	0.2775	-0.1146	-0.0983	0.5563
226.5625	0.4303	0.4901	0.3006	1.0125	1.3	0.7478	0.5247	-0.0313	-0.4417	0.1632	-0.583	-0.0242	0.7694	1.1555	0.5883	0.4003	0.6099	0.7512	1.0163	1.0709	1.4895	1.1235	1.0112	0.766	0.5632	0.3009	0.2923	-0.1059	-0.2342	0.4324
230.4688	0.244	0.2908	0.1825	0.8305	1.2199	0.7395	0.6094	0.1073	-0.2766	0.2608	-0.5058	0.0058	0.8198	1.1306	0.3449	0.1121	0.2816	0.5436	0.7142	0.7908	1.2899	0.99	0.9233	0.7663	0.5578	0.3342	0.3048	-0.0882	-0.368	0.3
234.375	0.0404	0.0836	0.0546	0.635	1.1131	0.7091	0.6898	0.2508	-0.1001	0.366	-0.4072	0.047	0.8551	1.0794	0.0927	-0.1946	-0.0661	0.3371	0.3808	0.4779	1.0624	0.8358	0.8262	0.7584	0.5558	0.3697	0.314	-0.0646	-0.4907	0.1629
238.2812	-0.1702	-0.1212	-0.0743	0.4342	0.9822	0.6523	0.7601	0.3894	0.0738	0.4718	-0.2957	0.0944	0.8735	1.0059	-0.156	-0.5032	-0.413	0.1371	0.0314	0.1483	0.82	0.6619	0.7145	0.7394	0.5524	0.4007	0.3163	-0.0404	-0.5945	0.0259
242.1875	-0.3767	-0.3144	-0.1952	0.2361	0.8312	0.5667	0.8125	0.5129	0.2298	0.5689	-0.1828	0.1403	0.8718	0.9125	-0.3906	-0.7988	-0.7404	-0.0516	-0.3165	-0.1833	0.573	0.4702	0.584	0.7061	0.5427	0.4202	0.3069	-0.0218	-0.6738	-0.1067
246.0938	-0.5694	-0.4902	-0.3004	0.0469	0.6645	0.4526	0.8395	0.6124	0.3543	0.6476	-0.081	0.1769	0.8474	0.8014	-0.6039	-1.0703	-1.0333	-0.2253	-0.6458	-0.505	0.3279	0.2651	0.4337	0.6557	0.5223	0.4229	0.2815	-0.0141	-0.7268	-0.2311
250	-0.7426	-0.6472	-0.3849	-0.1309	0.4869	0.3135	0.8355	0.6808	0.4362	0.6994	-0.0017	0.1973	0.7988	0.6744	-0.7922	-1.312	-1.2827	-0.3803	-0.942	-0.81	0.0876	0.053	0.2669	0.5873	0.4889	0.406	0.2372	-0.0208	-0.7556	-0.3451
253.9062	-0.895	-0.7891	-0.4482	-0.2989	0.3027	0.1558	0.798	0.7141	0.4697	0.7184	0.0465	0.1974	0.7271	0.5343	-0.9557	-1.5241	-1.4868	-0.5134	-1.1954	-1.0958	-0.1478	-0.158	0.0911	0.5025	0.442	0.3695	0.174	-0.0427	-0.7658	-0.448
257.8125	-1.0303	-0.9235	-0.4943	-0.4619	0.1152	-0.0126	0.7285	0.7113	0.4541	0.7022	0.0594	0.1764	0.6364	0.385	-1.0977	-1.7114	-1.6505	-0.6211	-1.4021	-1.3643	-0.3796	-0.3592	-0.0833	0.4052	0.3835	0.3167	0.0944	-0.0781	-0.7658	-0.5407
261.7188	-1.1556	-1.0599	-0.5315	-0.6269	-0.0734	-0.1841	0.6325	0.6751	0.3947	0.6524	0.0372	0.1369	0.5329	0.2313	-1.2235	-1.8822	-1.7837	-0.7005	-1.5645	-1.6195	-0.6091	-0.543	-0.2453	0.3019	0.317	0.2528	0.0041	-0.1226	-0.7651	-0.625
265.625	-1.279	-1.207	-0.5713	-0.8009	-0.2621	-0.3523	0.5182	0.6113	0.3016	0.5739	-0.0147	0.0843	0.424	0.0783	-1.3396	-2.0453	-1.8989	-0.7512	-1.6906	-1.866	-0.8366	-0.7041	-0.3858	0.1996	0.2473	0.1847	-0.0899	-0.1699	-0.7725	-0.7036
269.5312	-1.4077	-1.3705	-0.6253	-0.989	-0.4508	-0.5134	0.3951	0.5281	0.1886	0.4745	-0.0879	0.026	0.3171	-0.0696	-1.4524	-2.2083	-2.0084	-0.7762	-1.7915	-2.1077	-1.0609	-0.8408	-0.5002	0.1049	0.1793	0.1199	-0.1799	-0.2131	-0.7941	-0.7792
273.4375	-1.5459	-1.5513	-0.7031	-1.1927	-0.6401	-0.6662	0.2725	0.4351	0.0711	0.3636	-0.1711	-0.0301	0.2177	-0.2097	-1.5669	-2.376	-2.1224	-0.7829	-1.8804	-2.3462	-1.2794	-0.9556	-0.59	0.0223	0.1175	0.0644	-0.2595	-0.2458	-0.8325	-0.8543
277.3438	-1.6941	-1.7455	-0.8089	-1.4093	-0.8302	-0.8114	0.1579	0.342	-0.0359	0.251	-0.2531	-0.077	0.1286	-0.3415	-1.6858	-2.5496	-2.2476	-0.7824	-1.97	-2.5811	-1.4893	-1.0547	-0.6633	-0.0471	0.0645	0.022	-0.3246	-0.2637	-0.8858	-0.9304
281.25	-1.8488	-1.9445	-0.9412	-1.6323	-1.0205	-0.9503	0.0561	0.2575	-0.1197	0.146	-0.3233	-0.1096	0.0494	-0.4663	-1.8096	-2.7268	-2.3863	-0.7874	-2.0707	-2.8099	-1.6879	-1.147	-0.7326	-0.106	0.0201	-0.0067	-0.3747	-0.2657	-0.9484	-1.0082
285.1562	-2.0035	-2.1374	-1.0925	-1.8521	-1.2086	-1.0835	-0.0306	0.188	-0.1715	0.0565	-0.3735	-0.1253	-0.0226	-0.5865	-1.9359	-2.9025	-2.5365	-0.8093	-2.1889	-3.0286	-1.8729	-1.2418	-0.8129	-0.1598	-0.0185	-0.0249	-0.4124	-0.2539	-1.0122	-1.0873
289.0625	-2.1501	-2.313	-1.2516	-2.0578	-1.3904	-1.21	-0.1017	0.1373	-0.1873	-0.0119	-0.399	-0.1241	-0.0916	-0.7047	-2.0606	-3.0701	-2.6924	-0.8554	-2.3267	-3.2324	-2.0433	-1.3472	-0.9174	-0.2155	-0.057	-0.0388	-0.4426	-0.2334	-1.0686	-1.1669
292.9688	-2.2808	-2.4623	-1.4065	-2.2395	-1.5602	-1.3267	-0.1582	0.1061	-0.1685	-0.0559	-0.3984	-0.1082	-0.1618	-0.8227	-2.1785	-3.223	-2.8459	-0.9275	-2.4815	-3.4173	-2.1989	-1.4683	-1.0551	-0.2797	-0.1024	-0.056	-0.4716	-0.2104	-1.1103	-1.246
296.875	-2.3896	-2.581	-1.5469	-2.3903	-1.7117	-1.4291	-0.2012	0.0923	-0.1208	-0.075	-0.3735	-0.0813	-0.2356	-0.9409	-2.2852	-3.3564	-2.9888	-1.022	-2.6471	-3.5806	-2.341	-1.6063	-1.2283	-0.3572	-0.1614	-0.0839	-0.5046	-0.191	-1.133	-1.3245
300.7812	-2.4742	-2.6703	-1.6661	-2.5081	-1.8394	-1.513	-0.2315	0.0917	-0.0531	-0.0708	-0.3286	-0.0471	-0.3129	-1.0581	-2.3783	-3.4679	-3.1142	-1.1322	-2.8157	-3.722	-2.4714	-1.7585	-1.4319	-0.4487	-0.2382	-0.1268	-0.5448	-0.1793	-1.1371	-1.4032
304.6875	-2.5359	-2.7366	-1.762	-2.596	-1.94	-1.5751	-0.2489	0.099	0.0241	-0.0465	-0.269	-0.0088	-0.39	-1.1714	-2.4574	-3.5582	-3.2182	-1.2497	-2.979	-3.8425	-2.5916	-1.9184	-1.6539	-0.5505	-0.3324	-0.1849	-0.5921	-0.1763	-1.1269	-1.4833
308.5938	-2.5786	-2.7892	-1.8361	-2.661	-2.0131	-1.6149	-0.2528	0.1093	0.1009	-0.0063	-0.2001	0.0318	-0.4605	-1.2759	-2.5242	-3.6293	-3.2995	-1.3669	-3.1291	-3.9437	-2.7018	-2.0769	-1.8775	-0.6551	-0.4384	-0.2537	-0.6425	-0.1797	-1.1097	-1.5659
312.5	-2.6073	-2.8367	-1.8917	-2.7111	-2.0604	-1.634	-0.2423	0.1185	0.1689	0.0451	-0.127	0.0741	-0.5159	-1.3654	-2.5805	-3.6829	-3.3589	-1.4771	-3.259	-4.0254	-2.7992	-2.2234	-2.0835	-0.7518	-0.5458	-0.3242	-0.6898	-0.1849	-1.0934	-1.65
316.4062	-2.6255	-2.8832	-1.9317	-2.7519	-2.0849	-1.636	-0.2174	0.1244	0.2223	0.1032	-0.0541	0.1182	-0.5479	-1.4329	-2.6262	-3.7185	-3.3976	-1.575	-3.3626	-4.0843	-2.8779	-2.3472	-2.2538	-0.8298	-0.6418	-0.386	-0.7263	-0.1863	-1.0838	-1.732
320.3125	-2.6339	-2.9263	-1.9574	-2.7846	-2.0896	-1.6254	-0.1795	0.1263	0.2575	0.1631	0.0146	0.1634	-0.5501	-1.4719	-2.6579	-3.7321	-3.4156	-1.6562	-3.4348	-4.1136	-2.9292	-2.4387	-2.3743	-0.8799	-0.7138	-0.4294	-0.7458	-0.1796	-1.0829	-1.8052
324.2188	-2.6298	-2.9569	-1.9672	-2.8044	-2.0762	-1.6064	-0.1321	0.1242	0.2726	0.2195	0.0748	0.2081	-0.5207	-1.4777	-2.6693	-3.7169	-3.4115	-1.7173	-3.4717	-4.1043	-2.9437	-2.4914	-2.4377	-0.8974	-0.753	-0.448	-0.7445	-0.163	-1.0878	-1.8609
328.125	-2.6082	-2.9616	-1.9577	-2.8019	-2.0452	-1.5824	-0.0812	0.1186	0.2667	0.2665	0.1218	0.2483	-0.463	-1.449	-2.6521	-3.665	-3.3827	-1.7558	-3.4712	-4.0469	-2.9132	-2.5029	-2.4448	-0.8827	-0.7562	-0.4407	-0.7229	-0.1378	-1.0921	-1.8904
332.0312	-2.5636	-2.9272	-1.9252	-2.7663	-1.996	-1.5555	-0.0344	0.1092	0.2399	0.2981	0.1509	0.2784	-0.3857	-1.3882	-2.5994	-3.5703	-3.327	-1.7705	-3.4339	-3.9348	-2.8334	-2.4755	-2.4045	-0.8417	-0.7272	-0.4116	-0.6854	-0.1085	-1.0879	-1.8871
335.9375	-2.4924	-2.8449	-1.8682	-2.689	-1.9284	-1.5265	0.0002	0.0959	0.1937	0.3091	0.1585	0.2916	-0.3013	-1.302	-2.5079	-3.431	-3.2439	-1.7624	-3.3637	-3.7668	-2.7055	-2.4159	-2.3319	-0.7847	-0.6762	-0.3688	-0.6398	-0.0815	-1.0686	-1.8487
339.8438	-2.3947	-2.7142	-1.7897	-2.5671	-1.8431	-1.4952	0.0158	0.0781	0.1305	0.2959	0.1427	0.2821	-0.224	-1.2001	-2.3803	-3.2517	-3.136	-1.735	-3.2673	-3.5487	-2.5368	-2.334	-2.2457	-0.7238	-0.6171	-0.323	-0.5956	-0.0637	-1.0311	-1.7781
343.75	-2.275	-2.544	-1.6977	-2.4053	-1.7429	-1.461	0.0082	0.0565	0.0553	0.2583	0.1048	0.2466	-0.1664	-1.0941	-2.2256	-3.0431	-3.0089	-1.6942	-3.1533	-3.2934	-2.3393	-2.2412	-2.1642	-0.6712	-0.5649	-0.2848	-0.5617	-0.0606	-0.9769	-1.684
347.6562	-2.1415	-2.3513	-1.6047	-2.2158	-1.6324	-1.4232	-0.0221	0.0331	-0.0254	0.1996	0.0493	0.1859	-0.1372	-0.9946	-2.0578	-2.8205	-2.8705	-1.6481	-3.0308	-3.0183	-2.128	-2.1481	-2.1016	-0.6359	-0.532	-0.262	-0.5448	-0.0748	-0.9122	-1.5784
351.5625	-2.0045	-2.1576	-1.5254	-2.0158	-1.5177	-1.3812	-0.0702	0.0116	-0.103	0.1279	-0.0155	0.1056	-0.1381	-0.9092	-1.893	-2.6006	-2.7291	-1.6057	-2.9072	-2.7427	-1.9176	-2.062	-2.0651	-0.6223	-0.5255	-0.2583	-0.5475	-0.1048	-0.8459	-1.475
355.4688	-1.8739	-1.9842	-1.4731	-1.8247	-1.405	-1.3348	-0.1267	-0.0031	-0.1678	0.0544	-0.0793	0.0162	-0.1638	-0.8408	-1.746	-2.3981	-2.5919	-1.5757	-2.7871	-2.4837	-1.7198	-1.9855	-2.0535	-0.6286	-0.5456	-0.2718	-0.5667	-0.1452	-0.788	-1.3859
359.375	-1.7574	-1.8477	-1.4561	-1.6597	-1.2999	-1.2844	-0.1796	-0.0059	-0.2109	-0.0077	-0.1307	-0.0689	-0.2028	-0.7872	-1.6276	-2.223	-2.4638	-1.5642	-2.6718	-2.2531	-1.5417	-1.916	-2.0583	-0.6476	-0.5859	-0.2961	-0.5947	-0.1874	-0.7469	-1.3193
363.2812	-1.659	-1.7568	-1.4759	-1.5324	-1.2061	-1.231	-0.2166	0.0068	-0.2252	-0.0456	-0.1598	-0.1358	-0.2399	-0.7412	-1.5427	-2.0792	-2.3465	-1.5735	-2.5592	-2.056	-1.385	-1.8473	-2.0656	-0.6682	-0.6355	-0.3212	-0.6204	-0.2214	-0.7282	-1.2782
367.1875	-1.5788	-1.7109	-1.526	-1.4469	-1.1251	-1.1762	-0.228	0.036	-0.2074	-0.0501	-0.1597	-0.173	-0.2604	-0.6935	-1.4895	-1.9643	-2.2392	-1.6011	-2.4457	-1.8909	-1.2469	-1.7709	-2.0602	-0.6777	-0.6816	-0.3365	-0.632	-0.2379	-0.733	-1.26
371.0938	-1.5129	-1.7002	-1.5924	-1.3988	-1.0557	-1.1216	-0.2086	0.0796	-0.1589	-0.0173	-0.1284	-0.1736	-0.2532	-0.6352	-1.4607	-1.871	-2.1389	-1.6396	-2.3277	-1.751	-1.1217	-1.6798	-2.0292	-0.6657	-0.7129	-0.3332	-0.6199	-0.2306	-0.7576	-1.2575
375	-1.4549	-1.7085	-1.6565	-1.3769	-0.9947	-1.0686	-0.1594	0.1325	-0.0859	0.0495	-0.0694	-0.1373	-0.2138	-0.5606	-1.4454	-1.7897	-2.0419	-1.6779	-2.203	-1.627	-1.0035	-1.5703	-1.9653	-0.6258	-0.7221	-0.3063	-0.5794	-0.1975	-0.7945	-1.2607
378.9062	-1.3971	-1.7161	-1.698	-1.3651	-0.9375	-1.0174	-0.0869	0.1885	0.0017	0.1412	0.0092	-0.07	-0.1448	-0.4689	-1.4319	-1.7107	-1.9448	-1.7037	-2.0718	-1.5103	-0.8877	-1.4439	-1.8685	-0.5582	-0.707	-0.256	-0.512	-0.1413	-0.8334	-1.2593
382.8125	-1.3328	-1.7052	-1.6995	-1.3472	-0.879	-0.9668	-0.0018	0.241	0.0921	0.244	0.0956	0.017	-0.0557	-0.3655	-1.4101	-1.6269	-1.8458	-1.7063	-1.9375	-1.3953	-0.7736	-1.3074	-1.7462	-0.469	-0.6707	-0.1876	-0.4255	-0.0687	-0.8635	-1.2451
386.7188	-1.2586	-1.6636	-1.651	-1.3106	-0.8157	-0.9146	0.0841	0.2851	0.1739	0.3424	0.1773	0.1096	0.0399	-0.2603	-1.3741	-1.5366	-1.7459	-1.6792	-1.8066	-1.2818	-0.6643	-1.1716	-1.6113	-0.3695	-0.6203	-0.1103	-0.332	0.0103	-0.8756	-1.2137
390.625	-1.176	-1.589	-1.5524	-1.2497	-0.7466	-0.8584	0.1594	0.318	0.2378	0.4228	0.2431	0.1937	0.1264	-0.1665	-1.3235	-1.4438	-1.6491	-1.6223	-1.6878	-1.1757	-0.5667	-1.0495	-1.4803	-0.2742	-0.565	-0.0349	-0.2459	0.085	-0.8645	-1.166
394.5312	-1.0918	-1.4895	-1.4149	-1.1686	-0.6749	-0.7978	0.2155	0.339	0.2784	0.4752	0.2855	0.257	0.1894	-0.0978	-1.2639	-1.3578	-1.5628	-1.5416	-1.5909	-1.0875	-0.4901	-0.9539	-1.37	-0.1972	-0.5146	0.0278	-0.1808	0.1458	-0.8303	-1.108
398.4375	-1.0169	-1.3824	-1.2593	-1.0796	-0.6076	-0.7349	0.2472	0.3492	0.2936	0.4948	0.3014	0.2921	0.2178	-0.0653	-1.2056	-1.2908	-1.4961	-1.4488	-1.5253	-1.0296	-0.4436	-0.8952	-1.2945	-0.1506	-0.4769	0.0695	-0.1468	0.1855	-0.7784	-1.0489
402.3438	-0.9636	-1.2892	-1.1116	-1.0004	-0.555	-0.6755	0.2527	0.3504	0.2855	0.4826	0.2923	0.2964	0.206	-0.0754	-1.1605	-1.2545	-1.4582	-1.3588	-1.4981	-1.0124	-0.4335	-0.8794	-1.263	-0.1414	-0.4573	0.0858	-0.1489	0.2008	-0.7182	-0.9992
406.25	-0.9422	-1.2304	-0.9972	-0.9489	-0.5283	-0.6282	0.2331	0.3446	0.258	0.444	0.2637	0.2729	0.154	-0.1284	-1.1393	-1.2558	-1.4555	-1.2864	-1.5126	-1.0403	-0.4612	-0.9071	-1.2776	-0.1709	-0.4573	0.0767	-0.186	0.1924	-0.6604	-0.9677
410.1562	-0.9578	-1.2193	-0.9354	-0.9388	-0.5368	-0.6028	0.1911	0.3331	0.2168	0.3872	0.2233	0.2286	0.0677	-0.2182	-1.1483	-1.2949	-1.4898	-1.2433	-1.5666	-1.1102	-0.5225	-0.9735	-1.3337	-0.2349	-0.4751	0.0459	-0.2516	0.1648	-0.6144	-0.959
414.0625	-1.0085	-1.2589	-0.9345	-0.9753	-0.5851	-0.608	0.1307	0.3161	0.1671	0.3207	0.1793	0.1726	-0.0423	-0.3333	-1.1875	-1.364	-1.5566	-1.2352	-1.653	-1.211	-0.6081	-1.0687	-1.4203	-0.3242	-0.5063	-0.0003	-0.3356	0.1249	-0.5858	-0.9727
417.9688	-1.0855	-1.3408	-0.9908	-1.0538	-0.672	-0.6491	0.0565	0.2927	0.1137	0.252	0.1382	0.1145	-0.1627	-0.4595	-1.2502	-1.4492	-1.6451	-1.2609	-1.7598	-1.3259	-0.7054	-1.1795	-1.5227	-0.4271	-0.5446	-0.0541	-0.4261	0.0808	-0.575	-1.0034
421.875	-1.1751	-1.4471	-1.0891	-1.1609	-0.7895	-0.7264	-0.0272	0.2615	0.0594	0.1856	0.104	0.0617	-0.2797	-0.5823	-1.325	-1.5337	-1.7404	-1.3122	-1.8725	-1.4369	-0.8016	-1.2915	-1.625	-0.5312	-0.5834	-0.1079	-0.5123	0.0396	-0.5777	-1.042
425.7812	-1.2615	-1.5557	-1.2073	-1.278	-0.9245	-0.8341	-0.1158	0.2212	0.0059	0.1228	0.0769	0.0188	-0.3815	-0.6901	-1.3982	-1.6018	-1.8262	-1.3764	-1.9761	-1.5286	-0.8865	-1.3917	-1.7127	-0.6253	-0.6162	-0.1551	-0.5858	0.007	-0.5868	-1.0787
429.6875	-1.3309	-1.6452	-1.3213	-1.3858	-1.0608	-0.9614	-0.2047	0.1719	-0.0461	0.0631	0.0546	-0.0128	-0.4598	-0.7757	-1.4573	-1.6431	-1.8885	-1.4386	-2.0579	-1.5921	-0.9542	-1.4703	-1.7752	-0.7011	-0.6381	-0.1913	-0.6417	-0.0147	-0.5946	-1.1049
433.5938	-1.3739	-1.7002	-1.4104	-1.4683	-1.1822	-1.0933	-0.2891	0.1156	-0.0963	0.005	0.0329	-0.0343	-0.5109	-0.837	-1.494	-1.6543	-1.9182	-1.4856	-2.1089	-1.6268	-1.004	-1.5214	-1.8065	-0.7535	-0.6454	-0.2136	-0.679	-0.0255	-0.5949	-1.1155
437.5	-1.3875	-1.7144	-1.4613	-1.5164	-1.2753	-1.2136	-0.364	0.0562	-0.1436	-0.0523	0.0083	-0.0482	-0.5356	-0.8765	-1.5052	-1.6398	-1.9129	-1.5081	-2.125	-1.6396	-1.0394	-1.5436	-1.8054	-0.7808	-0.6365	-0.2212	-0.6991	-0.028	-0.5851	-1.1097
441.4062	-1.3753	-1.6914	-1.4708	-1.5293	-1.3323	-1.3073	-0.4243	-0.0004	-0.1867	-0.1076	-0.0209	-0.0571	-0.5383	-0.8998	-1.4935	-1.6102	-1.8771	-1.5023	-2.1071	-1.6428	-1.0669	-1.5391	-1.7743	-0.784	-0.6114	-0.2145	-0.705	-0.0255	-0.5662	-1.0905
445.3125	-1.3462	-1.6432	-1.4451	-1.5142	-1.3517	-1.3641	-0.4659	-0.0483	-0.2235	-0.1578	-0.0538	-0.0622	-0.5252	-0.9133	-1.4664	-1.5788	-1.8205	-1.4703	-2.0605	-1.6507	-1.0935	-1.5124	-1.7185	-0.7662	-0.5714	-0.1943	-0.7	-0.0208	-0.5427	-1.0642
449.2188	-1.3116	-1.5868	-1.3984	-1.484	-1.3393	-1.3796	-0.4862	-0.0822	-0.252	-0.1987	-0.0871	-0.0634	-0.503	-0.9226	-1.4336	-1.5589	-1.7556	-1.4186	-1.9934	-1.6755	-1.1249	-1.4691	-1.6435	-0.7313	-0.5189	-0.1614	-0.6864	-0.0146	-0.5214	-1.0381
453.125	-1.2833	-1.5398	-1.348	-1.4535	-1.3057	-1.3567	-0.4853	-0.0998	-0.2711	-0.2268	-0.1167	-0.0594	-0.4774	-0.9311	-1.4049	-1.5597	-1.6945	-1.3559	-1.915	-1.7241	-1.1637	-1.4147	-1.5547	-0.6837	-0.4567	-0.116	-0.665	-0.0057	-0.5088	-1.0186
457.0312	-1.2698	-1.5159	-1.3103	-1.4358	-1.2639	-1.3045	-0.4662	-0.1024	-0.2813	-0.2401	-0.1388	-0.0483	-0.4524	-0.9397	-1.3872	-1.5844	-1.6458	-1.2907	-1.8339	-1.7963	-1.2087	-1.3533	-1.4561	-0.6276	-0.388	-0.0584	-0.6358	0.009	-0.5096	-1.0095
460.9375	-1.2747	-1.521	-1.296	-1.4383	-1.2263	-1.2362	-0.4347	-0.0951	-0.2852	-0.2399	-0.1518	-0.0293	-0.4298	-0.9464	-1.3828	-1.6291	-1.6124	-1.2289	-1.7561	-1.8843	-1.2546	-1.2874	-1.3501	-0.567	-0.3157	0.0105	-0.5986	0.0329	-0.5252	-1.0106
464.8438	-1.2958	-1.5517	-1.3071	-1.4605	-1.2006	-1.1656	-0.3982	-0.0856	-0.2873	-0.23	-0.1571	-0.003	-0.4098	-0.9476	-1.3883	-1.683	-1.5914	-1.172	-1.6845	-1.974	-1.2933	-1.2178	-1.238	-0.5053	-0.2423	0.0886	-0.5538	0.0681	-0.5523	-1.0178
468.75	-1.325	-1.5958	-1.337	-1.4936	-1.1887	-1.1038	-0.3644	-0.0824	-0.2929	-0.2164	-0.1587	0.0278	-0.3913	-0.939	-1.395	-1.7313	-1.574	-1.117	-1.618	-2.0477	-1.3151	-1.1443	-1.1209	-0.4454	-0.1699	0.1721	-0.5028	0.1142	-0.5838	-1.0236
472.6562	-1.3507	-1.6345	-1.3719	-1.5223	-1.1856	-1.0564	-0.3393	-0.0917	-0.3071	-0.2052	-0.1619	0.0587	-0.3727	-0.9169	-1.3908	-1.7578	-1.5486	-1.0577	-1.5526	-2.0881	-1.3112	-1.0659	-0.9996	-0.3896	-0.0997	0.2557	-0.4491	0.1675	-0.6102	-1.0189
476.5625	-1.3595	-1.647	-1.3941	-1.5281	-1.1805	-1.0221	-0.3261	-0.1161	-0.3328	-0.2011	-0.1718	0.0843	-0.3524	-0.879	-1.3625	-1.748	-1.5027	-0.9863	-1.4821	-2.0813	-1.2751	-0.9814	-0.8753	-0.3395	-0.0329	0.3335	-0.397	0.2218	-0.6212	-0.9951
480.4688	-1.3394	-1.6147	-1.3869	-1.4932	-1.1595	-0.993	-0.3235	-0.1526	-0.3695	-0.2051	-0.1913	0.1003	-0.3292	-0.8248	-1.2996	-1.6928	-1.4267	-0.8961	-1.3995	-2.0198	-1.2043	-0.8902	-0.7498	-0.2953	0.0299	0.3998	-0.351	0.2699	-0.6088	-0.9459
484.375	-1.2818	-1.5254	-1.3383	-1.4052	-1.1092	-0.9572	-0.3264	-0.193	-0.4127	-0.2145	-0.2195	0.1044	-0.3022	-0.7555	-1.1966	-1.5898	-1.3157	-0.7842	-1.2996	-1.9035	-1.1005	-0.7922	-0.6251	-0.2562	0.0879	0.4508	-0.3147	0.3057	-0.5687	-0.8696
488.2812	-1.1839	-1.3765	-1.2446	-1.2604	-1.0201	-0.902	-0.3266	-0.2265	-0.4542	-0.2229	-0.2521	0.0979	-0.2709	-0.6735	-1.0552	-1.4441	-1.1707	-0.6523	-1.1795	-1.7402	-0.9699	-0.6882	-0.5039	-0.2197	0.1403	0.4852	-0.289	0.3257	-0.5021	-0.7689
492.1875	-1.0486	-1.1756	-1.1113	-1.0646	-0.8892	-0.8175	-0.3152	-0.2416	-0.4841	-0.2221	-0.2818	0.0849	-0.2347	-0.5817	-0.8839	-1.2671	-0.9992	-0.5067	-1.0407	-1.5432	-0.8215	-0.5801	-0.3888	-0.1827	0.1864	0.5046	-0.2722	0.3302	-0.4155	-0.6511
496.0938	-0.8845	-0.9384	-0.9517	-0.8321	-0.7214	-0.7003	-0.2844	-0.2306	-0.493	-0.2044	-0.301	0.0721	-0.193	-0.4829	-0.6969	-1.0734	-0.8127	-0.3568	-0.8882	-1.3287	-0.6659	-0.4706	-0.2826	-0.1417	0.2255	0.513	-0.2602	0.3233	-0.3195	-0.5259
500	-0.7033	-0.6853	-0.7831	-0.5825	-0.5287	-0.5542	-0.2301	-0.1908	-0.4746	-0.1651	-0.3035	0.0664	-0.1453	-0.3793	-0.5101	-0.8778	-0.6241	-0.2123	-0.7296	-1.1117	-0.5125	-0.3626	-0.187	-0.0941	0.2572	0.5157	-0.2475	0.3112	-0.2257	-0.4032
503.9062	-0.5173	-0.4365	-0.6227	-0.3356	-0.327	-0.3893	-0.1529	-0.1262	-0.4274	-0.1038	-0.2865	0.0732	-0.0918	-0.2722	-0.3373	-0.6909	-0.445	-0.0809	-0.5731	-0.9029	-0.3678	-0.2588	-0.1028	-0.0389	0.281	0.5173	-0.2287	0.3001	-0.1441	-0.2905
507.8125	-0.3368	-0.2071	-0.4827	-0.1071	-0.1327	-0.2198	-0.0583	-0.0463	-0.3555	-0.0249	-0.2514	0.095	-0.0331	-0.1626	-0.1869	-0.5177	-0.282	0.0338	-0.4246	-0.7066	-0.2336	-0.1607	-0.0291	0.0229	0.2973	0.5207	-0.2002	0.2948	-0.0803	-0.1913
511.7188	-0.1682	-0.0044	-0.3687	0.0948	0.0408	-0.0604	0.0444	0.0362	-0.2679	0.0634	-0.2035	0.1305	0.0293	-0.0512	-0.0599	-0.3566	-0.1356	0.1329	-0.2866	-0.5207	-0.1075	-0.0677	0.0368	0.0888	0.3065	0.5272	-0.1606	0.2974	-0.0343	-0.1047
515.625	-0.0132	0.1721	-0.2787	0.2703	0.1861	0.0777	0.1442	0.1083	-0.1762	0.1507	-0.1505	0.1755	0.0936	0.0613	0.0497	-0.2008	-0.0003	0.2216	-0.1567	-0.3388	0.0166	0.0224	0.099	0.1555	0.3105	0.5366	-0.111	0.3077	-0.001	-0.0263
519.5312	0.1306	0.3296	-0.2057	0.4258	0.3025	0.1882	0.2308	0.1592	-0.0925	0.227	-0.1004	0.2238	0.1577	0.1735	0.1526	-0.0414	0.1333	0.3072	-0.0286	-0.153	0.1456	0.1136	0.1629	0.2198	0.3119	0.5483	-0.0542	0.3237	0.0277	0.0498
523.4375	0.2672	0.4777	-0.1404	0.5714	0.3952	0.2713	0.2967	0.1833	-0.0263	0.2846	-0.0599	0.2691	0.2198	0.2833	0.2602	0.1289	0.2756	0.3965	0.1057	0.0421	0.2847	0.2104	0.2333	0.2798	0.3142	0.5619	0.0059	0.3432	0.0606	0.1291
527.3438	0.4004	0.6249	-0.0744	0.7161	0.4727	0.3321	0.3387	0.1803	0.0171	0.3197	-0.0326	0.3065	0.2781	0.3878	0.3819	0.3134	0.4343	0.4937	0.2531	0.2468	0.435	0.3162	0.3141	0.3347	0.3206	0.5774	0.0657	0.3639	0.1044	0.2142
531.25	0.5321	0.7756	-0.0024	0.865	0.5444	0.3791	0.3582	0.1557	0.0372	0.3325	-0.0186	0.3331	0.3318	0.484	0.5214	0.5096	0.6114	0.5986	0.4172	0.4556	0.5922	0.4327	0.4061	0.3848	0.3335	0.5951	0.1216	0.3845	0.1619	0.3046
535.1562	0.6618	0.9291	0.0768	1.0179	0.6183	0.4219	0.3603	0.1188	0.0381	0.3268	-0.0154	0.3484	0.3807	0.5696	0.6765	0.71	0.8031	0.7067	0.5968	0.6587	0.7483	0.5589	0.5078	0.4308	0.3538	0.615	0.171	0.4036	0.2317	0.3964
539.0625	0.7868	1.0805	0.1614	1.1704	0.6994	0.4696	0.3527	0.0813	0.0264	0.3086	-0.0185	0.3539	0.4257	0.6436	0.8397	0.9044	1.0007	0.8106	0.7866	0.8451	0.8935	0.692	0.6148	0.4734	0.3799	0.636	0.212	0.4199	0.3092	0.4841
542.9688	0.9044	1.2236	0.2482	1.3157	0.79	0.5292	0.3443	0.0547	0.0097	0.2853	-0.0232	0.352	0.4684	0.7072	1.0012	1.0834	1.1934	0.9028	0.979	1.0058	1.0196	0.8275	0.7217	0.5127	0.4086	0.6562	0.2439	0.4319	0.3881	0.5626
546.875	1.0132	1.3534	0.3349	1.4482	0.8902	0.6055	0.3435	0.0484	-0.0052	0.2636	-0.0257	0.3456	0.5111	0.7638	1.1513	1.2409	1.3714	0.9775	1.166	1.1377	1.1228	0.961	0.8231	0.549	0.4352	0.6733	0.2668	0.4381	0.4627	0.6284
550.7812	1.1141	1.4693	0.4213	1.5661	0.9991	0.7	0.3568	0.068	-0.0134	0.2495	-0.0234	0.3373	0.5563	0.8187	1.2841	1.3764	1.529	1.0335	1.3416	1.2442	1.2053	1.0888	0.915	0.5823	0.4549	0.6846	0.2819	0.4377	0.5295	0.6815
554.6875	1.2112	1.5754	0.5102	1.6726	1.1161	0.8125	0.3887	0.1145	-0.0119	0.2474	-0.0158	0.3292	0.6062	0.8781	1.3988	1.495	1.6658	1.0743	1.5031	1.3354	1.2748	1.2088	0.9961	0.6128	0.4638	0.688	0.2909	0.4306	0.5885	0.7252
558.5938	1.3109	1.6807	0.6073	1.7757	1.2417	0.9409	0.4412	0.1843	0	0.2602	-0.0032	0.3232	0.6628	0.9487	1.4999	1.6066	1.787	1.1079	1.6517	1.4255	1.3435	1.3206	1.0675	0.6418	0.4597	0.6822	0.2963	0.4176	0.6423	0.7656
562.5	1.421	1.7966	0.7194	1.8872	1.3782	1.0831	0.5138	0.2701	0.0214	0.2894	0.0132	0.3213	0.7272	1.0363	1.5957	1.7236	1.9015	1.1447	1.7914	1.5301	1.4251	1.4258	1.1333	0.6711	0.443	0.6668	0.3014	0.4009	0.696	0.8102
566.4062	1.5489	1.935	0.853	2.0194	1.5289	1.2372	0.6042	0.3623	0.0502	0.335	0.0323	0.3254	0.8007	1.1453	1.6963	1.858	2.0201	1.1956	1.9281	1.6625	1.5317	1.5271	1.1992	0.7035	0.4165	0.6433	0.3094	0.3833	0.7549	0.8659
570.3125	1.7	2.1051	1.0128	2.1828	1.6978	1.402	0.7092	0.4505	0.0834	0.3959	0.0531	0.3376	0.884	1.2777	1.8107	2.0188	2.1524	1.269	2.0677	1.8308	1.6715	1.628	1.2718	0.7422	0.3852	0.615	0.3242	0.3683	0.8234	0.9377
574.2188	1.8759	2.3112	1.2003	2.3829	1.8876	1.5767	0.8246	0.5262	0.118	0.4694	0.0753	0.3597	0.9778	1.4325	1.9441	2.2098	2.3047	1.3695	2.2146	2.0357	1.8465	1.732	1.3571	0.7902	0.3556	0.5869	0.3491	0.3595	0.904	1.0272
578.125	2.0744	2.5517	1.4131	2.6192	2.0984	1.7603	0.946	0.5836	0.151	0.5522	0.0987	0.3929	1.0823	1.6059	2.0971	2.4287	2.4778	1.4963	2.3697	2.2703	2.0515	1.8412	1.4586	0.8499	0.3345	0.5648	0.3869	0.36	0.9959	1.1325
582.0312	2.2889	2.8191	1.6447	2.8845	2.3271	1.9512	1.0694	0.621	0.1808	0.6401	0.1236	0.4374	1.1973	1.7911	2.2653	2.6674	2.667	1.6436	2.531	2.5213	2.2754	1.9564	1.5768	0.922	0.3279	0.5548	0.4394	0.372	1.0961	1.2484
585.9375	2.5099	3.1013	1.8856	3.1669	2.5674	2.1468	1.1918	0.6408	0.2074	0.7296	0.1505	0.4924	1.3219	1.98	2.4409	2.9141	2.8633	1.8009	2.6931	2.7723	2.5037	2.0769	1.708	1.006	0.3395	0.5614	0.5069	0.3962	1.1998	1.3677
589.8438	2.7266	3.3843	2.1245	3.4523	2.8109	2.3432	1.3111	0.6485	0.2324	0.8179	0.181	0.5561	1.4542	2.1645	2.6156	3.1565	3.0563	1.9558	2.85	3.0076	2.7214	2.2011	1.8455	1.1005	0.3704	0.5874	0.5887	0.4321	1.3018	1.4826
593.75	2.9296	3.6554	2.351	3.7274	3.0486	2.5357	1.4268	0.652	0.259	0.9036	0.2177	0.6266	1.5914	2.3383	2.7829	3.3842	3.2373	2.0966	2.9965	3.2159	2.917	2.3271	1.9812	1.2032	0.419	0.6332	0.6831	0.4779	1.3978	1.5865
597.6562	3.1124	3.9051	2.557	3.9825	3.2727	2.7195	1.5393	0.659	0.291	0.9867	0.2636	0.7021	1.7302	2.4976	2.9401	3.5916	3.4018	2.2152	3.1305	3.3933	3.0847	2.4536	2.107	1.3122	0.4809	0.6971	0.7881	0.5316	1.4855	1.6753
601.5625	3.2727	4.1292	2.7383	4.2127	3.4777	2.8892	1.6492	0.6758	0.3318	1.0681	0.3221	0.7818	1.8664	2.6418	3.0885	3.7785	3.551	2.3085	3.2536	3.5432	3.225	2.5803	2.2173	1.4259	0.5506	0.7758	0.9015	0.5914	1.5647	1.748
605.4688	3.4122	4.3277	2.8944	4.4177	3.6605	3.0401	1.7567	0.7055	0.3827	1.1485	0.3954	0.8654	1.9959	2.7721	3.2321	3.9487	3.6906	2.3797	3.3709	3.6751	3.3438	2.7079	2.3101	1.5428	0.6221	0.8651	1.0209	0.6564	1.6369	1.8067
609.375	3.5355	4.5037	3.0277	4.6003	3.8203	3.168	1.8603	0.7472	0.4424	1.2277	0.483	0.9525	2.1143	2.8905	3.3751	4.1082	3.8283	2.4363	3.4886	3.8008	3.4497	2.8373	2.387	1.6614	0.6903	0.9606	1.1436	0.7259	1.7043	1.8554
613.2812	3.6474	4.6608	3.1416	4.7638	3.9571	3.2694	1.9567	0.7959	0.5064	1.3034	0.5809	1.0422	2.2174	2.9984	3.5195	4.2619	3.9705	2.4889	3.6123	3.9299	3.5508	2.969	2.4526	1.7791	0.7517	1.0578	1.2657	0.7992	1.7684	1.8993
617.1875	3.7512	4.8011	3.2391	4.9096	4.0708	3.3423	2.0407	0.8442	0.5676	1.3713	0.6812	1.1316	2.3012	3.0946	3.6627	4.4106	4.1187	2.5473	3.7439	4.0668	3.6516	3.1018	2.5126	1.8921	0.805	1.1519	1.3825	0.8745	1.8292	1.9428
621.0938	3.8469	4.9233	3.3218	5.0355	4.1599	3.3859	2.1054	0.8832	0.6176	1.4253	0.7729	1.2159	2.3619	3.1752	3.797	4.5499	4.2681	2.6179	3.8798	4.2076	3.7507	3.2316	2.5714	1.9948	0.8498	1.2381	1.4877	0.9485	1.8845	1.9885
625	3.9308	5.0229	3.3899	5.1354	4.2216	3.4012	2.1443	0.9053	0.6484	1.459	0.8437	1.2883	2.3962	3.234	3.9102	4.6699	4.4075	2.7015	4.0111	4.3406	3.8405	3.3515	2.6305	2.0801	0.887	1.3113	1.5743	1.0163	1.931	2.0363
628.9062	3.9963	5.0929	3.4418	5.2007	4.2523	3.3901	2.1519	0.9053	0.654	1.4676	0.8826	1.3412	2.402	3.2635	3.9885	4.7577	4.5213	2.7926	4.1245	4.4485	3.9092	3.4524	2.6877	2.1408	0.9174	1.3675	1.6356	1.072	1.9642	2.0837
632.8125	4.0352	5.1259	3.4755	5.2225	4.2482	3.3557	2.126	0.8818	0.6319	1.4489	0.8824	1.3682	2.3784	3.2577	4.0195	4.8004	4.5934	2.88	4.2054	4.5128	3.9436	3.5241	2.7376	2.1707	0.9423	1.404	1.6664	1.1106	1.9802	2.1256
636.7188	4.0404	5.1163	3.4881	5.194	4.2072	3.3016	2.0679	0.8374	0.5837	1.405	0.8415	1.3654	2.3269	3.2135	3.996	4.7889	4.611	2.9495	4.241	4.5182	3.9328	3.5578	2.7736	2.1667	0.9624	1.4206	1.6647	1.1286	1.9767	2.1563
640.625	4.0077	5.0622	3.477	5.1136	4.1297	3.2314	1.983	0.7776	0.5152	1.3421	0.7654	1.3332	2.2516	3.1327	3.9181	4.7206	4.5687	2.9872	4.224	4.4569	3.8721	3.5481	2.7892	2.1292	0.9791	1.4197	1.632	1.1261	1.9534	2.1706
644.5312	3.9378	4.9672	3.44	4.9861	4.02	3.149	1.8803	0.7099	0.4351	1.2693	0.6653	1.2765	2.1591	3.0225	3.794	4.6013	4.4697	2.9837	4.1541	4.3314	3.764	3.4944	2.7805	2.063	0.9934	1.4063	1.5741	1.106	1.9123	2.165
648.4375	3.8373	4.8406	3.3771	4.8231	3.8863	3.059	1.7711	0.6427	0.3541	1.1977	0.5565	1.2042	2.0582	2.8948	3.639	4.445	4.3269	2.9368	4.0397	4.1552	3.6194	3.4018	2.7468	1.9764	1.0066	1.387	1.4996	1.0748	1.858	2.1393
652.3438	3.7178	4.6966	3.2913	4.6421	3.7411	2.9668	1.6679	0.5834	0.2828	1.1378	0.4558	1.1277	1.9596	2.7649	3.4735	4.2723	4.1606	2.8524	3.8963	3.9508	3.456	3.2806	2.6911	1.8804	1.02	1.369	1.4196	1.0403	1.7965	2.0964
656.25	3.5949	4.5526	3.189	4.4641	3.5988	2.8785	1.5821	0.5377	0.2298	1.0977	0.3781	1.0584	1.874	2.6482	3.3192	4.1073	3.9953	2.7444	3.7441	3.7463	3.2949	3.1453	2.6196	1.7872	1.0345	1.3589	1.3453	1.011	1.735	2.0425
660.1562	3.485	4.4263	3.0802	4.3102	3.4744	2.8006	1.5221	0.5085	0.1998	1.0812	0.3326	1.006	1.8103	2.5581	3.1955	3.9726	3.8549	2.632	3.6044	3.5697	3.1569	3.0117	2.5407	1.708	1.0506	1.3615	1.2866	0.9939	1.6801	1.9854
664.0625	3.4024	4.3322	2.9769	4.1978	3.3802	2.7389	1.4915	0.4953	0.1925	1.087	0.3219	0.9762	1.7738	2.5027	3.1161	3.8858	3.7589	2.536	3.4953	3.4441	3.0582	2.8944	2.4638	1.6515	1.0684	1.3788	1.2501	0.9927	1.6371	1.9334
667.9688	3.3558	4.2795	2.891	4.1373	3.3239	2.6973	1.4884	0.4944	0.2027	1.1084	0.3403	0.9694	1.7649	2.4833	3.0873	3.8559	3.7177	2.4745	3.4282	3.3824	3.0072	2.8043	2.3973	1.6222	1.0871	1.409	1.2382	1.0072	1.6094	1.8936
671.875	3.3471	4.2699	2.8318	4.1307	3.3065	2.6768	1.5053	0.5001	0.2215	1.135	0.376	0.9813	1.778	2.4938	3.1066	3.8809	3.7312	2.4591	3.4052	3.3853	3.0022	2.7455	2.347	1.6187	1.1047	1.4469	1.2479	1.0325	1.598	1.8705
675.7812	3.3701	4.2974	2.8042	4.1707	3.3227	2.6753	1.5306	0.5055	0.2377	1.1538	0.413	1.0031	1.8023	2.5221	3.1637	3.9489	3.7886	2.492	3.4185	3.4407	3.0324	2.7153	2.3144	1.6345	1.1182	1.4839	1.2718	1.0599	1.6014	1.8648
679.6875	3.4114	4.3483	2.8064	4.2418	3.3608	2.6869	1.5505	0.5043	0.2406	1.152	0.4349	1.0238	1.8233	2.552	3.2425	4.0393	3.8697	2.5657	3.4516	3.5263	3.079	2.7036	2.2961	1.6582	1.1239	1.5097	1.2986	1.0786	1.6162	1.8733
683.5938	3.4533	4.4039	2.8306	4.3231	3.4052	2.7028	1.5517	0.4918	0.2218	1.1191	0.4274	1.032	1.8254	2.5662	3.323	4.1269	3.9488	2.6639	3.482	3.6138	3.1198	2.6954	2.284	1.6755	1.1172	1.5143	1.3159	1.078	1.6369	1.8892
687.5	3.4765	4.4432	2.8634	4.3916	3.4389	2.7119	1.5237	0.4659	0.1768	1.049	0.3815	1.0178	1.7947	2.5496	3.3852	4.1862	3.9994	2.7654	3.486	3.6748	3.1329	2.6732	2.267	1.6721	1.0943	1.4899	1.3117	1.0496	1.6567	1.9035
691.4062	3.4638	4.4463	2.8891	4.426	3.4457	2.7024	1.4609	0.4271	0.1061	0.9412	0.295	0.9752	1.7217	2.4918	3.4114	4.1959	3.9988	2.8479	3.4433	3.6862	3.1014	2.6208	2.2331	1.6362	1.0528	1.4331	1.2771	0.9896	1.6685	1.9068
695.3125	3.404	4.398	2.8924	4.4099	3.4134	2.6637	1.3631	0.3785	0.0146	0.8008	0.1724	0.9027	1.6037	2.3888	3.3894	4.1429	3.9327	2.8931	3.3419	3.6345	3.0167	2.5267	2.1724	1.561	0.9927	1.3456	1.2081	0.8993	1.6654	1.8912
699.2188	3.2933	4.2904	2.8618	4.3349	3.3351	2.5879	1.2353	0.3243	-0.089	0.6384	0.0246	0.8036	1.4449	2.2435	3.3139	4.0238	3.7979	2.8901	3.1801	3.518	2.8798	2.3871	2.0794	1.4462	0.9175	1.2349	1.1064	0.7854	1.6423	1.8523
703.125	3.1363	4.1247	2.7913	4.2007	3.2101	2.4713	1.0864	0.2694	-0.1946	0.4669	-0.134	0.6851	1.2559	2.0648	3.187	3.8453	3.6025	2.8376	2.9677	3.3462	2.7009	2.2063	1.9548	1.2981	0.833	1.1128	0.9789	0.6585	1.5965	1.7902
707.0312	2.9443	3.9095	2.6812	4.0151	3.0434	2.3147	0.9271	0.2176	-0.2925	0.2999	-0.2884	0.5566	1.0513	1.8651	3.017	3.622	3.3635	2.7429	2.7228	3.1367	2.4958	1.9961	1.8052	1.128	0.7471	0.9927	0.836	0.5307	1.5279	1.7086
710.9375	2.7324	3.6595	2.5363	3.7911	2.8442	2.1232	0.7675	0.1705	-0.3756	0.1483	-0.4255	0.4281	0.8464	1.6579	2.8165	3.3729	3.1029	2.6191	2.4681	2.9106	2.2829	1.773	1.6416	0.9497	0.6675	0.8874	0.6895	0.4132	1.4391	1.6142
714.8438	2.5163	3.3919	2.3651	3.5447	2.624	1.9058	0.6156	0.1281	-0.4407	0.0188	-0.5368	0.3085	0.6543	1.4551	2.6004	3.1169	2.8422	2.4816	2.2252	2.6876	2.0782	1.5544	1.4774	0.7768	0.6	0.8056	0.5501	0.3142	1.3351	1.5145
718.75	2.3089	3.1226	2.1776	3.2915	2.3947	1.6738	0.4769	0.0885	-0.4884	-0.0861	-0.6189	0.2047	0.4844	1.2658	2.3829	2.8703	2.5987	2.3441	2.0109	2.4824	1.8936	1.3557	1.3257	0.6209	0.5479	0.7511	0.4267	0.2382	1.2219	1.4164
722.6562	2.1188	2.8647	1.9836	3.0446	2.1673	1.4394	0.3545	0.0501	-0.5217	-0.1674	-0.6732	0.1208	0.3412	1.0956	2.1763	2.6438	2.3827	2.216	1.8345	2.3032	1.7353	1.1885	1.1975	0.4902	0.5112	0.7221	0.3249	0.1857	1.1063	1.3249
726.5625	1.9494	2.6266	1.7927	2.8136	1.9512	1.2147	0.2498	0.0118	-0.5454	-0.2284	-0.7042	0.0585	0.2257	0.948	1.9897	2.4428	2.1972	2.1019	1.698	2.1515	1.6049	1.0591	1.1005	0.3894	0.4881	0.7131	0.2475	0.1544	0.9946	1.243
730.4688	1.8004	2.4128	1.6126	2.6043	1.7538	1.0103	0.1637	-0.0256	-0.5634	-0.2725	-0.7174	0.0173	0.136	0.8251	1.8286	2.2679	2.04	2.0021	1.5979	2.0246	1.5013	0.9699	1.0386	0.3201	0.4756	0.7165	0.1951	0.1404	0.8922	1.1719
734.375	1.6695	2.2246	1.4498	2.4194	1.581	0.8347	0.0973	-0.0597	-0.5783	-0.302	-0.7184	-0.005	0.0697	0.7288	1.6955	2.1173	1.9064	1.9141	1.5276	1.9178	1.4225	0.9196	1.0124	0.2819	0.4709	0.7252	0.1667	0.1394	0.8026	1.1119
738.2812	1.5539	2.0617	1.3085	2.2603	1.4375	0.6939	0.0518	-0.0869	-0.5903	-0.318	-0.7107	-0.0114	0.0246	0.6615	1.5905	1.9884	1.7916	1.8345	1.4804	1.8272	1.3674	0.9049	1.0193	0.2722	0.472	0.7337	0.1599	0.1478	0.7282	1.0625
742.1875	1.4524	1.9237	1.1915	2.1271	1.3274	0.5914	0.029	-0.1032	-0.5977	-0.32	-0.6966	-0.0056	-0.0003	0.6254	1.5115	1.879	1.6929	1.7607	1.4508	1.7507	1.3361	0.9209	1.0541	0.2868	0.4774	0.739	0.171	0.1624	0.6693	1.0231
746.0938	1.3654	1.8103	1.0997	2.0201	1.2536	0.5279	0.03	-0.1051	-0.5977	-0.3071	-0.6769	0.0089	-0.0054	0.6217	1.4557	1.788	1.61	1.6918	1.4357	1.6881	1.329	0.9611	1.1085	0.3196	0.4853	0.7398	0.1952	0.1803	0.6252	0.9929
750	1.2947	1.7212	1.033	1.9388	1.2176	0.5019	0.0545	-0.0904	-0.5872	-0.2785	-0.6522	0.0282	0.0091	0.649	1.4188	1.7145	1.544	1.6283	1.4328	1.6406	1.3459	1.0176	1.1724	0.3627	0.4933	0.7354	0.2266	0.1986	0.5942	0.9703
753.9062	1.2417	1.6552	0.9893	1.8816	1.218	0.5087	0.1003	-0.0587	-0.5645	-0.2353	-0.6235	0.0488	0.0416	0.7029	1.3954	1.6572	1.4954	1.5718	1.4397	1.6087	1.384	1.0812	1.2341	0.4065	0.4972	0.7243	0.2583	0.2133	0.5739	0.9533
757.8125	1.2065	1.6093	0.965	1.845	1.2501	0.5411	0.1626	-0.0113	-0.5297	-0.1803	-0.5928	0.0669	0.089	0.7749	1.3786	1.6132	1.4621	1.5234	1.4518	1.5908	1.4372	1.1415	1.2819	0.4415	0.4925	0.7038	0.2834	0.2198	0.5617	0.9388
761.7188	1.1865	1.5781	0.9548	1.8238	1.3055	0.5895	0.2347	0.0485	-0.4853	-0.1182	-0.5627	0.0794	0.1461	0.8539	1.3608	1.5774	1.4386	1.4833	1.4625	1.5823	1.4962	1.1886	1.306	0.4598	0.4749	0.6708	0.2961	0.2136	0.5541	0.9235
765.625	1.1761	1.5546	0.9518	1.8115	1.373	0.6431	0.3083	0.1164	-0.4357	-0.0548	-0.5362	0.0841	0.2064	0.9279	1.3344	1.5428	1.4162	1.45	1.4632	1.5756	1.5499	1.2144	1.3009	0.4571	0.4424	0.6232	0.2932	0.1911	0.5476	0.9039
769.5312	1.1679	1.531	0.9482	1.8018	1.4406	0.6922	0.3754	0.1883	-0.3859	0.0046	-0.515	0.0801	0.2633	0.9854	1.2928	1.5016	1.3838	1.4205	1.4447	1.5612	1.5868	1.2143	1.2661	0.4334	0.3965	0.5611	0.275	0.1508	0.5385	0.8774
773.4375	1.1536	1.5002	0.9362	1.7898	1.4974	0.7293	0.43	0.2608	-0.3405	0.0566	-0.4997	0.0685	0.3115	1.0185	1.2315	1.4458	1.3298	1.3907	1.3989	1.5289	1.5975	1.1874	1.2068	0.3939	0.342	0.4874	0.2453	0.0933	0.5234	0.842
777.3438	1.1255	1.4574	0.9088	1.7728	1.5357	0.7507	0.4686	0.3323	-0.3024	0.1001	-0.4891	0.0519	0.3477	1.0227	1.1485	1.369	1.244	1.3557	1.3199	1.4697	1.5762	1.1367	1.1318	0.3466	0.2865	0.408	0.2102	0.0219	0.4996	0.7973
781.25	1.0782	1.3999	0.8614	1.7504	1.5517	0.7565	0.4911	0.4029	-0.2721	0.1369	-0.4806	0.0337	0.3712	0.9984	1.0446	1.267	1.1198	1.3112	1.2051	1.378	1.5212	1.0676	1.0511	0.3009	0.2381	0.3294	0.1769	-0.0594	0.4654	0.7436
785.1562	1.0097	1.328	0.7924	1.7239	1.546	0.7498	0.5001	0.4736	-0.2484	0.1702	-0.4711	0.0173	0.3836	0.9493	0.9225	1.1391	0.9552	1.2539	1.056	1.2521	1.435	0.9867	0.9736	0.2646	0.203	0.2575	0.1515	-0.1458	0.4204	0.6821
789.0625	0.9213	1.244	0.7037	1.6952	1.5225	0.7352	0.4999	0.5459	-0.2288	0.2037	-0.458	0.0049	0.3879	0.8819	0.7865	0.9879	0.7537	1.1826	0.8776	1.0955	1.3238	0.8999	0.9048	0.2423	0.184	0.1957	0.1374	-0.2336	0.3658	0.6146
792.9688	0.8174	1.1514	0.6001	1.6658	1.4873	0.7173	0.4951	0.6209	-0.2109	0.2395	-0.4404	-0.0031	0.3877	0.8037	0.6414	0.819	0.5242	1.0991	0.6783	0.9157	1.196	0.812	0.8462	0.2339	0.1796	0.1438	0.1345	-0.3206	0.3039	0.543
796.875	0.7047	1.0542	0.4884	1.6362	1.447	0.6992	0.4895	0.6982	-0.1931	0.2782	-0.4193	-0.0076	0.3864	0.7222	0.4924	0.6405	0.2794	1.0079	0.4687	0.7233	1.0612	0.7261	0.7957	0.2353	0.1845	0.0982	0.1393	-0.406	0.2382	0.4695
