time	FP1	F3	F7	FC3	C3	C5	P3	P7	PO7	PO3	O1	Oz	Pz	CPz	FP2	Fz	F4	F8	FC4	FCz	Cz	C4	C6	P4	P8	PO8	PO4	O2	HEOG_left	HEOG_right
-199.2188	-1.3215	-1.0566	-1.1317	-0.8998	-0.6151	-0.6623	-0.1223	-0.1619	-0.3339	-0.0986	-0.0645	0.4759	-0.186	-0.4511	-1.2962	-1.1073	-1.2999	-0.8461	-0.8932	-0.9767	-0.8624	-0.4745	-0.2517	0.032	-0.3789	0.3401	0.2752	0.117	-1.2275	-0.9584
-195.3125	-1.1714	-0.9577	-1.014	-0.7223	-0.4319	-0.5101	-0.1831	-0.1344	-0.3793	-0.2401	-0.2454	0.1597	-0.3012	-0.4092	-1.134	-0.949	-1.1283	-0.8134	-0.833	-0.8269	-0.7219	-0.5757	-0.4114	-0.1287	-0.4872	0.0034	0.0109	-0.2427	-1.0988	-0.9022
-191.4062	-1.031	-0.8621	-0.8976	-0.559	-0.2675	-0.3711	-0.242	-0.1137	-0.4253	-0.3755	-0.4193	-0.135	-0.4069	-0.3662	-0.9765	-0.7972	-0.9699	-0.7784	-0.7789	-0.6804	-0.5863	-0.6713	-0.5588	-0.2766	-0.5843	-0.3056	-0.2314	-0.5729	-0.9751	-0.8429
-187.5	-0.9096	-0.7728	-0.7836	-0.4222	-0.1395	-0.2579	-0.2977	-0.1045	-0.4692	-0.4977	-0.5762	-0.388	-0.4966	-0.3239	-0.8285	-0.6602	-0.8374	-0.7394	-0.7378	-0.5432	-0.463	-0.7575	-0.6862	-0.4022	-0.6617	-0.5645	-0.4341	-0.8475	-0.8583	-0.7763
-183.5938	-0.8134	-0.6935	-0.6758	-0.3217	-0.0605	-0.1803	-0.3493	-0.11	-0.5084	-0.6012	-0.707	-0.5838	-0.5668	-0.2873	-0.6963	-0.5466	-0.7413	-0.697	-0.7153	-0.4235	-0.3608	-0.8313	-0.7884	-0.4993	-0.7132	-0.7565	-0.5843	-1.0468	-0.7505	-0.7006
-179.6875	-0.7445	-0.6288	-0.5796	-0.2633	-0.0371	-0.1444	-0.3963	-0.1312	-0.5398	-0.682	-0.8036	-0.713	-0.618	-0.2633	-0.5873	-0.4648	-0.6876	-0.6541	-0.7154	-0.3309	-0.2888	-0.8915	-0.8639	-0.5654	-0.7364	-0.8729	-0.6758	-1.1597	-0.6541	-0.6173
-175.7812	-0.7008	-0.5825	-0.5014	-0.2487	-0.0697	-0.1514	-0.4384	-0.1667	-0.5599	-0.738	-0.86	-0.7727	-0.6536	-0.2604	-0.5082	-0.4215	-0.6775	-0.6156	-0.7392	-0.2753	-0.2553	-0.9382	-0.9144	-0.6023	-0.7322	-0.9136	-0.7096	-1.1848	-0.5707	-0.5308
-171.875	-0.6776	-0.5574	-0.4464	-0.2751	-0.1521	-0.1979	-0.4753	-0.2127	-0.5655	-0.768	-0.8726	-0.7669	-0.6795	-0.2861	-0.4632	-0.4205	-0.7069	-0.5866	-0.785	-0.2639	-0.2656	-0.9723	-0.9442	-0.6151	-0.7048	-0.8875	-0.693	-1.1304	-0.5007	-0.4473
-167.9688	-0.669	-0.5542	-0.4168	-0.3357	-0.2734	-0.2762	-0.5064	-0.263	-0.5535	-0.7723	-0.8412	-0.7052	-0.7019	-0.3445	-0.4524	-0.4614	-0.7671	-0.5713	-0.8473	-0.2997	-0.3205	-0.9952	-0.9588	-0.611	-0.6607	-0.8108	-0.6382	-1.013	-0.4424	-0.3736
-164.0625	-0.6691	-0.5712	-0.4111	-0.421	-0.4198	-0.3759	-0.5309	-0.3104	-0.5216	-0.7519	-0.7691	-0.6016	-0.7252	-0.4344	-0.4709	-0.5389	-0.8458	-0.5711	-0.918	-0.3794	-0.4149	-1.0081	-0.9633	-0.5974	-0.6073	-0.7044	-0.5599	-0.8546	-0.3927	-0.3151
-160.1562	-0.6731	-0.6046	-0.4239	-0.5205	-0.5762	-0.4857	-0.5478	-0.3479	-0.4699	-0.7091	-0.6636	-0.4727	-0.7513	-0.5487	-0.5094	-0.6432	-0.9292	-0.584	-0.9871	-0.4935	-0.5384	-1.0113	-0.9609	-0.5802	-0.5519	-0.5901	-0.4727	-0.6797	-0.347	-0.2751
-156.25	-0.6767	-0.6495	-0.4476	-0.6238	-0.7288	-0.5949	-0.5566	-0.3706	-0.4008	-0.6476	-0.5356	-0.3352	-0.7785	-0.6748	-0.5562	-0.7609	-1.0039	-0.6049	-1.0442	-0.6279	-0.6763	-1.0044	-0.9515	-0.5629	-0.5002	-0.4866	-0.3887	-0.5113	-0.3009	-0.2533
-152.3438	-0.6763	-0.7001	-0.4737	-0.7222	-0.8661	-0.6946	-0.5571	-0.3769	-0.3202	-0.5724	-0.3987	-0.205	-0.8024	-0.7971	-0.5995	-0.8773	-1.0586	-0.6259	-1.0804	-0.7663	-0.8121	-0.986	-0.932	-0.5456	-0.4558	-0.4065	-0.316	-0.3677	-0.2511	-0.2469
-148.4375	-0.6682	-0.7508	-0.4949	-0.8089	-0.9796	-0.7778	-0.5497	-0.369	-0.2363	-0.4899	-0.2679	-0.0946	-0.817	-0.9	-0.6294	-0.9787	-1.0848	-0.6387	-1.0887	-0.8928	-0.9303	-0.9545	-0.8971	-0.526	-0.4199	-0.3548	-0.2585	-0.2611	-0.1966	-0.2506
-144.5312	-0.6489	-0.7963	-0.5062	-0.8791	-1.0632	-0.8394	-0.5356	-0.3523	-0.159	-0.4072	-0.1574	-0.0132	-0.8168	-0.9709	-0.6394	-1.0538	-1.0778	-0.6359	-1.0655	-0.9944	-1.019	-0.9087	-0.8415	-0.501	-0.3916	-0.3293	-0.2164	-0.1965	-0.1397	-0.2584
-140.625	-0.6162	-0.8315	-0.5053	-0.9291	-1.1135	-0.8755	-0.5164	-0.3343	-0.0982	-0.3319	-0.0792	0.0342	-0.7983	-1.0026	-0.627	-1.0958	-1.0369	-0.6125	-1.0107	-1.0632	-1.0712	-0.8486	-0.7621	-0.4684	-0.3693	-0.3235	-0.1884	-0.173	-0.0845	-0.2639
-136.7188	-0.5699	-0.8517	-0.4917	-0.9564	-1.1288	-0.8839	-0.4948	-0.3225	-0.0616	-0.271	-0.0409	0.0465	-0.7611	-0.9943	-0.5929	-1.1026	-0.965	-0.5674	-0.9281	-1.0961	-1.0861	-0.7766	-0.6606	-0.4283	-0.3512	-0.3289	-0.1728	-0.1859	-0.0368	-0.2616
-132.8125	-0.5121	-0.8527	-0.466	-0.9591	-1.109	-0.8635	-0.4738	-0.3227	-0.0542	-0.2304	-0.0456	0.0252	-0.708	-0.9512	-0.5411	-1.0765	-0.8687	-0.5025	-0.8248	-1.0949	-1.0675	-0.6974	-0.5439	-0.3843	-0.3368	-0.3385	-0.1692	-0.2278	-0.0016	-0.2475
-128.9062	-0.4467	-0.8314	-0.4289	-0.9358	-1.0556	-0.8153	-0.457	-0.3377	-0.0772	-0.2138	-0.0911	-0.0257	-0.6451	-0.8829	-0.4771	-1.0226	-0.7566	-0.4232	-0.7103	-1.0643	-1.0226	-0.6182	-0.4238	-0.3433	-0.3264	-0.3481	-0.1788	-0.2905	0.0182	-0.2196
-125	-0.3784	-0.7859	-0.3811	-0.8867	-0.9722	-0.7424	-0.4474	-0.3667	-0.128	-0.2224	-0.1707	-0.1	-0.5797	-0.8009	-0.4069	-0.9476	-0.6386	-0.3359	-0.5954	-1.0104	-0.9599	-0.5473	-0.3148	-0.3134	-0.3209	-0.3567	-0.2034	-0.3653	0.023	-0.1774
-121.0938	-0.311	-0.7165	-0.323	-0.8132	-0.8648	-0.6503	-0.4468	-0.4053	-0.2006	-0.254	-0.2739	-0.1903	-0.519	-0.716	-0.3362	-0.8576	-0.5237	-0.2474	-0.4899	-0.9395	-0.8871	-0.492	-0.231	-0.3018	-0.3206	-0.3648	-0.2441	-0.4432	0.0167	-0.1226
-117.1875	-0.2468	-0.6259	-0.2555	-0.7194	-0.7416	-0.5464	-0.4549	-0.4466	-0.2858	-0.3031	-0.3877	-0.2873	-0.4682	-0.6366	-0.2689	-0.7577	-0.4185	-0.1631	-0.4008	-0.8571	-0.8096	-0.4565	-0.1822	-0.3122	-0.3237	-0.3725	-0.2992	-0.515	0.006	-0.0575
-113.2812	-0.1864	-0.5196	-0.1804	-0.6115	-0.6127	-0.4393	-0.469	-0.4827	-0.3726	-0.3614	-0.4979	-0.3808	-0.4295	-0.5672	-0.2073	-0.6523	-0.3269	-0.086	-0.3307	-0.7676	-0.7309	-0.44	-0.1709	-0.3427	-0.3264	-0.3785	-0.3638	-0.5711	-0.0009	0.0144
-109.375	-0.1296	-0.4051	-0.1012	-0.4977	-0.4883	-0.3379	-0.4846	-0.5058	-0.4492	-0.4187	-0.5911	-0.4605	-0.4007	-0.5085	-0.1515	-0.5447	-0.2493	-0.0167	-0.2777	-0.6751	-0.6521	-0.4361	-0.1916	-0.3857	-0.3228	-0.3787	-0.4287	-0.6024	0.004	0.0891
-105.4688	-0.0765	-0.2913	-0.0225	-0.3866	-0.3774	-0.2497	-0.4953	-0.5099	-0.5044	-0.464	-0.6559	-0.5162	-0.3763	-0.4577	-0.1006	-0.4386	-0.184	0.046	-0.2357	-0.583	-0.5731	-0.434	-0.2312	-0.4284	-0.3064	-0.3668	-0.4821	-0.6013	0.0256	0.1618
-101.5625	-0.0274	-0.1868	0.0494	-0.2856	-0.285	-0.1793	-0.4938	-0.4916	-0.529	-0.4872	-0.6839	-0.5396	-0.3474	-0.4093	-0.0527	-0.3376	-0.1276	0.1042	-0.1963	-0.4943	-0.4925	-0.4205	-0.2715	-0.4556	-0.2718	-0.3356	-0.5106	-0.5624	0.0647	0.2273
-97.6562	0.0172	-0.0973	0.1088	-0.1985	-0.211	-0.1276	-0.4727	-0.45	-0.517	-0.4795	-0.6701	-0.5244	-0.3036	-0.3555	-0.0058	-0.2448	-0.0755	0.1599	-0.1499	-0.4103	-0.4077	-0.3824	-0.2928	-0.4523	-0.2153	-0.2779	-0.5022	-0.4831	0.1172	0.2803
-93.75	0.058	-0.0242	0.152	-0.1252	-0.1499	-0.0909	-0.4251	-0.3866	-0.4659	-0.4353	-0.6129	-0.4673	-0.2346	-0.2874	0.042	-0.1614	-0.0227	0.2147	-0.088	-0.3293	-0.3152	-0.3092	-0.2778	-0.4068	-0.1361	-0.1886	-0.4476	-0.3638	0.1753	0.3167
-89.8438	0.0979	0.0364	0.1792	-0.0606	-0.0921	-0.0615	-0.3458	-0.3048	-0.3781	-0.352	-0.5137	-0.3686	-0.1321	-0.1965	0.0922	-0.0863	0.0364	0.2691	-0.0039	-0.2469	-0.2101	-0.1949	-0.2144	-0.3128	-0.036	-0.0659	-0.3427	-0.2085	0.23	0.3348
-85.9375	0.1416	0.0925	0.1955	0.0029	-0.0267	-0.0299	-0.2326	-0.209	-0.2597	-0.2312	-0.3769	-0.2327	0.0075	-0.0762	0.1459	-0.0152	0.1074	0.3229	0.1054	-0.1555	-0.0877	-0.0394	-0.0982	-0.1709	0.0813	0.0876	-0.1896	-0.024	0.2734	0.3362
-82.0312	0.1956	0.155	0.2098	0.0741	0.0551	0.0131	-0.0874	-0.105	-0.1211	-0.0792	-0.2098	-0.0677	0.182	0.0756	0.2038	0.0585	0.1951	0.3754	0.2392	-0.0471	0.0553	0.1514	0.0665	0.0111	0.2101	0.2642	0.0025	0.1794	0.3016	0.3259
-78.125	0.2655	0.2343	0.2327	0.1599	0.1577	0.0739	0.083	0.0007	0.0254	0.0942	-0.0219	0.1146	0.3826	0.2553	0.266	0.1423	0.303	0.4259	0.3926	0.0847	0.2189	0.3657	0.2672	0.2191	0.3435	0.4521	0.2186	0.3888	0.3148	0.3114
-74.2188	0.355	0.3376	0.2734	0.2635	0.2797	0.1547	0.2673	0.1016	0.1671	0.276	0.1754	0.3	0.5945	0.4528	0.3319	0.2428	0.4316	0.4737	0.5567	0.242	0.3984	0.5879	0.4853	0.4343	0.4737	0.6361	0.4394	0.5897	0.3167	0.3007
-70.3125	0.4635	0.4664	0.3363	0.3833	0.4144	0.253	0.4513	0.1917	0.2932	0.4527	0.3704	0.4735	0.7998	0.6525	0.4003	0.3633	0.578	0.5182	0.7198	0.4209	0.5845	0.8002	0.6987	0.6362	0.5927	0.7997	0.6439	0.7678	0.3133	0.3
-66.4062	0.5856	0.6156	0.42	0.5137	0.5517	0.3623	0.6202	0.2673	0.3967	0.6119	0.5521	0.6215	0.9799	0.8359	0.4697	0.5025	0.735	0.559	0.869	0.6112	0.7642	0.9855	0.886	0.8055	0.6928	0.9275	0.8127	0.9108	0.3111	0.3123
-62.5	0.7115	0.774	0.5176	0.6459	0.6809	0.4745	0.7609	0.3279	0.4754	0.7441	0.711	0.7329	1.1189	0.985	0.5384	0.6548	0.8916	0.5955	0.9923	0.7985	0.9228	1.1302	1.0296	0.9275	0.7676	1.0077	0.9307	1.0102	0.3156	0.3363
-58.5938	0.829	0.9268	0.6182	0.7704	0.7927	0.5814	0.8645	0.376	0.531	0.8437	0.8402	0.8008	1.2063	1.0863	0.6052	0.8106	1.0348	0.6267	1.0813	0.9669	1.0478	1.2264	1.1192	0.9944	0.8128	1.0334	0.9895	1.0621	0.3301	0.3672
-54.6875	0.9257	1.059	0.7106	0.879	0.8816	0.6766	0.9274	0.417	0.5685	0.9089	0.9356	0.8231	1.2381	1.1333	0.6692	0.9594	1.152	0.6517	1.1326	1.1032	1.1313	1.2727	1.153	1.0057	0.8267	1.004	0.9877	1.0679	0.3563	0.3986
-50.7812	0.9917	1.1587	0.7852	0.9664	0.9463	0.7566	0.9515	0.4571	0.5943	0.9414	0.9955	0.8021	1.2175	1.1281	0.7303	1.091	1.2339	0.6696	1.1484	1.1995	1.1716	1.275	1.1377	0.9683	0.8111	0.9254	0.9313	1.0332	0.3933	0.4237
-46.875	1.0221	1.2194	0.8362	1.031	0.9894	0.8209	0.9431	0.5013	0.6144	0.9448	1.0212	0.7444	1.153	1.0801	0.7882	1.1982	1.2756	0.6798	1.136	1.2547	1.1739	1.2437	1.0862	0.8942	0.7708	0.809	0.8322	0.9676	0.4385	0.4381
-42.9688	1.0176	1.241	0.8618	1.0742	1.0154	0.8708	0.9105	0.5516	0.6328	0.9241	1.0156	0.6592	1.0569	1.0035	0.8421	1.277	1.2785	0.6827	1.1057	1.2742	1.1483	1.1923	1.0144	0.798	0.7131	0.6704	0.7058	0.8825	0.4878	0.4398
-39.0625	0.9847	1.2286	0.8637	1.099	1.0291	0.9085	0.8625	0.6057	0.6514	0.8849	0.9835	0.5577	0.9427	0.9145	0.89	1.3276	1.2491	0.6787	1.0684	1.268	1.1075	1.1333	0.9373	0.6944	0.6469	0.5268	0.5688	0.7904	0.5355	0.43
-35.1562	0.9335	1.1906	0.8451	1.1087	1.0335	0.935	0.8067	0.6571	0.6694	0.833	0.9312	0.452	0.8239	0.8282	0.9285	1.3529	1.198	0.6691	1.0333	1.2477	1.0645	1.0771	0.8668	0.5958	0.5815	0.3953	0.4373	0.7028	0.5751	0.4121
-31.25	0.8758	1.1363	0.8092	1.1054	1.0296	0.9499	0.7487	0.6975	0.6843	0.7747	0.866	0.3539	0.7126	0.757	0.9535	1.3582	1.1381	0.6551	1.0073	1.2243	1.0301	1.0303	0.8105	0.5123	0.5254	0.2901	0.3251	0.6302	0.5991	0.391
-27.3438	0.8213	1.0739	0.7587	1.0898	1.0167	0.9509	0.6927	0.7189	0.6932	0.7166	0.7961	0.2743	0.6193	0.7098	0.9608	1.3498	1.0822	0.6383	0.9941	1.2064	1.0124	0.9961	0.7717	0.4509	0.4862	0.2221	0.2429	0.581	0.6006	0.372
-23.4375	0.7762	1.0098	0.6952	1.0618	0.9938	0.9354	0.6415	0.7158	0.6936	0.6655	0.7298	0.2221	0.5523	0.692	0.9477	1.3345	1.0417	0.6199	0.9948	1.1992	1.0156	0.9751	0.7504	0.416	0.4698	0.1975	0.1979	0.5615	0.5741	0.3597
-19.5312	0.7411	0.9488	0.62	1.0217	0.9611	0.902	0.5976	0.6875	0.6844	0.6275	0.6743	0.2025	0.5169	0.7051	0.9136	1.3181	1.0237	0.6003	1.0082	1.2039	1.0399	0.9659	0.7439	0.4092	0.4796	0.2174	0.1934	0.5749	0.5164	0.3568
-15.625	0.7113	0.8939	0.5353	0.9707	0.9207	0.8516	0.5628	0.6383	0.6658	0.6068	0.6346	0.2165	0.5147	0.7468	0.8598	1.3045	1.0306	0.5779	1.0314	1.2184	1.0816	0.9661	0.7482	0.4291	0.5164	0.2774	0.2275	0.6205	0.4281	0.363
-11.7188	0.6786	0.8468	0.4444	0.9116	0.8762	0.7882	0.5383	0.5764	0.64	0.6048	0.613	0.26	0.543	0.8109	0.7894	1.295	1.0583	0.5495	1.0596	1.237	1.1329	0.9724	0.7578	0.471	0.5772	0.3683	0.2938	0.6935	0.3129	0.3747
-7.8125	0.6337	0.8079	0.3518	0.848	0.8318	0.7183	0.5242	0.5132	0.6101	0.6198	0.6092	0.3248	0.5943	0.8871	0.7061	1.2877	1.0974	0.5102	1.0871	1.252	1.1831	0.9812	0.7671	0.5271	0.6557	0.4767	0.3811	0.7849	0.1774	0.3846
-3.9062	0.5696	0.776	0.2634	0.7842	0.7912	0.6504	0.5194	0.4601	0.5805	0.6473	0.6203	0.3992	0.6577	0.9631	0.6136	1.278	1.135	0.455	1.108	1.2549	1.2202	0.9894	0.771	0.5877	0.7425	0.5871	0.4755	0.8827	0.0301	0.3838
0	0.4848	0.7491	0.1857	0.7241	0.7575	0.5933	0.5219	0.4272	0.5557	0.6813	0.6416	0.4705	0.7204	1.0263	0.5161	1.2605	1.1586	0.3814	1.1179	1.2392	1.2339	0.9952	0.7665	0.6426	0.8266	0.6834	0.5621	0.9736	-0.1189	0.3646
3.9062	0.3856	0.7254	0.1257	0.6725	0.7336	0.556	0.5298	0.4215	0.54	0.7155	0.6678	0.5266	0.7711	1.0669	0.4187	1.2315	1.1596	0.2917	1.1159	1.2029	1.2191	0.9993	0.7535	0.683	0.8972	0.7521	0.6279	1.0444	-0.259	0.323
7.8125	0.286	0.7043	0.09	0.6352	0.7239	0.5467	0.5421	0.4459	0.5373	0.745	0.6935	0.558	0.802	1.081	0.3291	1.1916	1.1361	0.1942	1.106	1.1513	1.178	1.0053	0.7353	0.7034	0.9452	0.7831	0.6639	1.0846	-0.3794	0.2612
11.7188	0.2053	0.6873	0.0843	0.62	0.7359	0.5732	0.5598	0.4996	0.5509	0.7676	0.7146	0.5591	0.8115	1.0721	0.2572	1.1474	1.0942	0.1032	1.097	1.0977	1.1219	1.0195	0.718	0.7028	0.9648	0.7718	0.6666	1.0877	-0.4707	0.1872
15.625	0.1637	0.679	0.1113	0.6368	0.7798	0.6418	0.5865	0.5786	0.5832	0.7841	0.7284	0.5291	0.8041	1.051	0.215	1.1114	1.0465	0.0369	1.1006	1.0619	1.0693	1.0491	0.7092	0.6848	0.954	0.7194	0.6383	1.0531	-0.5262	0.1127
19.5312	0.1769	0.6861	0.1705	0.6961	0.8677	0.7569	0.6278	0.6771	0.6358	0.7982	0.7343	0.4719	0.79	1.0336	0.2139	1.1005	1.0094	0.0142	1.1294	1.0669	1.0428	1.101	0.7166	0.6568	0.9149	0.6327	0.587	0.9865	-0.5439	0.0502
23.4375	0.2517	0.7162	0.2572	0.8072	1.0103	0.9198	0.6901	0.7888	0.7088	0.8152	0.7334	0.3955	0.7825	1.0382	0.2623	1.1319	0.9995	0.0504	1.1934	1.1341	1.0643	1.1792	0.7461	0.6287	0.8535	0.5231	0.5247	0.899	-0.5275	0.0094
27.3438	0.3829	0.7761	0.3636	0.9748	1.2133	1.1271	0.7779	0.9072	0.8001	0.8403	0.7281	0.3103	0.7941	1.0802	0.3626	1.22	1.0311	0.1538	1.2983	1.2776	1.1495	1.2843	0.8012	0.6111	0.778	0.4043	0.465	0.8052	-0.4858	-0.0048
31.25	0.5547	0.8705	0.4803	1.1968	1.474	1.37	0.8924	1.026	0.9051	0.8769	0.7209	0.2264	0.8338	1.1693	0.5096	1.3723	1.1145	0.3242	1.4441	1.5001	1.3038	1.4132	0.8822	0.6127	0.698	0.2899	0.42	0.7199	-0.4312	0.0077
35.1562	0.7447	1.0002	0.5984	1.4635	1.7795	1.6339	1.0289	1.139	1.0157	0.9248	0.7134	0.1517	0.9044	1.3062	0.6911	1.588	1.2559	0.5527	1.6264	1.7917	1.521	1.5605	0.9874	0.6392	0.6226	0.1912	0.3986	0.6549	-0.3764	0.0437
39.0625	0.9308	1.1637	0.7114	1.7578	2.1074	1.8997	1.1774	1.2397	1.1215	0.9803	0.7062	0.0909	1.0018	1.4831	0.8911	1.8588	1.4582	0.8238	1.8383	2.1309	1.7835	1.7203	1.1148	0.6921	0.5593	0.1154	0.4046	0.6169	-0.3307	0.0996
42.9688	1.0965	1.357	0.8166	2.0581	2.428	2.1451	1.3234	1.3207	1.2106	1.0365	0.6984	0.0449	1.1163	1.6845	1.0942	2.17	1.722	1.1193	2.0727	2.4891	2.0659	1.888	1.2633	0.7694	0.5139	0.0664	0.437	0.6064	-0.2977	0.174
46.875	1.2339	1.5747	0.914	2.3397	2.7086	2.3472	1.4498	1.3745	1.2715	1.0847	0.6879	0.0122	1.2347	1.8904	1.2897	2.5028	2.0438	1.4204	2.3228	2.8343	2.3388	2.0607	1.4327	0.8662	0.4901	0.045	0.4912	0.6196	-0.2746	0.2685
50.7812	1.3418	1.8081	1.0038	2.5772	2.9164	2.4835	1.5401	1.3932	1.2948	1.1157	0.6725	-0.0095	1.3426	2.0783	1.4721	2.8349	2.4132	1.7093	2.5798	3.1347	2.572	2.2344	1.6212	0.9755	0.4895	0.0508	0.5603	0.6503	-0.2538	0.386
54.6875	1.4214	2.0424	1.0825	2.7445	3.0224	2.5338	1.5796	1.3701	1.2749	1.1217	0.6499	-0.0219	1.4261	2.2257	1.6396	3.1392	2.8077	1.9685	2.8299	3.3601	2.7372	2.4016	1.8222	1.0885	0.5119	0.083	0.6366	0.6928	-0.227	0.5272
58.5938	1.4712	2.2546	1.1403	2.8162	3.0035	2.481	1.5585	1.2997	1.2107	1.0968	0.6186	-0.0251	1.4733	2.3116	1.788	3.3845	3.1899	2.1792	3.0514	3.4834	2.8102	2.5477	2.0206	1.195	0.555	0.141	0.7127	0.7436	-0.1902	0.686
62.5	1.4843	2.4136	1.16	2.7701	2.8455	2.3129	1.4717	1.1795	1.1058	1.0381	0.5778	-0.0179	1.4752	2.3197	1.9071	3.5373	3.5097	2.3209	3.2154	3.483	2.7739	2.6525	2.1926	1.2834	0.6137	0.2229	0.7814	0.801	-0.1467	0.8469
66.4062	1.4493	2.4846	1.1215	2.591	2.546	2.0249	1.3207	1.0108	0.9678	0.9455	0.5272	0.0004	1.4266	2.2406	1.9797	3.5672	3.7126	2.3737	3.2907	3.3464	2.6214	2.6929	2.3088	1.3426	0.6801	0.3248	0.836	0.8641	-0.1074	0.987
70.3125	1.3544	2.4385	1.0073	2.2767	2.1166	1.6228	1.1127	0.7989	0.8062	0.8224	0.4668	0.0291	1.3274	2.0752	1.9852	3.4549	3.7532	2.3226	3.2524	3.0751	2.3596	2.65	2.3414	1.3631	0.7437	0.4395	0.8704	0.9307	-0.0873	1.0811
74.2188	1.1939	2.2617	0.8103	1.8424	1.5843	1.1249	0.8604	0.5535	0.6316	0.6748	0.397	0.0651	1.183	1.8358	1.907	3.1994	3.6081	2.1625	3.0901	2.6876	2.0097	2.5153	2.2709	1.3393	0.7923	0.5563	0.8796	0.9962	-0.0998	1.1085
78.125	0.972	1.9638	0.5392	1.3221	0.9902	0.5629	0.5808	0.288	0.4541	0.5115	0.3191	0.103	1.0042	1.546	1.7394	2.8222	3.2858	1.9024	2.8141	2.2194	1.6062	2.2954	2.0928	1.2707	0.814	0.6622	0.8605	1.0537	-0.1517	1.0595
82.0312	0.7053	1.5786	0.2185	0.7657	0.3858	-0.0205	0.2943	0.0188	0.283	0.3434	0.2359	0.1363	0.8068	1.237	1.4913	2.3656	2.8276	1.5646	2.4556	1.7192	1.1921	2.012	1.8199	1.1631	0.7995	0.7447	0.8128	1.0956	-0.2403	0.9377
85.9375	0.421	1.1585	-0.1151	0.2315	-0.1728	-0.5766	0.0228	-0.2365	0.127	0.1832	0.1526	0.1603	0.6099	0.9442	1.1869	1.8861	2.3006	1.1828	2.0622	1.2418	0.8136	1.6989	1.4806	1.0282	0.7443	0.7944	0.7406	1.1162	-0.3542	0.7586
89.8438	0.1518	0.7629	-0.42	-0.2231	-0.6333	-1.0572	-0.2115	-0.4604	-0.0056	0.0448	0.0771	0.174	0.434	0.7011	0.861	1.4438	1.7832	0.795	1.6881	0.8398	0.5124	1.3956	1.1137	0.8823	0.6501	0.8079	0.652	1.1142	-0.4761	0.5451
93.75	-0.0703	0.4451	-0.6593	-0.5525	-0.9535	-1.4221	-0.3881	-0.637	-0.1068	-0.0576	0.0203	0.1814	0.2991	0.5354	0.5524	1.0907	1.3488	0.4378	1.3836	0.5546	0.3212	1.1401	0.7617	0.7444	0.5246	0.7885	0.5597	1.0939	-0.5877	0.3218
97.6562	-0.2206	0.2402	-0.8073	-0.7293	-1.1075	-1.6442	-0.4892	-0.7531	-0.1681	-0.1107	-0.0057	0.1912	0.2227	0.4654	0.2956	0.8614	1.0503	0.1398	1.1855	0.4114	0.2589	0.9623	0.4632	0.634	0.3812	0.7463	0.4789	1.0654	-0.6741	0.1093
101.5625	-0.2866	0.1594	-0.855	-0.7483	-1.0877	-1.7124	-0.5018	-0.7985	-0.1814	-0.1034	0.0113	0.2157	0.2175	0.4991	0.1147	0.7681	0.9107	-0.0818	1.1106	0.4157	0.3297	0.8801	0.2482	0.5684	0.2366	0.6958	0.4258	1.0425	-0.7269	-0.0788
105.4688	-0.2698	0.1896	-0.8094	-0.6247	-0.9036	-1.6317	-0.4191	-0.7669	-0.1402	-0.0288	0.0809	0.2669	0.2901	0.6344	0.0188	0.8011	0.9217	-0.2219	1.1551	0.5558	0.5245	0.8984	0.1342	0.5604	0.1083	0.6536	0.4144	1.0395	-0.7457	-0.2373
109.375	-0.1846	0.2998	-0.6908	-0.3878	-0.5783	-1.4195	-0.2421	-0.6573	-0.0407	0.114	0.2071	0.3529	0.4402	0.861	0.0017	0.9339	1.0493	-0.2861	1.2974	0.8066	0.8234	1.0096	0.1252	0.6162	0.0118	0.634	0.4543	1.0674	-0.737	-0.3674
113.2812	-0.0538	0.4514	-0.5271	-0.0738	-0.1432	-1.1019	0.0204	-0.4739	0.1157	0.3191	0.3866	0.4748	0.6597	1.163	0.0461	1.1318	1.2444	-0.2865	1.5048	1.1366	1.2004	1.1969	0.2137	0.7341	-0.0417	0.6467	0.5477	1.1305	-0.7115	-0.4741
117.1875	0.0964	0.6079	-0.3476	0.282	0.3674	-0.7087	0.3514	-0.2276	0.3219	0.5731	0.6074	0.6248	0.9339	1.5205	0.1283	1.36	1.4565	-0.2387	1.7414	1.5132	1.6269	1.438	0.3824	0.9043	-0.0478	0.694	0.6889	1.2247	-0.6814	-0.5623
121.0938	0.2423	0.7437	-0.178	0.6511	0.9196	-0.2692	0.7277	0.0648	0.5647	0.8563	0.8503	0.7871	1.2424	1.9121	0.2258	1.5905	1.6439	-0.1574	1.9751	1.9078	2.0756	1.7085	0.6086	1.11	-0.0088	0.7709	0.8649	1.3377	-0.6568	-0.6345
125	0.3663	0.8466	-0.0365	1.0138	1.4828	0.1898	1.1221	0.3811	0.8251	1.1452	1.0904	0.9408	1.5617	2.3163	0.3215	1.8055	1.7817	-0.055	2.1827	2.2982	2.5218	1.9859	0.8676	1.3306	0.0663	0.866	1.0568	1.4515	-0.6441	-0.69
128.9062	0.4597	0.9182	0.067	1.359	2.03	0.6459	1.5062	0.6962	1.0808	1.4147	1.3015	1.0642	1.8679	2.7125	0.4065	1.9974	1.8629	0.0593	2.3519	2.6681	2.9448	2.2514	1.1361	1.545	0.1644	0.9644	1.2438	1.5463	-0.645	-0.7263
132.8125	0.5221	0.9688	0.1314	1.6805	2.5373	1.0805	1.8534	0.9849	1.308	1.6421	1.4592	1.1394	2.139	3.0817	0.4795	2.166	1.896	0.1786	2.4805	3.0063	3.3276	2.4911	1.3945	1.7347	0.2711	1.0509	1.406	1.6043	-0.6575	-0.7406
136.7188	0.5596	1.012	0.1615	1.9742	2.9832	1.4781	2.1412	1.2242	1.4852	1.8095	1.5455	1.1556	2.3571	3.4069	0.5438	2.3144	1.8981	0.2973	2.5737	3.3041	3.6562	2.6971	1.6287	1.8868	0.3738	1.1123	1.5281	1.6135	-0.6767	-0.7323
140.625	0.582	1.0593	0.166	2.2345	3.3479	1.8256	2.3532	1.3967	1.5954	1.906	1.5507	1.1109	2.5101	3.6731	0.6045	2.4451	1.8883	0.411	2.6401	3.5537	3.9192	2.8662	1.8301	1.9947	0.4641	1.14	1.6003	1.5686	-0.697	-0.7035
144.5312	0.5985	1.1161	0.1541	2.4531	3.6144	2.1111	2.4796	1.4918	1.6286	1.9281	1.4753	1.0122	2.592	3.8684	0.6645	2.5583	1.8815	0.5159	2.6887	3.7476	4.108	2.9991	1.9953	2.0582	0.5385	1.1304	1.6201	1.4724	-0.7134	-0.6591
148.4375	0.6152	1.1808	0.133	2.6191	3.7691	2.324	2.5181	1.5071	1.5828	1.8801	1.3293	0.8728	2.6029	3.9844	0.7236	2.6507	1.8859	0.6091	2.726	3.8786	4.2172	3.0993	2.1251	2.0818	0.5984	1.0857	1.5911	1.334	-0.7232	-0.6049
152.3438	0.6323	1.2452	0.1062	2.7216	3.8048	2.4558	2.4727	1.4476	1.4637	1.7719	1.1303	0.7098	2.5491	4.018	0.7779	2.716	1.9009	0.6884	2.7554	3.9408	4.2454	3.1713	2.2232	2.0736	0.6487	1.0123	1.5226	1.1676	-0.7275	-0.5467
156.25	0.6435	1.2971	0.0732	2.7514	3.722	2.5016	2.3537	1.3239	1.2835	1.6176	0.9003	0.5408	2.4413	3.9714	0.8204	2.7467	1.9192	0.7525	2.7767	3.931	4.1958	3.2194	2.2946	2.0427	0.6949	0.9205	1.4272	0.9897	-0.7318	-0.4901
160.1562	0.6375	1.3231	0.0291	2.7047	3.5312	2.4615	2.1755	1.1505	1.0585	1.4332	0.6623	0.3812	2.2936	3.853	0.8428	2.7357	1.9288	0.7996	2.7867	3.8499	4.0771	3.2464	2.3441	1.9984	0.7418	0.822	1.3193	0.8169	-0.7459	-0.4405
164.0625	0.6017	1.3114	-0.0327	2.5844	3.2534	2.3424	1.956	0.9443	0.8078	1.2349	0.4369	0.243	2.1215	3.6761	0.8365	2.6774	1.9156	0.8275	2.7798	3.7026	3.9019	3.2534	2.3751	1.9485	0.7915	0.7279	1.2126	0.6638	-0.782	-0.4038
167.9688	0.5256	1.2543	-0.1184	2.4013	2.9179	2.1587	1.7148	0.7228	0.5508	1.0376	0.2408	0.1342	1.9407	3.4582	0.7941	2.5694	1.8669	0.8333	2.75	3.4982	3.6865	3.2395	2.3893	1.8988	0.8432	0.6475	1.119	0.5416	-0.8519	-0.3861
171.875	0.4049	1.1494	-0.231	2.1729	2.5599	1.931	1.4721	0.5032	0.3059	0.8542	0.0852	0.0591	1.7647	3.2185	0.7109	2.4131	1.7741	0.8139	2.6914	3.2497	3.4477	3.2025	2.3866	1.8522	0.893	0.5861	1.0471	0.4573	-0.9624	-0.3936
175.7812	0.2429	1.0001	-0.368	1.9204	2.2146	1.6835	1.2462	0.3012	0.0885	0.695	-0.0245	0.0189	1.6038	2.9753	0.5859	2.2138	1.6346	0.7673	2.5999	2.9723	3.2016	3.14	2.3658	1.8093	0.9356	0.545	1.0012	0.4128	-1.1128	-0.4307
179.6875	0.0502	0.8144	-0.5221	1.6654	1.9115	1.4399	1.0524	0.1293	-0.0898	0.5665	-0.0882	0.0118	1.4642	2.7438	0.4232	1.9804	1.4531	0.6938	2.474	2.6817	2.9606	3.0493	2.3247	1.768	0.9647	0.5215	0.9814	0.405	-1.293	-0.4984
183.5938	-0.1571	0.6037	-0.6821	1.4253	1.6699	1.2198	0.901	-0.0041	-0.2221	0.4719	-0.1105	0.0334	1.3479	2.5342	0.2318	1.7243	1.2409	0.5961	2.3149	2.3924	2.7329	2.9284	2.2612	1.7242	0.9754	0.5097	0.9833	0.4261	-1.4852	-0.593
187.5	-0.3609	0.3802	-0.8364	1.2106	1.4959	1.0348	0.7967	-0.095	-0.306	0.4108	-0.0986	0.0775	1.2534	2.3512	0.0244	1.4583	1.0136	0.48	2.1272	2.1161	2.5217	2.7766	2.1736	1.6733	0.9646	0.5026	0.9997	0.4654	-1.6675	-0.7061
191.4062	-0.5445	0.1545	-0.9763	1.0239	1.3831	0.8879	0.7382	-0.144	-0.3433	0.38	-0.0615	0.1368	1.1767	2.1943	-0.1843	1.1951	0.7881	0.3525	1.9176	1.8605	2.3261	2.5946	2.0614	1.611	0.9321	0.4938	1.0217	0.5105	-1.819	-0.8258
195.3125	-0.6964	-0.0655	-1.0976	0.8604	1.3153	0.7738	0.7185	-0.1551	-0.3389	0.3744	-0.0084	0.2034	1.1128	2.0595	-0.3806	0.9456	0.5786	0.2212	1.6939	1.6292	2.1422	2.385	1.9256	1.5342	0.8805	0.4792	1.0405	0.5497	-1.9248	-0.9391
199.2188	-0.8128	-0.275	-1.2019	0.7111	1.2715	0.6819	0.7269	-0.1351	-0.3001	0.3879	0.0521	0.2698	1.0565	1.9405	-0.5536	0.718	0.3946	0.0924	1.4641	1.4215	1.9646	2.1526	1.7684	1.4422	0.8146	0.4572	1.0487	0.5731	-1.9787	-1.0349
203.125	-0.8982	-0.4723	-1.2956	0.5656	1.2309	0.5995	0.7495	-0.0925	-0.2357	0.4134	0.1123	0.3292	1.0029	1.8303	-0.6967	0.5168	0.2385	-0.03	1.2346	1.2338	1.7882	1.9037	1.5937	1.3365	0.7401	0.4284	1.0407	0.5735	-1.9845	-1.1057
207.0312	-0.9641	-0.6572	-1.3872	0.4156	1.1765	0.5148	0.772	-0.0363	-0.1551	0.4438	0.1656	0.376	0.9475	1.723	-0.8088	0.3427	0.1062	-0.1451	1.0096	1.0601	1.6086	1.6459	1.4056	1.2202	0.6619	0.3944	1.0134	0.547	-1.9539	-1.1496
210.9375	-1.0262	-0.8296	-1.4846	0.2566	1.0981	0.42	0.782	0.0245	-0.0672	0.4725	0.2075	0.4061	0.8871	1.6139	-0.8934	0.1921	-0.012	-0.2547	0.7901	0.8935	1.4236	1.3867	1.2084	1.0976	0.5835	0.3567	0.9658	0.4932	-1.9033	-1.1697
214.8438	-1.1003	-0.9889	-1.5924	0.0891	0.9927	0.3118	0.7705	0.082	0.0204	0.4944	0.2362	0.4182	0.8197	1.5009	-0.9584	0.0588	-0.1282	-0.3626	0.5745	0.7276	1.2327	1.1329	1.0066	0.9733	0.5063	0.3162	0.8995	0.4154	-1.8498	-1.173
218.75	-1.1977	-1.1332	-1.7099	-0.0828	0.8635	0.1919	0.7344	0.13	0.1033	0.5073	0.253	0.4146	0.7455	1.3849	-1.014	-0.0646	-0.2543	-0.4734	0.3603	0.5581	1.0382	0.8901	0.8047	0.8525	0.4305	0.2741	0.8186	0.3218	-1.8083	-1.1681
222.6562	-1.3221	-1.26	-1.8314	-0.2524	0.7181	0.0649	0.6765	0.1647	0.18	0.5115	0.2628	0.4008	0.6672	1.2698	-1.0709	-0.1853	-0.3987	-0.5907	0.1458	0.3836	0.8445	0.6629	0.6081	0.7403	0.3562	0.2328	0.7303	0.2245	-1.7889	-1.1631
226.5625	-1.468	-1.3677	-1.948	-0.4123	0.5662	-0.0626	0.6047	0.1845	0.2519	0.5105	0.2725	0.3855	0.5903	1.1627	-1.1381	-0.3077	-0.5637	-0.7159	-0.0676	0.2061	0.6584	0.4557	0.4232	0.6423	0.2845	0.1975	0.6443	0.1386	-1.796	-1.1643
230.4688	-1.6218	-1.4554	-2.0499	-0.5563	0.4178	-0.1843	0.5306	0.1901	0.322	0.5091	0.2901	0.3787	0.5223	1.0726	-1.2208	-0.433	-0.7448	-0.8476	-0.2742	0.0317	0.4888	0.2737	0.2575	0.5644	0.2189	0.1761	0.5719	0.0802	-1.8287	-1.1748
234.375	-1.7651	-1.5234	-2.1289	-0.6791	0.2824	-0.2943	0.4669	0.1838	0.3931	0.5125	0.3223	0.39	0.472	1.0092	-1.3197	-0.5585	-0.9312	-0.9812	-0.4636	-0.1311	0.3458	0.123	0.1192	0.5123	0.1649	0.1787	0.5244	0.0635	-1.8816	-1.1949
238.2812	-1.8795	-1.5722	-2.1801	-0.7765	0.1687	-0.3878	0.4248	0.1692	0.4665	0.5246	0.3731	0.4271	0.4479	0.9817	-1.4306	-0.6777	-1.108	-1.1101	-0.6223	-0.2721	0.2395	0.0106	0.0156	0.4908	0.1302	0.215	0.5113	0.0985	-1.9462	-1.2218
242.1875	-1.9506	-1.601	-2.2015	-0.8443	0.0847	-0.46	0.4124	0.1507	0.5409	0.5476	0.4426	0.4939	0.4565	0.9964	-1.5451	-0.7815	-1.2591	-1.2265	-0.7364	-0.3813	0.1788	-0.0568	-0.0479	0.5035	0.122	0.2926	0.5387	0.1885	-2.0123	-1.2516
246.0938	-1.9721	-1.6074	-2.1936	-0.8784	0.0373	-0.5067	0.433	0.1323	0.6123	0.5811	0.5274	0.5901	0.5008	1.0551	-1.6533	-0.8605	-1.3707	-1.3234	-0.7952	-0.4509	0.1693	-0.0747	-0.0691	0.5508	0.1458	0.4138	0.608	0.3293	-2.07	-1.2799
250	-1.9461	-1.5873	-2.1583	-0.8748	0.0318	-0.5242	0.4848	0.117	0.6746	0.6228	0.6204	0.7113	0.5787	1.1537	-1.7463	-0.9071	-1.4346	-1.3954	-0.7943	-0.4777	0.2108	-0.0424	-0.0498	0.6302	0.2032	0.5748	0.7152	0.5096	-2.1112	-1.3035
253.9062	-1.8832	-1.5369	-2.0978	-0.8312	0.0702	-0.5098	0.561	0.1068	0.7207	0.6681	0.7128	0.8492	0.6834	1.2819	-1.8184	-0.9178	-1.4501	-1.4392	-0.7375	-0.4645	0.2958	0.0346	0.0042	0.735	0.2907	0.7656	0.8518	0.7119	-2.1308	-1.3205
257.8125	-1.7991	-1.4546	-2.0148	-0.7485	0.1501	-0.4633	0.6512	0.1017	0.7441	0.7118	0.7949	0.9925	0.8032	1.4233	-1.8684	-0.8955	-1.4241	-1.4543	-0.6373	-0.4206	0.4094	0.1451	0.084	0.8553	0.4003	0.9707	1.005	0.9153	-2.1275	-1.3304
261.7188	-1.7116	-1.3432	-1.913	-0.6327	0.264	-0.3876	0.7431	0.1007	0.7404	0.7482	0.8581	1.1285	0.9235	1.558	-1.8995	-0.8493	-1.37	-1.4424	-0.5127	-0.3615	0.5305	0.2726	0.1778	0.9783	0.5205	1.1719	1.1595	1.0982	-2.1035	-1.334
265.625	-1.6368	-1.2111	-1.7978	-0.4951	0.3994	-0.2893	0.8247	0.1019	0.7078	0.7728	0.8965	1.2443	1.0291	1.6656	-1.918	-0.7932	-1.3049	-1.4075	-0.3868	-0.3056	0.6349	0.3972	0.2731	1.0902	0.6381	1.3506	1.2996	1.2415	-2.0642	-1.3319
269.5312	-1.5859	-1.0722	-1.6774	-0.3517	0.5401	-0.1786	0.8867	0.1033	0.6479	0.7829	0.9075	1.3287	1.1066	1.7285	-1.9312	-0.7438	-1.2464	-1.3566	-0.2822	-0.2719	0.7	0.4989	0.3564	1.1778	0.7402	1.4904	1.4106	1.3312	-2.0166	-1.3249
273.4375	-1.564	-0.9441	-1.5624	-0.2213	0.6688	-0.0688	0.9234	0.1033	0.5652	0.7778	0.8924	1.3733	1.1465	1.7353	-1.9462	-0.717	-1.2096	-1.2989	-0.2181	-0.2756	0.7084	0.5595	0.4148	1.2301	0.8159	1.5789	1.4809	1.3603	-1.9682	-1.3139
277.3438	-1.5702	-0.8455	-1.4649	-0.1226	0.7693	0.0255	0.9332	0.1004	0.4665	0.7593	0.8552	1.3734	1.1447	1.6816	-1.9691	-0.7249	-1.2053	-1.2458	-0.2078	-0.3261	0.6511	0.5653	0.4363	1.2397	0.8573	1.609	1.5029	1.3291	-1.9264	-1.2999
281.25	-1.5983	-0.7928	-1.3968	-0.0709	0.8287	0.0895	0.9184	0.0937	0.3591	0.7302	0.8018	1.3285	1.1021	1.5708	-2.0036	-0.7741	-1.2386	-1.2092	-0.2572	-0.4249	0.5284	0.508	0.4107	1.203	0.8599	1.579	1.474	1.2442	-1.8974	-1.2843
285.1562	-1.6391	-0.7963	-1.3673	-0.0759	0.8389	0.1112	0.8833	0.0826	0.25	0.6937	0.7385	1.2415	1.0238	1.4117	-2.0513	-0.8644	-1.3091	-1.1995	-0.3648	-0.5662	0.349	0.3856	0.3309	1.1206	0.8225	1.4927	1.3959	1.1175	-1.8849	-1.2688
289.0625	-1.6823	-0.8578	-1.3806	-0.1402	0.7969	0.0828	0.8328	0.0672	0.1448	0.6527	0.6706	1.1188	0.9173	1.2164	-2.111	-0.9902	-1.4114	-1.2236	-0.5231	-0.7384	0.127	0.2022	0.1945	0.9967	0.7473	1.3583	1.2745	0.9629	-1.8893	-1.2548
292.9688	-1.7189	-0.97	-1.435	-0.259	0.7042	0.0024	0.7711	0.0482	0.0473	0.6085	0.6023	0.9692	0.7906	0.9978	-2.1796	-1.1417	-1.5369	-1.2832	-0.72	-0.9274	-0.1209	-0.0323	0.005	0.8384	0.6394	1.1876	1.1188	0.7948	-1.9074	-1.2434
296.875	-1.7424	-1.1182	-1.5228	-0.4217	0.5658	-0.126	0.7009	0.0275	-0.0404	0.5616	0.5364	0.803	0.651	0.7677	-2.2535	-1.3078	-1.6756	-1.3751	-0.9414	-1.1197	-0.3792	-0.3035	-0.2274	0.6549	0.5064	0.9948	0.94	0.6264	-1.932	-1.2351
300.7812	-1.7505	-1.284	-1.6323	-0.615	0.3886	-0.293	0.6235	0.0077	-0.1167	0.5119	0.4747	0.6313	0.5048	0.5361	-2.3295	-1.4782	-1.8184	-1.4913	-1.1736	-1.305	-0.6354	-0.5933	-0.4863	0.4575	0.3586	0.7959	0.7509	0.4691	-1.9546	-1.2298
304.6875	-1.7458	-1.4494	-1.7501	-0.8248	0.1806	-0.4854	0.5396	-0.0084	-0.1804	0.4597	0.4192	0.4652	0.3571	0.3115	-2.4058	-1.6454	-1.9581	-1.6207	-1.4045	-1.4778	-0.8804	-0.882	-0.7505	0.2584	0.2083	0.6074	0.5648	0.3322	-1.9671	-1.2277
308.5938	-1.7349	-1.6004	-1.864	-1.0387	-0.0493	-0.6879	0.4502	-0.0183	-0.2299	0.4066	0.3719	0.3155	0.2134	0.1014	-2.4817	-1.8045	-2.0895	-1.7513	-1.6239	-1.6365	-1.108	-1.1495	-0.997	0.0705	0.0691	0.4452	0.3952	0.2235	-1.9645	-1.2285
312.5	-1.7271	-1.7284	-1.9648	-1.2464	-0.2909	-0.8849	0.3578	-0.0204	-0.2633	0.3558	0.3358	0.1915	0.0795	-0.0869	-2.5562	-1.952	-2.2089	-1.8705	-1.8228	-1.7815	-1.3126	-1.3769	-1.2037	-0.0934	-0.0453	0.323	0.2543	0.1485	-1.9465	-1.2319
316.4062	-1.7324	-1.8305	-2.0467	-1.4396	-0.5316	-1.0611	0.2673	-0.0136	-0.2784	0.3119	0.3145	0.1014	-0.0377	-0.2454	-2.6269	-2.0843	-2.3122	-1.9674	-1.993	-1.9122	-1.488	-1.5484	-1.3528	-0.2219	-0.1235	0.2504	0.1524	0.1109	-1.9177	-1.2362
320.3125	-1.7579	-1.9074	-2.1075	-1.6107	-0.7563	-1.2026	0.1851	0.0017	-0.2738	0.28	0.3115	0.0502	-0.1317	-0.3661	-2.6888	-2.1962	-2.3942	-2.0332	-2.1261	-2.0253	-1.6259	-1.6533	-1.4334	-0.3067	-0.1584	0.2306	0.0955	0.1108	-1.8868	-1.2388
324.2188	-1.8057	-1.9614	-2.1468	-1.7518	-0.9481	-1.2978	0.1183	0.0242	-0.2499	0.2638	0.3285	0.0392	-0.197	-0.4418	-2.735	-2.2804	-2.4491	-2.0627	-2.2148	-2.1135	-1.7168	-1.6875	-1.4433	-0.3446	-0.1489	0.2591	0.0843	0.1436	-1.8637	-1.2362
328.125	-1.8711	-1.9946	-2.1656	-1.8547	-1.0895	-1.3385	0.073	0.0516	-0.21	0.2636	0.364	0.064	-0.2309	-0.4677	-2.7572	-2.328	-2.4711	-2.0543	-2.254	-2.1669	-1.7509	-1.6543	-1.3892	-0.3383	-0.1009	0.3239	0.113	0.1997	-1.8564	-1.2244
332.0312	-1.9429	-2.0074	-2.1645	-1.9108	-1.1655	-1.3202	0.0524	0.0805	-0.1604	0.2755	0.4121	0.1145	-0.2351	-0.443	-2.7478	-2.3311	-2.4562	-2.0107	-2.2417	-2.1746	-1.7207	-1.5638	-1.2846	-0.2968	-0.0263	0.4061	0.1692	0.2642	-1.8688	-1.1998
335.9375	-2.0054	-1.9989	-2.1434	-1.9129	-1.1663	-1.2436	0.0558	0.1071	-0.1102	0.2911	0.4624	0.1753	-0.2152	-0.3714	-2.7017	-2.2842	-2.4036	-1.9378	-2.1802	-2.1281	-1.6231	-1.4311	-1.1473	-0.2339	0.0587	0.483	0.2356	0.319	-1.8982	-1.1598
339.8438	-2.0417	-1.9674	-2.1015	-1.8565	-1.0897	-1.1145	0.0782	0.1279	-0.0696	0.2993	0.5014	0.2287	-0.1805	-0.2619	-2.6175	-2.1868	-2.3155	-1.8433	-2.0751	-2.0234	-1.4611	-1.2732	-0.9956	-0.1657	0.137	0.5322	0.2934	0.3467	-1.9359	-1.1029
343.75	-2.0384	-1.9118	-2.0381	-1.7422	-0.9423	-0.9435	0.1113	0.1402	-0.048	0.2882	0.5153	0.2572	-0.1421	-0.1275	-2.4978	-2.044	-2.1969	-1.7344	-1.9346	-1.8628	-1.2444	-1.106	-0.8441	-0.1072	0.194	0.536	0.3256	0.3339	-1.9692	-1.0289
347.6562	-1.9881	-1.8325	-1.9534	-1.5761	-0.7389	-0.7448	0.1451	0.1425	-0.052	0.2485	0.4932	0.2482	-0.1109	0.0163	-2.3489	-1.8657	-2.0538	-1.6171	-1.7679	-1.6552	-0.9886	-0.9419	-0.7021	-0.0694	0.2201	0.4851	0.321	0.2749	-1.9846	-0.938
351.5625	-1.8914	-1.7324	-1.8496	-1.3699	-0.5002	-0.5349	0.1705	0.1347	-0.0842	0.1757	0.4299	0.1965	-0.096	0.1533	-2.1795	-1.6653	-1.8924	-1.4945	-1.5841	-1.4141	-0.7134	-0.7887	-0.5729	-0.0572	0.2127	0.381	0.2765	0.1735	-1.9716	-0.8313
355.4688	-1.7566	-1.6163	-1.7311	-1.1397	-0.2503	-0.3309	0.1805	0.1173	-0.1427	0.0718	0.3275	0.1054	-0.1028	0.2692	-2	-1.4568	-1.7188	-1.3677	-1.3915	-1.1562	-0.4399	-0.6503	-0.4548	-0.0698	0.1756	0.2358	0.1977	0.0424	-1.9253	-0.7102
359.375	-1.5973	-1.4901	-1.6047	-0.9038	-0.0125	-0.1481	0.172	0.0914	-0.2216	-0.055	0.1954	-0.0135	-0.1327	0.353	-1.8201	-1.2527	-1.5388	-1.2366	-1.1982	-0.8983	-0.1881	-0.5282	-0.3439	-0.101	0.1174	0.0699	0.0974	-0.0995	-1.8476	-0.5774
363.2812	-1.4297	-1.3603	-1.4786	-0.6799	0.1934	0.0011	0.1458	0.0581	-0.3121	-0.1916	0.0488	-0.1433	-0.1832	0.3981	-1.648	-1.062	-1.3584	-1.1012	-1.0116	-0.6548	0.0254	-0.4231	-0.2364	-0.1417	0.0489	-0.0926	-0.0072	-0.2316	-1.7466	-0.4371
367.1875	-1.2691	-1.2326	-1.3613	-0.4831	0.353	0.1082	0.1057	0.0183	-0.4042	-0.3228	-0.0937	-0.2651	-0.2489	0.4027	-1.4885	-0.8892	-1.184	-0.9635	-0.8389	-0.4367	0.1892	-0.3364	-0.1305	-0.1825	-0.0194	-0.2278	-0.0986	-0.3352	-1.6337	-0.2959
371.0938	-1.1275	-1.112	-1.2607	-0.324	0.4581	0.1695	0.0571	-0.0266	-0.4881	-0.4341	-0.214	-0.3615	-0.3223	0.3698	-1.3434	-0.7352	-1.0219	-0.8283	-0.6869	-0.2511	0.297	-0.2701	-0.0276	-0.215	-0.0797	-0.3173	-0.162	-0.3971	-1.5217	-0.162
375	-1.0122	-1.0027	-1.1828	-0.2089	0.5064	0.1851	0.0053	-0.075	-0.556	-0.5146	-0.297	-0.42	-0.3958	0.3055	-1.2115	-0.5983	-0.8777	-0.7027	-0.5604	-0.1014	0.3482	-0.2264	0.0684	-0.2337	-0.1273	-0.3505	-0.1878	-0.4116	-1.4219	-0.0449
378.9062	-0.9266	-0.9084	-1.1318	-0.14	0.5004	0.1584	-0.0453	-0.1245	-0.6023	-0.5584	-0.3338	-0.4344	-0.4629	0.2183	-1.0904	-0.4763	-0.7552	-0.5958	-0.4626	0.0117	0.3466	-0.2063	0.1517	-0.2361	-0.1605	-0.3264	-0.1735	-0.3801	-1.3429	0.0461
382.8125	-0.8708	-0.8327	-1.1087	-0.1162	0.4456	0.0956	-0.0918	-0.1719	-0.6249	-0.5657	-0.3224	-0.4053	-0.5189	0.1178	-0.9787	-0.3683	-0.6561	-0.5164	-0.3937	0.0885	0.2998	-0.2081	0.2172	-0.2225	-0.1804	-0.2521	-0.1225	-0.3102	-1.2895	0.1036
386.7188	-0.8427	-0.7785	-1.1122	-0.1339	0.3502	0.0045	-0.1333	-0.2134	-0.6247	-0.5415	-0.2681	-0.3397	-0.5614	0.0135	-0.8774	-0.2753	-0.5806	-0.471	-0.3511	0.1309	0.2182	-0.2273	0.2611	-0.1953	-0.189	-0.1411	-0.0433	-0.2135	-1.2631	0.1233
390.625	-0.8388	-0.7474	-1.1374	-0.1872	0.2237	-0.1059	-0.1691	-0.2447	-0.605	-0.4946	-0.1818	-0.2484	-0.59	-0.0857	-0.7905	-0.2003	-0.5273	-0.4619	-0.33	0.1412	0.1134	-0.2558	0.2826	-0.1579	-0.189	-0.0102	0.0528	-0.1032	-1.2608	0.1057
394.5312	-0.8545	-0.7393	-1.1768	-0.2683	0.0773	-0.2252	-0.1988	-0.2617	-0.5704	-0.4348	-0.0782	-0.1448	-0.6061	-0.172	-0.724	-0.1471	-0.4941	-0.486	-0.3241	0.1227	-0.0021	-0.284	0.2839	-0.1146	-0.1831	0.1235	0.1534	0.0072	-1.2765	0.0561
398.4375	-0.8841	-0.7514	-1.22	-0.3673	-0.0768	-0.3423	-0.2213	-0.2609	-0.5258	-0.3711	0.0273	-0.043	-0.6119	-0.239	-0.6837	-0.1188	-0.4784	-0.5347	-0.3272	0.0803	-0.1163	-0.3026	0.269	-0.0699	-0.1744	0.2437	0.2465	0.1053	-1.3004	-0.0154
402.3438	-0.9208	-0.778	-1.2553	-0.4726	-0.2256	-0.4458	-0.2346	-0.2401	-0.4756	-0.3107	0.1214	0.0447	-0.6101	-0.2822	-0.6727	-0.1168	-0.4776	-0.5962	-0.334	0.0201	-0.2189	-0.3043	0.2425	-0.0283	-0.1663	0.337	0.3215	0.1805	-1.3212	-0.0958
406.25	-0.9571	-0.8114	-1.2711	-0.5723	-0.3561	-0.5249	-0.2367	-0.1986	-0.4233	-0.2582	0.1943	0.1079	-0.6035	-0.2987	-0.6901	-0.139	-0.4887	-0.6567	-0.3406	-0.0504	-0.3018	-0.2864	0.2086	0.0053	-0.163	0.3925	0.3697	0.224	-1.3265	-0.1709
410.1562	-0.9853	-0.8425	-1.2583	-0.6545	-0.4563	-0.5708	-0.2259	-0.1377	-0.3709	-0.2162	0.2412	0.1402	-0.5954	-0.2881	-0.73	-0.1801	-0.5085	-0.704	-0.3454	-0.1231	-0.3597	-0.2507	0.1697	0.0262	-0.1685	0.4032	0.3846	0.2303	-1.3055	-0.2279
414.0625	-0.9984	-0.8631	-1.212	-0.7095	-0.517	-0.5774	-0.2019	-0.0605	-0.3196	-0.1856	0.2626	0.1391	-0.5887	-0.2521	-0.7832	-0.2322	-0.5335	-0.7296	-0.3488	-0.1907	-0.3908	-0.204	0.127	0.03	-0.1864	0.3657	0.3628	0.197	-1.2506	-0.2583
417.9688	-0.9912	-0.8674	-1.1331	-0.731	-0.5324	-0.5432	-0.1661	0.0279	-0.2698	-0.1661	0.2628	0.1063	-0.5863	-0.1948	-0.8394	-0.2864	-0.5606	-0.7308	-0.3526	-0.2472	-0.3958	-0.1556	0.0803	0.0136	-0.2181	0.2817	0.3038	0.1262	-1.1593	-0.2591
421.875	-0.9612	-0.8531	-1.0281	-0.7167	-0.5017	-0.471	-0.1218	0.1212	-0.222	-0.1574	0.2488	0.0474	-0.5905	-0.1223	-0.889	-0.3343	-0.5868	-0.7107	-0.359	-0.2894	-0.3787	-0.1158	0.03	-0.0245	-0.2622	0.1577	0.2111	0.0248	-1.0345	-0.2333
425.7812	-0.9092	-0.8218	-0.9081	-0.6691	-0.4288	-0.3684	-0.0733	0.2118	-0.1771	-0.1587	0.2282	-0.0291	-0.6025	-0.0425	-0.925	-0.3696	-0.6092	-0.6772	-0.37	-0.3163	-0.3446	-0.093	-0.0232	-0.0832	-0.314	0.006	0.0918	-0.0955	-0.8846	-0.1882
429.6875	-0.8394	-0.7779	-0.7864	-0.5942	-0.3221	-0.2464	-0.026	0.2926	-0.1367	-0.1692	0.2075	-0.1127	-0.6225	0.036	-0.9428	-0.3885	-0.6253	-0.6404	-0.3859	-0.3291	-0.3001	-0.0924	-0.0762	-0.1578	-0.3659	-0.1566	-0.0435	-0.2194	-0.722	-0.1331
433.5938	-0.7586	-0.7266	-0.6749	-0.5006	-0.1932	-0.1182	0.0149	0.3565	-0.102	-0.1872	0.1916	-0.1927	-0.6492	0.1048	-0.9406	-0.3894	-0.6322	-0.6094	-0.4052	-0.33	-0.2514	-0.1142	-0.1248	-0.241	-0.4082	-0.3102	-0.1813	-0.3297	-0.561	-0.0762
437.5	-0.6745	-0.6722	-0.5827	-0.3977	-0.0554	0.003	0.0449	0.3979	-0.0746	-0.2107	0.1824	-0.2591	-0.6798	0.1565	-0.9176	-0.3726	-0.6267	-0.5903	-0.424	-0.3216	-0.2038	-0.1541	-0.1631	-0.3228	-0.4312	-0.4348	-0.3071	-0.4099	-0.4147	-0.0228
441.4062	-0.5935	-0.6159	-0.5136	-0.2943	0.0786	0.1056	0.0608	0.4129	-0.0557	-0.2375	0.1796	-0.3043	-0.7112	0.1856	-0.8741	-0.3388	-0.6052	-0.5839	-0.4367	-0.3056	-0.1611	-0.204	-0.1852	-0.3929	-0.4271	-0.5134	-0.4069	-0.4476	-0.2935	0.0259
445.3125	-0.5182	-0.5561	-0.4667	-0.1968	0.198	0.1818	0.0609	0.3995	-0.0469	-0.2653	0.18	-0.3247	-0.7395	0.1893	-0.8107	-0.289	-0.5646	-0.5858	-0.4367	-0.2829	-0.1254	-0.2543	-0.1856	-0.4419	-0.3916	-0.5354	-0.4699	-0.4369	-0.2022	0.0722
449.2188	-0.4464	-0.4887	-0.4366	-0.1085	0.295	0.2277	0.0445	0.3579	-0.0502	-0.2931	0.1786	-0.3215	-0.7617	0.168	-0.7277	-0.2234	-0.5023	-0.5874	-0.418	-0.2533	-0.0969	-0.2953	-0.1611	-0.4642	-0.3254	-0.4992	-0.4904	-0.3801	-0.1396	0.1205
453.125	-0.3709	-0.4086	-0.4152	-0.0303	0.3652	0.2439	0.0123	0.2905	-0.0681	-0.3212	0.1691	-0.3013	-0.7757	0.1246	-0.6256	-0.142	-0.417	-0.5779	-0.3761	-0.2158	-0.0746	-0.3195	-0.1113	-0.4582	-0.234	-0.4129	-0.4688	-0.2884	-0.0982	0.1758
457.0312	-0.2818	-0.3124	-0.3939	0.0387	0.4067	0.2341	-0.0342	0.2018	-0.1032	-0.3516	0.1454	-0.2748	-0.7814	0.065	-0.5048	-0.0447	-0.3096	-0.5465	-0.3094	-0.1695	-0.0567	-0.3227	-0.0394	-0.4277	-0.1269	-0.2931	-0.412	-0.1794	-0.0663	0.2421
460.9375	-0.1702	-0.1998	-0.3656	0.0993	0.4194	0.2043	-0.0925	0.0986	-0.157	-0.387	0.1031	-0.2548	-0.7797	-0.0036	-0.3669	0.0677	-0.1828	-0.4852	-0.2199	-0.1136	-0.0411	-0.3047	0.0479	-0.3799	-0.0162	-0.1618	-0.3324	-0.0741	-0.0306	0.3215
464.8438	-0.0321	-0.0749	-0.3261	0.1514	0.4042	0.1608	-0.1594	-0.0109	-0.2291	-0.4298	0.0411	-0.253	-0.7729	-0.0722	-0.2144	0.1926	-0.0411	-0.3902	-0.1129	-0.0487	-0.026	-0.2683	0.1422	-0.3242	0.0854	-0.0421	-0.2448	0.0077	0.02	0.4131
468.75	0.1293	0.0541	-0.2753	0.1929	0.3629	0.1098	-0.2302	-0.1173	-0.316	-0.4798	-0.0374	-0.2767	-0.7627	-0.1319	-0.0518	0.3254	0.1093	-0.2632	0.0043	0.0235	-0.0096	-0.218	0.2346	-0.2696	0.1676	0.0463	-0.1638	0.0519	0.0918	0.514
472.6562	0.3031	0.1767	-0.2166	0.2212	0.2983	0.0565	-0.2988	-0.2109	-0.411	-0.5334	-0.1244	-0.3266	-0.75	-0.174	0.1146	0.4603	0.2617	-0.1111	0.1233	0.1003	0.0097	-0.1584	0.3179	-0.2222	0.2233	0.0905	-0.1011	0.0527	0.1843	0.6186
476.5625	0.4733	0.2823	-0.1557	0.2338	0.2156	0.0058	-0.3584	-0.2827	-0.5044	-0.5832	-0.208	-0.3961	-0.7335	-0.1909	0.2773	0.5906	0.4097	0.0554	0.2372	0.1784	0.0332	-0.0922	0.3883	-0.1846	0.2501	0.0867	-0.0629	0.014	0.2908	0.7203
480.4688	0.6225	0.3628	-0.0992	0.2302	0.1227	-0.037	-0.4012	-0.3256	-0.5848	-0.6182	-0.2743	-0.472	-0.7101	-0.1774	0.4282	0.7103	0.5475	0.2233	0.3411	0.2548	0.0625	-0.0202	0.445	-0.155	0.2501	0.0393	-0.0495	-0.0519	0.3994	0.8119
484.375	0.7356	0.4141	-0.0528	0.2124	0.0302	-0.0665	-0.42	-0.3354	-0.6413	-0.6265	-0.3098	-0.5375	-0.675	-0.1307	0.5592	0.8146	0.6707	0.3801	0.4331	0.3275	0.0988	0.0589	0.4903	-0.1287	0.2289	-0.0397	-0.0558	-0.1275	0.4961	0.8868
488.2812	0.8039	0.4367	-0.0202	0.1856	-0.0491	-0.0774	-0.4088	-0.3111	-0.6649	-0.5976	-0.3038	-0.5758	-0.6235	-0.0511	0.6639	0.9007	0.7767	0.5147	0.514	0.3953	0.1436	0.1474	0.5282	-0.0997	0.1946	-0.1345	-0.0729	-0.1936	0.5677	0.9397
492.1875	0.8263	0.4347	-0.0023	0.1567	-0.1017	-0.065	-0.3637	-0.255	-0.6502	-0.5249	-0.2507	-0.5739	-0.5516	0.0588	0.7376	0.9677	0.8647	0.6197	0.5867	0.4586	0.198	0.2472	0.5631	-0.0622	0.1558	-0.2281	-0.0902	-0.2343	0.6042	0.9677
496.0938	0.8087	0.4148	0.002	0.1335	-0.1163	-0.0263	-0.284	-0.1721	-0.5965	-0.408	-0.1506	-0.5261	-0.4579	0.1942	0.7787	1.016	0.935	0.6916	0.6554	0.518	0.2626	0.3594	0.5998	-0.0117	0.1208	-0.3054	-0.0983	-0.2396	0.6014	0.9709
500	0.7626	0.3836	-0.0046	0.1221	-0.0856	0.0387	-0.1728	-0.0693	-0.5077	-0.2534	-0.0101	-0.4353	-0.344	0.3486	0.7889	1.0469	0.9887	0.7315	0.7246	0.5742	0.337	0.4836	0.6427	0.0534	0.0965	-0.3558	-0.0906	-0.208	0.5612	0.9532
503.9062	0.701	0.3463	-0.0189	0.126	-0.0088	0.1263	-0.0375	0.045	-0.3921	-0.074	0.1585	-0.3128	-0.2152	0.5146	0.7733	1.062	1.0274	0.7447	0.7979	0.6276	0.42	0.6175	0.6951	0.1324	0.0877	-0.3739	-0.0645	-0.1459	0.4914	0.9221
507.8125	0.6355	0.3063	-0.0381	0.1455	0.1081	0.2298	0.111	0.162	-0.2606	0.1123	0.3393	-0.1757	-0.0794	0.6841	0.7398	1.0634	1.0531	0.7394	0.8773	0.6777	0.509	0.7571	0.7592	0.2216	0.097	-0.3593	-0.0216	-0.0657	0.4038	0.8877
511.7188	0.5746	0.2651	-0.0599	0.1783	0.2537	0.3402	0.2596	0.2727	-0.1259	0.2862	0.5145	-0.0436	0.0532	0.8486	0.6987	1.0532	1.0684	0.7256	0.9627	0.7235	0.6003	0.8972	0.8352	0.3155	0.1245	-0.3162	0.0333	0.0171	0.3116	0.8615
515.625	0.5225	0.2238	-0.0834	0.2207	0.4131	0.4483	0.3951	0.3688	-0.0004	0.4301	0.6678	0.0655	0.1725	1.0002	0.6597	1.0345	1.0763	0.7126	1.0516	0.7639	0.6901	1.0315	0.9208	0.407	0.168	-0.2507	0.0935	0.0885	0.2266	0.8534
519.5312	0.4801	0.1844	-0.1085	0.2694	0.5714	0.5461	0.5064	0.4431	0.1054	0.5317	0.7874	0.1397	0.2697	1.131	0.631	1.0107	1.0805	0.7073	1.1389	0.7982	0.7741	1.153	1.0116	0.4885	0.2235	-0.1698	0.1527	0.1386	0.1572	0.8696
523.4375	0.4463	0.1503	-0.1357	0.3225	0.7159	0.6279	0.5863	0.4906	0.1847	0.5858	0.8675	0.1747	0.3384	1.2347	0.6168	0.9856	1.0844	0.7122	1.2179	0.8257	0.8486	1.2539	1.1009	0.5525	0.2857	-0.079	0.2061	0.1646	0.107	0.9105
527.3438	0.4186	0.1266	-0.1653	0.3798	0.8379	0.6903	0.632	0.5088	0.2347	0.5947	0.9093	0.1748	0.3758	1.3059	0.6164	0.9627	1.0907	0.7253	1.2803	0.8459	0.9104	1.3264	1.1808	0.593	0.3487	0.0181	0.2511	0.1704	0.0754	0.97
531.25	0.3948	0.1188	-0.1968	0.4417	0.9318	0.732	0.6453	0.4977	0.2566	0.5672	0.9201	0.1512	0.3823	1.3411	0.6247	0.9451	1.1003	0.7407	1.318	0.8587	0.9567	1.3636	1.2435	0.6062	0.4073	0.1198	0.2879	0.1661	0.0586	1.0363
535.1562	0.3736	0.1319	-0.2282	0.5081	0.9953	0.7522	0.6311	0.4605	0.2548	0.5165	0.9117	0.119	0.3614	1.3393	0.6339	0.935	1.1123	0.7503	1.3244	0.8645	0.986	1.3608	1.2827	0.5916	0.4575	0.2261	0.319	0.1658	0.051	1.0947
539.0625	0.3557	0.1695	-0.2559	0.5778	1.0278	0.7509	0.5963	0.4029	0.2358	0.4568	0.8971	0.0944	0.3194	1.3027	0.6363	0.9344	1.1247	0.7468	1.2972	0.8647	0.9975	1.3172	1.295	0.5524	0.4979	0.3373	0.3483	0.1839	0.0479	1.1308
542.9688	0.3437	0.2325	-0.2753	0.6478	1.0302	0.7288	0.5489	0.3326	0.2066	0.4012	0.888	0.0906	0.2646	1.2371	0.6272	0.9448	1.1352	0.726	1.2393	0.8616	0.9922	1.2376	1.2813	0.4958	0.5291	0.4532	0.381	0.2321	0.0465	1.1343
546.875	0.3422	0.3193	-0.2817	0.7136	1.0052	0.688	0.4965	0.2589	0.1739	0.3594	0.8926	0.1153	0.2064	1.1514	0.6065	0.9677	1.1424	0.6883	1.16	0.8588	0.9724	1.1323	1.2472	0.4318	0.5537	0.5718	0.4209	0.3164	0.0463	1.1011
550.7812	0.3557	0.4252	-0.2719	0.7699	0.9569	0.6326	0.4455	0.1913	0.1429	0.3366	0.9135	0.1687	0.1533	1.0567	0.5789	1.004	1.1462	0.6384	1.0732	0.86	0.9417	1.0166	1.2012	0.3711	0.5742	0.688	0.4699	0.4341	0.0491	1.0336
554.6875	0.3875	0.5425	-0.2455	0.8116	0.891	0.5687	0.4008	0.1388	0.1176	0.3333	0.9485	0.2439	0.1122	0.964	0.552	1.053	1.1483	0.5838	0.9952	0.8685	0.9049	0.9079	1.1537	0.323	0.5916	0.7934	0.526	0.5739	0.0568	0.9399
558.5938	0.4372	0.6611	-0.2059	0.8343	0.8149	0.5038	0.3652	0.1084	0.0999	0.3468	0.9911	0.3276	0.0866	0.8827	0.5332	1.1126	1.1511	0.5325	0.9416	0.886	0.8669	0.8229	1.1138	0.2926	0.6042	0.8762	0.5833	0.7172	0.0702	0.831
562.5	0.5002	0.7693	-0.1599	0.8354	0.7366	0.4463	0.3405	0.1051	0.0911	0.3718	1.0329	0.4036	0.0762	0.8189	0.5276	1.1784	1.1571	0.4909	0.9238	0.9119	0.8325	0.7744	1.0883	0.2808	0.608	0.9235	0.6328	0.8418	0.0879	0.719
566.4062	0.5681	0.8555	-0.1161	0.8148	0.6652	0.4044	0.3277	0.1316	0.0919	0.4034	1.0665	0.4566	0.0778	0.7752	0.5361	1.2449	1.1678	0.4623	0.9472	0.9435	0.8058	0.77	1.0808	0.284	0.5976	0.9242	0.6646	0.927	0.1064	0.6144
570.3125	0.6305	0.9103	-0.0833	0.7761	0.61	0.386	0.3283	0.1887	0.1036	0.4382	1.0875	0.476	0.087	0.7518	0.555	1.3056	1.1827	0.447	1.0105	0.9767	0.7906	0.8114	1.0919	0.297	0.5688	0.8721	0.6718	0.9591	0.121	0.5257
574.2188	0.6776	0.9284	-0.068	0.7265	0.5803	0.3977	0.3441	0.2753	0.1285	0.4752	1.0963	0.4586	0.0997	0.7484	0.5779	1.3555	1.1998	0.4429	1.1068	1.0077	0.79	0.8952	1.1202	0.3153	0.5208	0.7692	0.6522	0.9351	0.1276	0.4586
578.125	0.7034	0.9099	-0.0725	0.6766	0.5848	0.4441	0.3779	0.3884	0.1694	0.5163	1.0974	0.4103	0.1146	0.7652	0.5973	1.3916	1.2169	0.4474	1.2256	1.0343	0.8071	1.0147	1.1637	0.3372	0.4581	0.6268	0.611	0.8642	0.1234	0.4158
582.0312	0.7066	0.861	-0.0949	0.6387	0.63	0.5271	0.4326	0.523	0.229	0.5648	1.0983	0.3442	0.1332	0.8045	0.6073	1.4146	1.2329	0.4587	1.3556	1.0576	0.8454	1.1617	1.2203	0.3647	0.3902	0.4645	0.5594	0.7654	0.1082	0.3975
585.9375	0.6914	0.7932	-0.1297	0.6249	0.7192	0.6447	0.5095	0.6707	0.3083	0.6241	1.1069	0.2779	0.1597	0.8699	0.6059	1.4291	1.2489	0.4769	1.487	1.0825	0.9084	1.3273	1.2883	0.4026	0.3295	0.307	0.5124	0.6636	0.084	0.4014
589.8438	0.6663	0.7212	-0.1696	0.6444	0.8514	0.7907	0.6077	0.8205	0.4049	0.6958	1.129	0.2286	0.1996	0.9651	0.5955	1.4425	1.2689	0.5035	1.6129	1.1168	0.9996	1.5032	1.3659	0.4567	0.2889	0.1794	0.4853	0.5832	0.0541	0.4229
593.75	0.6411	0.6604	-0.2075	0.7023	1.0209	0.955	0.7235	0.9593	0.5122	0.7783	1.1661	0.209	0.2573	1.0922	0.5824	1.4642	1.2992	0.5406	1.7301	1.1699	1.1215	1.6813	1.4512	0.5313	0.2779	0.1017	0.4892	0.5424	0.0222	0.4557
597.6562	0.6248	0.6247	-0.2376	0.7985	1.2181	1.125	0.8497	1.0737	0.6199	0.8666	1.2148	0.2242	0.3348	1.2497	0.5752	1.5034	1.3461	0.5895	1.8378	1.2503	1.2739	1.8537	1.5413	0.6271	0.3003	0.0857	0.5289	0.5502	-0.0089	0.492
601.5625	0.6232	0.6239	-0.2572	0.9281	1.4313	1.2874	0.9772	1.1524	0.7157	0.953	1.2675	0.2714	0.4307	1.4315	0.5816	1.5667	1.4143	0.649	1.9372	1.3627	1.4532	2.012	1.6325	0.7405	0.3531	0.1328	0.6013	0.6044	-0.0381	0.524
605.4688	0.6378	0.6626	-0.2663	1.0821	1.6475	1.43	1.0957	1.1883	0.7873	1.0284	1.3144	0.3403	0.5396	1.6266	0.6066	1.6566	1.5041	0.7151	2.029	1.5065	1.6508	2.1479	1.7193	0.8633	0.4272	0.2346	0.6968	0.6939	-0.0662	0.5445
609.375	0.6654	0.739	-0.2681	1.2491	1.8537	1.5427	1.1952	1.1796	0.8256	1.0844	1.3463	0.4168	0.6526	1.8199	0.6504	1.7706	1.6109	0.7808	2.1119	1.6743	1.8539	2.2533	1.7951	0.984	0.509	0.3755	0.8017	0.8018	-0.0959	0.5481
613.2812	0.7006	0.846	-0.2675	1.4163	2.0379	1.6189	1.2675	1.1306	0.8271	1.115	1.3565	0.4863	0.7595	1.9947	0.7087	1.9015	1.7251	0.8376	2.1829	1.8535	2.0465	2.3212	1.8526	1.0907	0.5844	0.5363	0.9015	0.9102	-0.131	0.5317
617.1875	0.7368	0.9724	-0.2708	1.5714	2.1894	1.6549	1.3077	1.0506	0.7944	1.1185	1.3433	0.5379	0.8501	2.1351	0.7737	2.0394	1.8346	0.8775	2.2372	2.0284	2.2123	2.3472	1.885	1.1732	0.6411	0.6983	0.9844	1.0046	-0.1759	0.495
621.0938	0.769	1.1055	-0.2832	1.7038	2.2996	1.6501	1.3153	0.9525	0.7367	1.0979	1.3105	0.5668	0.9171	2.2297	0.8367	2.1739	1.928	0.8944	2.2702	2.184	2.3383	2.3315	1.8882	1.226	0.6717	0.8469	1.0443	1.0773	-0.2339	0.4401
625	0.7949	1.2329	-0.308	1.8053	2.3625	1.6068	1.2949	0.8512	0.6682	1.0611	1.2667	0.5754	0.9579	2.2738	0.8901	2.2966	1.998	0.8864	2.2801	2.309	2.4167	2.2798	1.8613	1.2497	0.6754	0.9737	1.0814	1.1285	-0.3059	0.3714
628.9062	0.8153	1.3455	-0.3455	1.8707	2.3754	1.5299	1.2554	0.7606	0.6055	1.019	1.2233	0.5729	0.9754	2.2704	0.9296	2.4023	2.0434	0.8559	2.2688	2.3981	2.4471	2.2032	1.8083	1.2512	0.6567	1.0768	1.1024	1.1649	-0.3899	0.2949
632.8125	0.8324	1.4375	-0.3928	1.8981	2.3392	1.4261	1.2086	0.6919	0.5645	0.984	1.1921	0.5721	0.9772	2.2297	0.9543	2.4895	2.0696	0.8093	2.2426	2.4517	2.4352	2.1163	1.7369	1.2415	0.625	1.1592	1.1177	1.1974	-0.4804	0.2171
636.7188	0.8487	1.5069	-0.4447	1.888	2.2579	1.3032	1.1669	0.6521	0.5571	0.9669	1.1824	0.5863	0.9737	2.166	0.9665	2.5589	2.0863	0.7554	2.2104	2.4747	2.3915	2.0351	1.6575	1.2336	0.5909	1.2272	1.1383	1.2368	-0.5699	0.1444
640.625	0.865	1.5537	-0.4957	1.8426	2.1389	1.1695	1.1403	0.6427	0.5894	0.9744	1.1989	0.6254	0.9752	2.0951	0.97	2.6119	2.1042	0.7035	2.1817	2.4735	2.3279	1.9727	1.5809	1.2382	0.5641	1.2869	1.1729	1.2906	-0.6504	0.0815
644.5312	0.8795	1.5794	-0.5409	1.7659	1.9921	1.033	1.1347	0.6607	0.6599	1.0083	1.241	0.6928	0.9895	2.0305	0.9688	2.6488	2.1323	0.6616	2.164	2.4542	2.2551	1.9376	1.5165	1.2621	0.5514	1.343	1.2257	1.3608	-0.7155	0.0317
648.4375	0.8891	1.5861	-0.577	1.6636	1.8296	0.9017	1.1508	0.6991	0.7607	1.0651	1.3026	0.7848	1.0201	1.9813	0.9659	2.6694	2.175	0.6354	2.1613	2.4215	2.1812	1.9322	1.4711	1.3061	0.5549	1.3968	1.295	1.4434	-0.7613	-0.0034
652.3438	0.8903	1.5761	-0.6022	1.544	1.6655	0.7833	1.1845	0.7491	0.8793	1.1375	1.3743	0.8912	1.0662	1.9519	0.9637	2.6733	2.2324	0.628	2.1741	2.3787	2.1119	1.9538	1.4487	1.3664	0.5728	1.447	1.3748	1.53	-0.7867	-0.023
656.25	0.8817	1.553	-0.6156	1.4176	1.515	0.685	1.2294	0.8022	1.0015	1.2164	1.4456	0.9978	1.1237	1.9427	0.9635	2.6615	2.3005	0.6394	2.2006	2.3297	2.0516	1.9968	1.4506	1.4359	0.5998	1.4904	1.4561	1.61	-0.7926	-0.0273
660.1562	0.8648	1.5211	-0.617	1.2968	1.3926	0.6132	1.2782	0.8518	1.1148	1.2934	1.5075	1.0899	1.1865	1.9515	0.9663	2.6378	2.3735	0.6673	2.2381	2.2796	2.0044	2.0551	1.4764	1.5064	0.6288	1.523	1.5298	1.6734	-0.7814	-0.0169
664.0625	0.8439	1.4849	-0.6074	1.1938	1.3111	0.5726	1.3249	0.8944	1.2105	1.3627	1.5545	1.1561	1.2493	1.9757	0.9718	2.608	2.4445	0.7063	2.2844	2.2351	1.9753	2.1234	1.524	1.571	0.6523	1.5415	1.5884	1.713	-0.7564	0.0062
667.9688	0.8242	1.4481	-0.5891	1.1187	1.2789	0.5652	1.3663	0.9297	1.2852	1.4216	1.5853	1.1901	1.3082	2.0131	0.9787	2.5784	2.507	0.7488	2.3375	2.2029	1.9691	2.1981	1.5898	1.625	0.6635	1.5439	1.6277	1.7259	-0.7219	0.038
671.875	0.809	1.4119	-0.5668	1.0772	1.2992	0.5897	1.4016	0.9598	1.3394	1.4704	1.6025	1.1925	1.3617	2.0624	0.9833	2.5535	2.5548	0.7856	2.3956	2.1881	1.9895	2.2762	1.6685	1.666	0.6569	1.53	1.647	1.7133	-0.6835	0.0723
675.7812	0.7982	1.3749	-0.5467	1.0698	1.3693	0.6413	1.4323	0.9879	1.377	1.5107	1.611	1.1696	1.4102	2.1232	0.98	2.5343	2.5821	0.8076	2.4559	2.1921	2.0374	2.355	1.7534	1.6937	0.6296	1.5014	1.6485	1.6802	-0.6475	0.1015
679.6875	0.7866	1.333	-0.5359	1.0913	1.481	0.7126	1.4603	1.0167	1.4026	1.5442	1.6162	1.1319	1.4554	2.195	0.9619	2.5171	2.5834	0.8073	2.5139	2.2112	2.1096	2.4302	1.8369	1.7093	0.5809	1.4612	1.6367	1.6338	-0.6207	0.1175
683.5938	0.7657	1.2804	-0.5405	1.1328	1.6215	0.794	1.4872	1.0473	1.4194	1.5715	1.6217	1.0912	1.4986	2.2763	0.9219	2.494	2.5538	0.7808	2.5632	2.2375	2.1985	2.4964	1.9112	1.7145	0.5133	1.4141	1.6169	1.5825	-0.6086	0.1137
687.5	0.7256	1.2116	-0.5642	1.1825	1.7753	0.8747	1.5129	1.0782	1.4286	1.5908	1.6274	1.0574	1.5397	2.3639	0.8544	2.4548	2.4897	0.7291	2.5963	2.2601	2.2934	2.547	1.9702	1.7111	0.4323	1.3655	1.5937	1.5338	-0.6152	0.0864
691.4062	0.658	1.1231	-0.6076	1.2289	1.9255	0.9444	1.5351	1.1051	1.4281	1.5983	1.6294	1.0359	1.5768	2.4526	0.7565	2.3905	2.3901	0.6577	2.6064	2.2679	2.3824	2.576	2.0101	1.7006	0.3457	1.3215	1.5707	1.493	-0.6418	0.0359
695.3125	0.559	1.015	-0.6678	1.2623	2.0562	0.9938	1.55	1.1225	1.4139	1.5891	1.6206	1.0269	1.6068	2.5357	0.6295	2.2955	2.2581	0.5761	2.5894	2.253	2.455	2.5796	2.0308	1.6841	0.263	1.2877	1.5498	1.4625	-0.6875	-0.0338
699.2188	0.4306	0.8918	-0.7395	1.2766	2.1537	1.0159	1.553	1.1243	1.3813	1.5588	1.593	1.0259	1.626	2.6064	0.4796	2.1711	2.1022	0.496	2.5455	2.213	2.5047	2.558	2.0363	1.6633	0.194	1.2694	1.5315	1.4415	-0.7486	-0.1146
703.125	0.281	0.7615	-0.8156	1.27	2.2085	1.0073	1.5402	1.1059	1.3268	1.5052	1.5405	1.0254	1.6318	2.6597	0.3181	2.0259	1.9359	0.4291	2.4803	2.1526	2.5307	2.5161	2.0336	1.6404	0.1483	1.2711	1.5163	1.4277	-0.8195	-0.1965
707.0312	0.1233	0.6342	-0.8889	1.2443	2.2157	0.9677	1.5099	1.0651	1.2498	1.4292	1.4606	1.0176	1.6235	2.693	0.1597	1.8742	1.7758	0.384	2.4038	2.0825	2.5374	2.463	2.0314	1.6187	0.1339	1.296	1.5047	1.4177	-0.8936	-0.2697
710.9375	-0.026	0.5192	-0.9533	1.2037	2.1756	0.9007	1.463	1.0027	1.1527	1.3349	1.3559	0.9969	1.6025	2.707	0.0199	1.7333	1.6382	0.3644	2.3279	2.0168	2.5337	2.41	2.0378	1.6019	0.1563	1.3451	1.4976	1.4086	-0.9644	-0.3261
714.8438	-0.1507	0.4225	-1.005	1.1528	2.0929	0.8125	1.4026	0.9222	1.041	1.2289	1.2331	0.9606	1.5717	2.7049	-0.0885	1.6183	1.5348	0.3675	2.2634	1.9689	2.5291	2.3672	2.0575	1.5936	0.2176	1.4165	1.4961	1.3983	-1.0274	-0.3625
718.75	-0.2375	0.3447	-1.0437	1.0948	1.9758	0.7117	1.3333	0.8292	0.9222	1.1185	1.102	0.9101	1.5343	2.691	-0.1593	1.5379	1.4692	0.3841	2.2161	1.947	2.5312	2.3409	2.0902	1.5959	0.3155	1.504	1.5004	1.3854	-1.08	-0.3808
722.6562	-0.2796	0.2804	-1.0725	1.0306	1.8355	0.6077	1.2605	0.7301	0.8046	1.0112	0.9731	0.8496	1.493	2.6694	-0.1948	1.4918	1.435	0.4	2.1846	1.951	2.5429	2.3318	2.1304	1.6084	0.4424	1.5976	1.5098	1.3691	-1.1231	-0.3881
726.5625	-0.2791	0.2191	-1.0981	0.9591	1.6849	0.5101	1.1895	0.6319	0.6967	0.913	0.8561	0.786	1.4499	2.6428	-0.2057	1.47	1.4172	0.3992	2.1606	1.9722	2.5614	2.3344	2.1683	1.6288	0.5863	1.6843	1.5222	1.349	-1.1597	-0.3949
730.4688	-0.2481	0.148	-1.1296	0.8784	1.5375	0.4281	1.125	0.5415	0.6062	0.8288	0.7585	0.7265	1.4064	2.6125	-0.2095	1.4552	1.3945	0.3673	2.1305	1.9947	2.5789	2.3388	2.1923	1.6527	0.7316	1.7499	1.535	1.3244	-1.1948	-0.4127
734.375	-0.2068	0.0551	-1.1765	0.7871	1.4066	0.3691	1.0711	0.4657	0.5394	0.7617	0.6847	0.6778	1.3637	2.5787	-0.2261	1.4267	1.3448	0.2953	2.0792	1.9993	2.5848	2.3341	2.1922	1.6749	0.8619	1.7821	1.5453	1.2945	-1.2337	-0.4508
738.2812	-0.1802	-0.0679	-1.2469	0.6857	1.3037	0.3383	1.0315	0.4105	0.5003	0.714	0.6362	0.6443	1.323	2.5411	-0.2732	1.3658	1.25	0.1815	1.9947	1.9684	2.5688	2.3108	2.1616	1.6903	0.9621	1.7731	1.551	1.2589	-1.2811	-0.5147
742.1875	-0.1916	-0.2238	-1.3456	0.5767	1.2369	0.3381	1.0091	0.3807	0.49	0.6871	0.6116	0.6278	1.2862	2.4996	-0.3628	1.2596	1.1003	0.0319	1.871	1.8905	2.5236	2.2643	2.1005	1.6951	1.0214	1.7212	1.5509	1.2172	-1.3401	-0.6043
746.0938	-0.2577	-0.409	-1.4733	0.4647	1.2106	0.3677	1.0058	0.3793	0.5069	0.6818	0.6075	0.6275	1.2553	2.4551	-0.4985	1.1044	0.8971	-0.1414	1.7105	1.7624	2.4473	2.1958	2.0147	1.6878	1.0358	1.6321	1.5455	1.1695	-1.4116	-0.715
750	-0.3839	-0.6146	-1.626	0.3557	1.2244	0.4234	1.0228	0.4064	0.5464	0.6979	0.6188	0.6402	1.233	2.4097	-0.675	0.9067	0.6521	-0.3227	1.5237	1.5908	2.344	2.1124	1.9155	1.6695	1.0085	1.5175	1.5368	1.1164	-1.4943	-0.8383
753.9062	-0.564	-0.8278	-1.7962	0.2558	1.2737	0.4987	1.0595	0.4588	0.6017	0.7346	0.64	0.6618	1.2218	2.3675	-0.8795	0.6812	0.3857	-0.4956	1.327	1.3905	2.2231	2.0253	1.8168	1.6442	0.9496	1.3937	1.5278	1.0593	-1.5849	-0.9642
757.8125	-0.7813	-1.0343	-1.9735	0.1703	1.3505	0.5854	1.1137	0.5299	0.6656	0.7893	0.6659	0.6878	1.2239	2.3332	-1.094	0.449	0.1227	-0.6458	1.1395	1.1815	2.0978	1.9473	1.7322	1.6181	0.874	1.2777	1.5222	1	-1.6791	-1.0823
761.7188	-1.0131	-1.2203	-2.1457	0.1034	1.4446	0.6746	1.1809	0.611	0.7307	0.8581	0.6919	0.7145	1.2405	2.3115	-1.2982	0.2326	-0.1116	-0.7631	0.9792	0.9852	1.9823	1.8897	1.6726	1.5984	0.798	1.1842	1.5231	0.9409	-1.7716	-1.1834
765.625	-1.2347	-1.3739	-2.3003	0.0573	1.5445	0.7577	1.2548	0.6926	0.7915	0.9349	0.715	0.739	1.2704	2.3055	-1.4729	0.0526	-0.296	-0.8421	0.8596	0.821	1.8888	1.8595	1.6448	1.5916	0.7359	1.123	1.5327	0.8846	-1.8576	-1.2604
769.5312	-1.4237	-1.4867	-2.4252	0.033	1.6391	0.8274	1.3274	0.7661	0.8443	1.0125	0.733	0.7595	1.3103	2.3153	-1.6023	-0.0762	-0.4161	-0.8823	0.7876	0.7024	1.8251	1.858	1.6502	1.6017	0.6971	1.0972	1.5515	0.8341	-1.9325	-1.3084
773.4375	-1.5626	-1.5539	-2.5097	0.03	1.7184	0.8786	1.3905	0.8258	0.8868	1.0829	0.7448	0.7751	1.354	2.338	-1.6766	-0.1461	-0.4662	-0.8868	0.7631	0.6356	1.7939	1.8812	1.6861	1.63	0.6853	1.1035	1.5783	0.7919	-1.9924	-1.3246
777.3438	-1.6412	-1.5744	-2.5459	0.0469	1.7748	0.9083	1.4364	0.8688	0.9185	1.1387	0.7499	0.7856	1.3946	2.3676	-1.6926	-0.1572	-0.4488	-0.8611	0.7796	0.6194	1.7923	1.9209	1.7465	1.675	0.6979	1.134	1.6106	0.7603	-2.0344	-1.3085
781.25	-1.6574	-1.5514	-2.5299	0.0818	1.8042	0.9162	1.4598	0.8957	0.9394	1.1744	0.7481	0.7912	1.4249	2.3968	-1.6536	-0.1163	-0.3734	-0.8117	0.8268	0.6461	1.8135	1.9679	1.8239	1.7331	0.7289	1.1784	1.6454	0.7402	-2.0566	-1.2614
785.1562	-1.6171	-1.4912	-2.463	0.132	1.8063	0.9045	1.4588	0.9092	0.9506	1.1876	0.7393	0.7924	1.4403	2.4192	-1.5679	-0.0346	-0.2537	-0.7452	0.893	0.7042	1.8489	2.0136	1.911	1.7999	0.7701	1.2266	1.68	0.7313	-2.0587	-1.1869
789.0625	-1.5328	-1.4032	-2.3529	0.1938	1.7848	0.8772	1.4354	0.9134	0.954	1.1796	0.7244	0.79	1.4392	2.4312	-1.4478	0.0743	-0.105	-0.6683	0.9671	0.7807	1.8902	2.0524	2.0017	1.8714	0.814	1.2708	1.7128	0.7316	-2.043	-1.0904
792.9688	-1.4213	-1.2988	-2.2127	0.263	1.7469	0.8404	1.3953	0.9127	0.9523	1.1556	0.7049	0.7852	1.4241	2.4323	-1.3078	0.1963	0.0573	-0.587	1.0408	0.8638	1.931	2.0822	2.0914	1.9443	0.8554	1.3067	1.743	0.7382	-2.0147	-0.98
796.875	-1.3008	-1.1903	-2.0596	0.3342	1.7019	0.8003	1.347	0.9114	0.9493	1.1236	0.6836	0.7798	1.4005	2.4258	-1.1626	0.3189	0.2197	-0.5069	1.1086	0.9441	1.9674	2.1038	2.1776	2.0162	0.8918	1.334	1.7712	0.7471	-1.9809	-0.8647
