FP1,F3,F7,FC3,C3,C5,P3,P7,PO7,PO3,O1,Oz,Pz,CPz,FP2,Fz,F4,F8,FC4,FCz,Cz,C4,C6,P4,P8,PO8,PO4,O2,HEOG_left,HEOG_right
-1.165,-2.4433,-1.8803,-2.1044,-1.4494,-1.1218,-0.2819,0.0423,-0.183,-0.3117,0.0856,-0.19,-0.4519,-1.2225,-2.7901,-2.6928,-2.3578,-1.705,-2.0095,-2.454,-1.9173,-1.4402,-1.0476,-0.269,0.225,0.112,0.0769,-0.4045,-0.7631,-1.3778
-1.3498,-2.3194,-1.585,-1.9817,-1.3723,-1.0256,-0.2705,0.0987,-0.0916,-0.2756,0.0572,-0.1274,-0.4985,-1.2324,-2.3639,-2.5932,-2.3059,-1.7012,-1.9859,-2.3732,-1.8891,-1.4234,-1.0436,-0.3645,0.0845,0.0747,0.0163,-0.2397,-0.6489,-1.2455
-1.5034,-2.1961,-1.3187,-1.8647,-1.303,-0.941,-0.2612,0.1493,-0.0069,-0.2445,0.0307,-0.0701,-0.543,-1.2429,-1.9727,-2.4893,-2.2456,-1.6858,-1.957,-2.2886,-1.8597,-1.4084,-1.0405,-0.4556,-0.0493,0.0328,-0.0444,-0.0963,-0.538,-1.1196
-1.5993,-2.073,-1.1021,-1.7562,-1.2455,-0.8751,-0.255,0.1885,0.0651,-0.2216,0.0094,-0.0222,-0.5815,-1.2525,-1.6426,-2.3758,-2.1665,-1.6475,-1.9157,-2.1965,-1.8265,-1.3936,-1.036,-0.5356,-0.1683,-0.015,-0.1033,0.0091,-0.4334,-1.0018
-1.624,-1.9525,-0.9485,-1.6588,-1.2018,-0.8311,-0.2518,0.2131,0.1217,-0.2072,-0.0028,0.0146,-0.6103,-1.258,-1.3884,-2.2503,-2.0624,-1.5815,-1.8573,-2.0948,-1.7869,-1.3765,-1.0277,-0.598,-0.2649,-0.0656,-0.1567,0.0698,-0.3397,-0.8947
-1.5786,-1.8391,-0.86,-1.5737,-1.1707,-0.8073,-0.2497,0.2237,0.1625,-0.1988,-0.0022,0.0408,-0.6255,-1.2546,-1.2111,-2.1126,-1.9322,-1.4897,-1.7798,-1.9833,-1.7378,-1.3531,-1.0126,-0.6362,-0.3329,-0.1124,-0.1993,0.089,-0.2621,-0.8009
-1.4758,-1.7362,-0.8268,-1.4992,-1.1468,-0.7977,-0.2456,0.223,0.1894,-0.1919,0.0135,0.0588,-0.6232,-1.2354,-1.0983,-1.9632,-1.7788,-1.3784,-1.6822,-1.8614,-1.6747,-1.3181,-0.9865,-0.6451,-0.3676,-0.147,-0.2255,0.0783,-0.2052,-0.7214
-1.336,-1.6441,-0.8285,-1.4298,-1.1207,-0.7934,-0.2357,0.2152,0.2049,-0.182,0.0441,0.072,-0.5998,-1.1928,-1.0276,-1.8024,-1.6071,-1.2551,-1.564,-1.7272,-1.5915,-1.2644,-0.9447,-0.6214,-0.3675,-0.1622,-0.2309,0.0529,-0.1709,-0.6539
-1.1803,-1.5578,-0.8396,-1.3567,-1.0812,-0.7839,-0.2167,0.2041,0.211,-0.1656,0.0859,0.0828,-0.5532,-1.1199,-0.9727,-1.6298,-1.4229,-1.1261,-1.4246,-1.5779,-1.4821,-1.1853,-0.8822,-0.5648,-0.334,-0.1536,-0.2142,0.0278,-0.1574,-0.5931
-1.0266,-1.4678,-0.8345,-1.2695,-1.0173,-0.7598,-0.1875,0.192,0.2092,-0.142,0.132,0.0925,-0.4847,-1.0136,-0.9103,-1.445,-1.2322,-0.9959,-1.2644,-1.4107,-1.3424,-1.076,-0.7954,-0.4792,-0.2721,-0.1212,-0.1779,0.0138,-0.1594,-0.5312
-0.8867,-1.3624,-0.7942,-1.1594,-0.9218,-0.7145,-0.1497,0.1794,0.1997,-0.1132,0.1732,0.1006,-0.3996,-0.8763,-0.8257,-1.249,-1.0411,-0.8671,-1.0861,-1.2248,-1.1723,-0.9363,-0.6841,-0.3726,-0.1899,-0.0697,-0.128,0.0154,-0.169,-0.4608
-0.7649,-1.2324,-0.7091,-1.0224,-0.7938,-0.6458,-0.1074,0.1658,0.183,-0.0832,0.2004,0.1053,-0.3073,-0.7164,-0.7162,-1.0463,-0.8562,-0.7414,-0.896,-1.0236,-0.9776,-0.7717,-0.5522,-0.2567,-0.0977,-0.0081,-0.0737,0.0302,-0.177,-0.3775
-0.6604,-1.0736,-0.5808,-0.8609,-0.6394,-0.5562,-0.0662,0.1505,0.1601,-0.0564,0.2064,0.1044,-0.2194,-0.5475,-0.5911,-0.8446,-0.685,-0.6215,-0.7037,-0.8147,-0.7695,-0.5931,-0.4086,-0.1457,-0.0072,0.0527,-0.0253,0.0508,-0.1752,-0.2818
-0.5687,-0.8897,-0.4214,-0.6836,-0.4708,-0.4523,-0.0316,0.1342,0.1333,-0.0364,0.1877,0.0961,-0.1478,-0.3859,-0.4677,-0.6548,-0.5354,-0.5112,-0.5218,-0.6097,-0.5629,-0.4158,-0.2658,-0.0537,0.0709,0.1015,0.0078,0.0678,-0.1579,-0.1799
-0.4855,-0.6909,-0.25,-0.5037,-0.3037,-0.3428,-0.0079,0.1183,0.1058,-0.0253,0.1452,0.0799,-0.1014,-0.2469,-0.365,-0.4886,-0.4147,-0.4154,-0.3635,-0.4223,-0.3743,-0.2558,-0.1375,0.0079,0.1278,0.1297,0.0197,0.0731,-0.1228,-0.0821
-0.4082,-0.4917,-0.088,-0.3357,-0.1542,-0.2369,0.0034,0.1056,0.0815,-0.0226,0.0839,0.057,-0.084,-0.1427,-0.2982,-0.3562,-0.3271,-0.3391,-0.2393,-0.2657,-0.2185,-0.1266,-0.0352,0.033,0.1588,0.1337,0.009,0.0629,-0.0716,-0.0001
-0.3372,-0.3074,0.046,-0.1915,-0.0353,-0.1425,0.0027,0.0982,0.0635,-0.0264,0.0122,0.0304,-0.0938,-0.0793,-0.2735,-0.2634,-0.2723,-0.2844,-0.1554,-0.1496,-0.1058,-0.0363,0.0343,0.0227,0.1641,0.1158,-0.0204,0.0387,-0.0098,0.0568
-0.2744,-0.1494,0.1404,-0.078,0.0461,-0.0641,-0.0072,0.0971,0.054,-0.0336,-0.0594,0.0041,-0.1236,-0.0554,-0.2867,-0.2093,-0.2439,-0.2489,-0.1103,-0.0774,-0.0394,0.0151,0.0714,-0.0153,0.1485,0.0836,-0.06,0.0068,0.0554,0.0842
-0.2214,-0.0224,0.1924,0.0058,0.0905,-0.0024,-0.0222,0.1017,0.0534,-0.0406,-0.1206,-0.0171,-0.1621,-0.0632,-0.3237,-0.1851,-0.2294,-0.225,-0.0953,-0.0443,-0.0145,0.0349,0.0831,-0.0675,0.1205,0.0475,-0.0991,-0.0233,0.1162,0.0842
-0.1775,0.0772,0.2079,0.0682,0.1055,0.0461,-0.0376,0.1095,0.0609,-0.0445,-0.1624,-0.0286,-0.1966,-0.0892,-0.3643,-0.1748,-0.2118,-0.201,-0.0954,-0.0375,-0.0189,0.0368,0.0815,-0.118,0.0901,0.0185,-0.1272,-0.0422,0.1668,0.0644
-0.1388,0.1589,0.1991,0.1221,0.1039,0.0875,-0.0491,0.1177,0.0744,-0.0433,-0.179,-0.0277,-0.2158,-0.1182,-0.3874,-0.1587,-0.1737,-0.1646,-0.0928,-0.0383,-0.0356,0.036,0.08,-0.1526,0.0659,0.0044,-0.1371,-0.0432,0.204,0.0358
-0.0999,0.2349,0.1812,0.1808,0.0995,0.1283,-0.0536,0.1231,0.0909,-0.0373,-0.169,-0.0139,-0.212,-0.1364,-0.3762,-0.1185,-0.1019,-0.1064,-0.0722,-0.0279,-0.0474,0.0457,0.0891,-0.1619,0.0532,0.0077,-0.1264,-0.0248,0.2282,0.0096
-0.055,0.3148,0.1683,0.2531,0.1032,0.1732,-0.0502,0.1237,0.1075,-0.0287,-0.1356,0.0104,-0.1831,-0.1348,-0.3222,-0.0423,0.0082,-0.0231,-0.0241,0.0081,-0.0413,0.0729,0.1138,-0.1435,0.0524,0.026,-0.0984,0.0092,0.242,-0.0054
-0.0002,0.4025,0.1695,0.3405,0.1204,0.2226,-0.0405,0.1186,0.1209,-0.0209,-0.0858,0.04,-0.1325,-0.1108,-0.2271,0.0717,0.151,0.0808,0.0525,0.0758,-0.0115,0.1181,0.1532,-0.1017,0.0602,0.053,-0.0607,0.0509,0.2496,-0.004
0.0664,0.4945,0.1878,0.4369,0.1507,0.2737,-0.027,0.1082,0.1283,-0.0181,-0.0292,0.0688,-0.0677,-0.0675,-0.1013,0.2155,0.3119,0.1956,0.1509,0.1715,0.0406,0.1757,0.2013,-0.0455,0.0713,0.0813,-0.0221,0.0908,0.2547,0.0159
0.1444,0.5822,0.2194,0.5308,0.1893,0.3213,-0.0128,0.0941,0.1275,-0.0228,0.0244,0.0907,0.0019,-0.0109,0.0401,0.3736,0.4717,0.3085,0.26,0.2847,0.1084,0.2377,0.2504,0.0149,0.0804,0.1053,0.0102,0.1211,0.2598,0.0535
0.2324,0.6554,0.2574,0.6099,0.2305,0.3602,0.0001,0.0787,0.1172,-0.0355,0.0666,0.1013,0.0681,0.0526,0.1811,0.5286,0.6116,0.4085,0.3679,0.4011,0.1838,0.2964,0.2933,0.0707,0.0844,0.1223,0.0319,0.1373,0.2657,0.1064
0.3282,0.7069,0.2955,0.6652,0.27,0.3874,0.0116,0.0649,0.0976,-0.0535,0.0919,0.0985,0.1252,0.1187,0.3089,0.665,0.7181,0.489,0.4654,0.5082,0.2604,0.3472,0.3257,0.1165,0.0823,0.1327,0.0433,0.1392,0.2718,0.1715
0.4295,0.7363,0.3319,0.6939,0.3067,0.4028,0.0235,0.0552,0.0704,-0.0714,0.0984,0.083,0.1713,0.1862,0.4165,0.7736,0.7858,0.5487,0.5484,0.5979,0.3352,0.3894,0.3465,0.1514,0.0755,0.1386,0.0475,0.1298,0.2776,0.2446
0.5331,0.7504,0.3695,0.7002,0.3428,0.4094,0.039,0.0517,0.0391,-0.082,0.088,0.058,0.2081,0.2566,0.5029,0.8526,0.8182,0.5916,0.6175,0.6681,0.4088,0.4256,0.358,0.178,0.0665,0.1429,0.0499,0.1141,0.2829,0.3208
0.6347,0.7615,0.4145,0.6936,0.382,0.4118,0.0615,0.0552,0.0082,-0.0781,0.0656,0.0284,0.239,0.3326,0.5719,0.9063,0.8255,0.6244,0.6769,0.7223,0.4837,0.4605,0.364,0.2007,0.0579,0.1471,0.0555,0.0967,0.2879,0.3946
0.728,0.7826,0.4713,0.6852,0.4271,0.4147,0.093,0.0642,-0.0178,-0.0549,0.0373,-0.0006,0.2676,0.415,0.6282,0.9428,0.8212,0.6544,0.732,0.7663,0.562,0.4979,0.3684,0.2238,0.0509,0.1508,0.0673,0.0809,0.2922,0.4602
0.8051,0.8226,0.5382,0.6841,0.4777,0.4205,0.1324,0.0753,-0.0359,-0.0121,0.0086,-0.025,0.2954,0.5017,0.6755,0.9694,0.8182,0.6865,0.7862,0.8051,0.6424,0.5394,0.3735,0.2492,0.0451,0.151,0.0852,0.0667,0.2939,0.5112
0.8573,0.8817,0.6055,0.6936,0.5292,0.4282,0.1747,0.0824,-0.046,0.0455,-0.0172,-0.0437,0.3202,0.586,0.7142,0.9901,0.824,0.722,0.8391,0.8402,0.7197,0.5827,0.3791,0.2752,0.038,0.1432,0.1056,0.052,0.2884,0.5422
0.877,0.9513,0.657,0.7105,0.5733,0.4335,0.2115,0.0781,-0.0509,0.1084,-0.04,-0.0583,0.3372,0.6579,0.7426,1.0039,0.8393,0.7581,0.8862,0.8687,0.7849,0.6224,0.3829,0.2972,0.0261,0.1228,0.1224,0.033,0.2699,0.5488
0.861,1.0158,0.6752,0.7269,0.6004,0.4302,0.2334,0.0559,-0.0557,0.1649,-0.0613,-0.0717,0.3403,0.7068,0.7595,1.0065,0.8583,0.7892,0.9206,0.8848,0.8283,0.6519,0.3825,0.3094,0.0072,0.0869,0.129,0.0065,0.2331,0.53
0.813,1.0586,0.6487,0.733,0.6038,0.413,0.2332,0.0119,-0.0653,0.205,-0.0825,-0.0867,0.3255,0.7251,0.7663,0.9931,0.8719,0.8098,0.9361,0.8835,0.8434,0.6664,0.3767,0.308,-0.0189,0.0365,0.1211,-0.0289,0.1761,0.4885
0.7448,1.0678,0.577,0.7227,0.5826,0.3803,0.209,-0.0529,-0.0827,0.2233,-0.1034,-0.1039,0.2934,0.7115,0.7685,0.9624,0.8724,0.8169,0.9304,0.8638,0.83,0.6649,0.3673,0.2931,-0.0486,-0.0235,0.0982,-0.0711,0.1027,0.432
0.6745,1.0408,0.4728,0.6957,0.543,0.3355,0.1651,-0.1324,-0.1081,0.2202,-0.1213,-0.1214,0.2502,0.6721,0.7739,0.9196,0.8574,0.8121,0.9067,0.8313,0.7964,0.6511,0.3587,0.2689,-0.0758,-0.0854,0.0639,-0.1159,0.0227,0.3715
0.6224,0.9861,0.3595,0.6594,0.4974,0.2873,0.111,-0.2169,-0.1392,0.201,-0.1335,-0.1362,0.2061,0.6197,0.7904,0.8765,0.8316,0.8012,0.8735,0.798,0.7574,0.6319,0.3563,0.2427,-0.094,-0.1412,0.0246,-0.158,-0.0502,0.3198
0.6054,0.9204,0.2649,0.6262,0.4612,0.2471,0.0587,-0.2959,-0.1727,0.1731,-0.1384,-0.1458,0.1728,0.5703,0.8237,0.8491,0.8059,0.7922,0.8423,0.7798,0.7312,0.6155,0.3644,0.2218,-0.098,-0.1846,-0.0127,-0.193,-0.1021,0.2878
0.6326,0.8639,0.2137,0.61,0.448,0.2258,0.0188,-0.3603,-0.2055,0.1439,-0.1368,-0.1492,0.1602,0.5397,0.8745,0.8529,0.7945,0.7926,0.8246,0.7919,0.7342,0.6086,0.3849,0.2112,-0.0863,-0.2132,-0.0416,-0.218,-0.1226,0.2827
0.7027,0.8344,0.2203,0.622,0.4667,0.2309,-0.0013,-0.4049,-0.2354,0.119,-0.1314,-0.1467,0.1746,0.5398,0.9396,0.8988,0.8105,0.8072,0.8289,0.845,0.7776,0.6157,0.4164,0.2135,-0.0606,-0.2273,-0.0574,-0.2314,-0.1089,0.306
0.8053,0.8431,0.2856,0.6682,0.5196,0.2643,0.0015,-0.4285,-0.2603,0.1025,-0.1245,-0.1386,0.2179,0.5771,1.0129,0.9904,0.8627,0.8372,0.8596,0.9429,0.8648,0.6386,0.4558,0.2285,-0.0247,-0.2298,-0.0567,-0.2315,-0.0658,0.354
0.925,0.8932,0.3974,0.7488,0.6035,0.3232,0.0272,-0.4328,-0.2775,0.0979,-0.1158,-0.1238,0.289,0.6533,1.0882,1.1233,0.9533,0.8808,0.9175,1.0818,0.9924,0.6775,0.4995,0.2552,0.0164,-0.2235,-0.037,-0.2165,-0.0044,0.4188
1.0465,0.9812,0.535,0.8594,0.7111,0.4013,0.0743,-0.4204,-0.283,0.1092,-0.1015,-0.0988,0.385,0.7661,1.1614,1.2878,1.0779,0.9342,1.0003,1.2531,1.1519,0.7326,0.545,0.2934,0.0591,-0.2104,0.0038,-0.1834,0.0619,0.4903
1.159,1.0992,0.676,0.9933,0.8342,0.4909,0.1413,-0.3939,-0.2723,0.1404,-0.0747,-0.0587,0.5025,0.9102,1.2313,1.4716,1.2262,0.9933,1.1039,1.4447,1.3327,0.8036,0.5916,0.3437,0.1008,-0.1909,0.067,-0.1292,0.1213,0.5592
1.258,1.2374,0.8021,1.1431,0.9648,0.5846,0.2263,-0.3552,-0.2422,0.1941,-0.0286,0.0014,0.6367,1.0782,1.2992,1.6626,1.3843,1.0539,1.223,1.6446,1.5237,0.8894,0.6397,0.4069,0.1399,-0.1648,0.1519,-0.0522,0.1664,0.6175
1.3438,1.3854,0.9026,1.3007,1.0952,0.6758,0.3258,-0.3065,-0.1934,0.2695,0.0401,0.083,0.7816,1.2601,1.3673,1.8497,1.5363,1.1118,1.3509,1.8411,1.7139,0.9871,0.6898,0.4826,0.1751,-0.132,0.255,0.046,0.195,0.6601
1.4184,1.5333,0.9746,1.458,1.2182,0.7594,0.4337,-0.2514,-0.131,0.3601,0.1286,0.1829,0.9281,1.4434,1.4366,2.0237,1.6668,1.1621,1.4788,2.0239,1.8929,1.0902,0.7411,0.5675,0.2047,-0.094,0.3692,0.1591,0.209,0.6843
1.4829,1.6717,1.0216,1.6064,1.3267,0.8312,0.5409,-0.1952,-0.0645,0.4543,0.2274,0.2921,1.0652,1.6141,1.5053,2.1759,1.7625,1.1993,1.5966,2.1839,2.0509,1.1894,0.7903,0.6551,0.2259,-0.0543,0.484,0.2764,0.212,0.6887
1.5359,1.7923,1.0504,1.7374,1.4139,0.8883,0.6368,-0.1439,-0.0051,0.5377,0.3227,0.3984,1.1809,1.7585,1.5678,2.2993,1.8149,1.2179,1.6937,2.3141,2.1798,1.2739,0.8326,0.737,0.236,-0.0178,0.588,0.3844,0.2079,0.6733
1.5752,1.8899,1.0696,1.8446,1.4755,0.9293,0.7118,-0.1031,0.0374,0.5966,0.3999,0.4891,1.2654,1.8664,1.6158,2.3893,1.8223,1.2133,1.7621,2.411,2.275,1.3344,0.8623,0.8048,0.2328,0.0109,0.6711,0.4701,0.1999,0.6396
1.6003,1.9639,1.0891,1.9254,1.5111,0.955,0.7607,-0.076,0.0579,0.6222,0.4484,0.5546,1.3136,1.9338,1.6414,2.4463,1.7912,1.185,1.7992,2.4763,2.337,1.3662,0.8751,0.8526,0.2159,0.0286,0.727,0.5248,0.1918,0.5911
1.6152,2.0188,1.1201,1.9831,1.5262,0.9695,0.7844,-0.0624,0.0577,0.6134,0.4644,0.5915,1.3272,1.9645,1.6413,2.4769,1.7371,1.1374,1.8096,2.5183,2.3725,1.3711,0.8701,0.8793,0.1871,0.035,0.7549,0.5454,0.1882,0.5343
1.6285,2.0642,1.1736,2.0264,1.5321,0.9798,0.7905,-0.0587,0.0442,0.5777,0.4523,0.6032,1.315,1.9694,1.6203,2.4948,1.6816,1.0814,1.8056,2.5507,2.3938,1.3585,0.8504,0.8881,0.1505,0.0321,0.7591,0.535,0.1949,0.4783
1.6521,2.1117,1.2586,2.0682,1.5437,0.9951,0.7913,-0.0588,0.029,0.5291,0.4238,0.5985,1.2909,1.9644,1.5927,2.519,1.6497,1.0334,1.8051,2.591,2.416,1.3431,0.8236,0.8861,0.1117,0.0239,0.7477,0.5018,0.2181,0.4344
1.6974,2.1731,1.3782,2.1221,1.5767,1.0253,0.8007,-0.0557,0.0243,0.4853,0.3938,0.5893,1.2712,1.9666,1.5793,2.5701,1.6646,1.0127,1.8283,2.6564,2.4542,1.3423,0.8003,0.8827,0.0769,0.0151,0.7307,0.4565,0.2622,0.4131
1.7723,2.2569,1.5268,2.1995,1.6435,1.0782,0.8306,-0.0435,0.0396,0.4625,0.3764,0.5871,1.271,1.9905,1.6025,2.6662,1.7436,1.0378,1.8929,2.7601,2.5197,1.3724,0.7927,0.8876,0.052,0.0106,0.718,0.4105,0.3275,0.4212
1.8785,2.3665,1.6887,2.3059,1.7499,1.1575,0.8871,-0.0186,0.0783,0.4718,0.3797,0.5993,1.3009,2.0451,1.6786,2.8179,1.8951,1.1211,2.0105,2.9079,2.6173,1.4446,0.8115,0.9087,0.042,0.0147,0.7176,0.374,0.4084,0.4598
2.0104,2.5,1.8398,2.4396,1.8929,1.2612,0.9692,0.0189,0.1368,0.5157,0.4039,0.6277,1.3649,2.1316,1.8126,3.0248,2.1163,1.2655,2.1834,3.0959,2.744,1.5631,0.8641,0.951,0.0502,0.0307,0.7347,0.3547,0.4939,0.5222
2.1557,2.6499,1.9525,2.5919,2.0605,1.3807,1.0687,0.0657,0.2052,0.5882,0.4407,0.668,1.4595,2.2443,1.9945,3.2749,2.394,1.4617,2.4033,3.3105,2.8891,1.7232,0.9527,1.0156,0.0779,0.0609,0.7711,0.3575,0.5691,0.5947
2.2974,2.8049,2.003,2.7479,2.2339,1.5019,1.1724,0.1162,0.2709,0.6772,0.4772,0.7117,1.5752,2.3713,2.2016,3.5452,2.7052,1.689,2.6526,3.5305,3.0368,1.9131,1.0745,1.1003,0.1245,0.1059,0.8259,0.3833,0.6182,0.659
2.4153,2.9504,1.9772,2.8893,2.3907,1.6069,1.2658,0.164,0.3219,0.7682,0.5001,0.7497,1.699,2.498,2.4026,3.805,3.0203,1.9182,2.9061,3.7299,3.1685,2.1146,1.2211,1.2005,0.1878,0.1654,0.8961,0.4305,0.6284,0.6966
2.4892,3.0698,1.8743,2.9961,2.508,1.6771,1.3361,0.2036,0.3511,0.8483,0.5007,0.7751,1.8172,2.6089,2.5637,4.02,3.3054,2.1168,3.134,3.8816,3.2653,2.306,1.3798,1.3101,0.2646,0.238,0.9776,0.4947,0.5922,0.6923
2.5003,3.1445,1.7056,3.0487,2.565,1.6949,1.374,0.231,0.3572,0.9086,0.4769,0.7847,1.9169,2.6895,2.6547,4.1562,3.5255,2.2544,3.3054,3.9599,3.3098,2.4642,1.534,1.4221,0.3514,0.3211,1.0659,0.569,0.5086,0.6375
2.4347,3.156,1.4897,3.0299,2.5462,1.6471,1.3737,0.2434,0.3437,0.9443,0.4333,0.7794,1.9866,2.7268,2.6527,4.1851,3.6487,2.3074,3.3918,3.9436,3.2878,2.5668,1.6643,1.5282,0.444,0.4107,1.1549,0.6447,0.3825,0.531
2.2855,3.0885,1.2463,2.9271,2.4425,1.5271,1.333,0.2383,0.3167,0.9541,0.3778,0.7619,2.0165,2.7104,2.5453,4.0873,3.6501,2.2627,3.3712,3.8188,3.1891,2.5949,1.7506,1.6187,0.5377,0.5007,1.237,0.7112,0.2235,0.3787
2.0543,2.932,0.9917,2.7353,2.2533,1.3369,1.2524,0.2138,0.2822,0.938,0.3191,0.7345,1.9987,2.6326,2.3313,3.8567,3.5165,2.1194,3.2326,3.5816,3.0093,2.5361,1.7757,1.6827,0.627,0.5829,1.3021,0.7571,0.0442,0.192
1.7521,2.6852,0.7363,2.4589,1.9875,1.0884,1.1353,0.1695,0.2447,0.8971,0.2638,0.6982,1.9278,2.4902,2.0216,3.5018,3.25,1.8893,2.9785,3.2399,2.7514,2.3872,1.7293,1.7088,0.7061,0.6477,1.3394,0.7727,-0.1416,-0.0142
1.3982,2.3577,0.4853,2.1123,1.6627,0.8023,0.9887,0.1079,0.2072,0.8335,0.2157,0.6526,1.8032,2.2857,1.6385,3.0459,2.8691,1.5946,2.6261,2.8135,2.4267,2.1563,1.6112,1.6879,0.769,0.6855,1.339,0.7522,-0.3203,-0.2237
1.0178,1.9687,0.241,1.7194,1.3042,0.5059,0.8234,0.0356,0.1719,0.7514,0.176,0.5971,1.6304,2.0289,1.2141,2.5235,2.407,1.2657,2.2057,2.3328,2.0547,1.8624,1.4331,1.6154,0.8107,0.6889,1.2948,0.6952,-0.4799,-0.4205
0.6394,1.546,0.0054,1.3102,0.9417,0.2282,0.6539,-0.0368,0.1407,0.6573,0.1443,0.5325,1.4221,1.737,0.7871,1.9774,1.9078,0.9367,1.7566,1.8356,1.6623,1.5335,1.2167,1.4934,0.8274,0.6544,1.2072,0.6074,-0.6111,-0.5899
0.2911,1.122,-0.2167,0.9177,0.6055,-0.0047,0.4962,-0.0971,0.1158,0.5597,0.1197,0.4616,1.1972,1.434,0.3981,1.4525,1.4198,0.641,1.3209,1.3625,1.2812,1.202,0.9894,1.3314,0.8173,0.5827,1.0831,0.4989,-0.7078,-0.7196
-0.0018,0.7304,-0.4173,0.573,0.3232,-0.174,0.3654,-0.1343,0.0985,0.4681,0.1009,0.3892,0.9774,1.1477,0.0831,0.9917,0.9887,0.4063,0.9377,0.9526,0.9444,0.8993,0.7782,1.1441,0.7802,0.479,0.935,0.3823,-0.7675,-0.8006
-0.2201,0.4018,-0.5857,0.3013,0.1155,-0.271,0.2726,-0.1416,0.0896,0.3908,0.0868,0.3211,0.7839,0.9046,-0.1313,0.6301,0.6506,0.2507,0.6365,0.6383,0.6812,0.6498,0.603,0.9489,0.7168,0.3515,0.7779,0.2694,-0.7907,-0.8282
-0.3518,0.1598,-0.71,0.1184,-0.0057,-0.2976,0.2227,-0.1185,0.0885,0.3337,0.0764,0.263,0.6323,0.7256,-0.2328,0.3913,0.4272,0.1794,0.4331,0.4405,0.5129,0.467,0.4725,0.7614,0.6281,0.2097,0.6261,0.1696,-0.7797,-0.8028
-0.3929,0.018,-0.7799,0.0295,-0.0392,-0.2651,0.2139,-0.0699,0.0945,0.2997,0.0695,0.2196,0.5306,0.6217,-0.2254,0.2838,0.3231,0.1855,0.3284,0.3661,0.4485,0.3513,0.3828,0.5929,0.5153,0.0637,0.49,0.0889,-0.738,-0.7299
-0.3476,-0.0206,-0.7898,0.0291,0.0065,-0.1909,0.2389,-0.0056,0.1066,0.2885,0.0669,0.1944,0.4783,0.5927,-0.1279,0.3015,0.3272,0.2516,0.3097,0.4077,0.4836,0.2918,0.3199,0.4491,0.3804,-0.0769,0.3753,0.0301,-0.6688,-0.6201
-0.2286,0.0356,-0.7407,0.1026,0.1148,-0.0957,0.2868,0.0635,0.1246,0.2976,0.0695,0.1891,0.4676,0.6275,0.0297,0.4242,0.4157,0.3544,0.3548,0.5451,0.6011,0.2703,0.2654,0.3302,0.2266,-0.2037,0.2828,-0.0061,-0.5756,-0.4871
-0.0562,0.1681,-0.6425,0.2286,0.2626,0.0001,0.3454,0.1273,0.1483,0.3227,0.0787,0.2037,0.4861,0.7065,0.2117,0.6216,0.5567,0.4685,0.4364,0.7485,0.7739,0.2654,0.202,0.2321,0.0601,-0.3102,0.2094,-0.0203,-0.4629,-0.3462
0.1419,0.3494,-0.5143,0.3803,0.423,0.078,0.4026,0.1783,0.1771,0.3578,0.0944,0.2359,0.5185,0.805,0.3825,0.856,0.714,0.5699,0.5263,0.9822,0.9682,0.2574,0.1179,0.1484,-0.1113,-0.3921,0.1496,-0.0142,-0.3373,-0.2122
0.3331,0.5441,-0.3825,0.5277,0.5678,0.1226,0.4474,0.2123,0.2091,0.3955,0.1149,0.2807,0.5489,0.8963,0.5115,1.0862,0.8507,0.6378,0.5979,1.2077,1.1478,0.2296,0.0083,0.0716,-0.2782,-0.4483,0.0968,0.0091,-0.2089,-0.098
0.4834,0.7123,-0.2767,0.6394,0.6696,0.1222,0.4708,0.228,0.2407,0.4279,0.1367,0.3311,0.5625,0.9552,0.5761,1.271,0.9322,0.6554,0.6276,1.3876,1.2781,0.1695,-0.1256,-0.006,-0.432,-0.4812,0.0443,0.045,-0.0906,-0.0145
0.5624,0.8148,-0.2238,0.687,0.706,0.0702,0.4661,0.2261,0.2674,0.4472,0.155,0.3787,0.5469,0.9613,0.563,1.3739,0.9298,0.611,0.5969,1.4893,1.3306,0.0693,-0.2782,-0.0906,-0.5661,-0.4961,-0.0127,0.0874,0.0029,0.0309
0.5497,0.8189,-0.2431,0.6488,0.6627,-0.0345,0.4298,0.2089,0.2848,0.4476,0.1653,0.4157,0.4944,0.9024,0.4684,1.3677,0.8251,0.4995,0.4942,1.4896,1.287,-0.0738,-0.4423,-0.1859,-0.6766,-0.4998,-0.077,0.1295,0.0578,0.0337
0.4384,0.7057,-0.3418,0.5152,0.5366,-0.1859,0.363,0.1796,0.2903,0.4264,0.1642,0.4363,0.403,0.7773,0.2977,1.2392,0.6143,0.3237,0.3177,1.3788,1.1428,-0.2567,-0.6095,-0.2917,-0.762,-0.4994,-0.148,0.1645,0.064,-0.0068
0.2378,0.4746,-0.5143,0.2909,0.3376,-0.3715,0.2708,0.1423,0.2837,0.3849,0.151,0.4375,0.2777,0.596,0.0634,0.992,0.31,0.0953,0.0765,1.1623,0.9085,-0.47,-0.7715,-0.4032,-0.8223,-0.5004,-0.222,0.1865,0.0168,-0.0874
-0.0293,0.1442,-0.7432,-0.0052,0.0867,-0.5736,0.1627,0.1014,0.267,0.3282,0.1274,0.4198,0.1297,0.3783,-0.2163,0.6462,-0.0605,-0.1662,-0.2098,0.8604,0.608,-0.6989,-0.9196,-0.5121,-0.8583,-0.506,-0.2932,0.1919,-0.0817,-0.2011
-0.3312,-0.2519,-1.0036,-0.3433,-0.1875,-0.7717,0.0504,0.0613,0.2443,0.2639,0.0973,0.3863,-0.0258,0.1496,-0.5214,0.2347,-0.4596,-0.4361,-0.5144,0.5041,0.274,-0.9251,-1.0449,-0.608,-0.8711,-0.5169,-0.3547,0.1792,-0.223,-0.3373
-0.6342,-0.672,-1.2676,-0.6892,-0.4545,-0.9459,-0.0546,0.0259,0.2195,0.2003,0.0654,0.3415,-0.1725,-0.0649,-0.8318,-0.2038,-0.8481,-0.6887,-0.8087,0.1291,-0.0582,-1.1307,-1.1399,-0.6817,-0.8629,-0.532,-0.4008,0.1496,-0.3944,-0.4829
-0.9107,-1.0761,-1.5103,-1.0109,-0.6873,-1.0805,-0.1428,-0.001,0.196,0.1441,0.0361,0.2899,-0.2967,-0.2453,-1.13,-0.6324,-1.1931,-0.9024,-1.0683,-0.2316,-0.3573,-1.3015,-1.199,-0.7281,-0.8376,-0.5506,-0.429,0.1058,-0.5808,-0.6246
-1.144,-1.433,-1.7134,-1.2848,-0.8681,-1.1663,-0.2096,-0.0169,0.1756,0.0989,0.012,0.235,-0.39,-0.3811,-1.402,-1.0229,-1.4749,-1.0639,-1.278,-0.5532,-0.6022,-1.4302,-1.2211,-0.7476,-0.8012,-0.5732,-0.4408,0.0509,-0.7684,-0.7508
-1.3305,-1.726,-1.8685,-1.499,-0.9902,-1.2019,-0.2552,-0.0207,0.1581,0.0645,-0.0062,0.1792,-0.451,-0.4723,-1.6377,-1.3593,-1.6897,-1.171,-1.4338,-0.8227,-0.7842,-1.5171,-1.2097,-0.747,-0.7615,-0.6022,-0.4417,-0.0123,-0.9458,-0.8534
-1.4781,-1.9528,-1.9765,-1.6545,-1.0587,-1.1932,-0.2848,-0.0135,0.142,0.0377,-0.0193,0.1245,-0.4842,-0.5278,-1.8316,-1.6392,-1.8487,-1.2319,-1.5428,-1.0397,-0.9073,-1.5699,-1.1738,-0.7373,-0.7268,-0.6411,-0.4397,-0.0811,-1.1057,-0.9297
-1.6016,-2.1237,-2.0474,-1.7625,-1.0881,-1.1525,-0.3065,0.0014,0.1247,0.0129,-0.029,0.073,-0.4986,-0.5618,-1.9828,-1.8704,-1.9729,-1.2629,-1.62,-1.2135,-0.9851,-1.6008,-1.126,-0.7312,-0.7042,-0.6923,-0.4429,-0.152,-1.2451,-0.9817
-1.7166,-2.2562,-2.097,-1.8407,-1.0989,-1.0962,-0.3296,0.0183,0.103,-0.0157,-0.0374,0.0276,-0.5051,-0.5894,-2.0958,-2.0664,-2.0863,-1.284,-1.6829,-1.3592,-1.0359,-1.6232,-1.0806,-0.7394,-0.697,-0.7553,-0.4567,-0.2205,-1.3646,-1.0161
-1.8349,-2.3698,-2.1443,-1.9087,-1.1128,-1.0425,-0.3626,0.0303,0.0736,-0.0535,-0.0461,-0.0088,-0.5138,-0.6231,-2.1801,-2.2408,-2.2092,-1.314,-1.7479,-1.4918,-1.0781,-1.6492,-1.0507,-0.7681,-0.7044,-0.8251,-0.4827,-0.2801,-1.4679,-1.0419
-1.9613,-2.482,-2.2071,-1.9843,-1.1485,-1.0089,-0.4118,0.0305,0.0332,-0.104,-0.057,-0.0337,-0.5326,-0.6707,-2.2494,-2.4039,-2.3536,-1.3664,-1.8262,-1.623,-1.1261,-1.6873,-1.0459,-0.8177,-0.7212,-0.8926,-0.5181,-0.3243,-1.5603,-1.0691
-2.0945,-2.6048,-2.2985,-2.0804,-1.2192,-1.01,-0.4804,0.0132,-0.0201,-0.1679,-0.0718,-0.0463,-0.5663,-0.7353,-2.3193,-2.5601,-2.5214,-1.4476,-1.9232,-1.7589,-1.1882,-1.742,-1.0713,-0.8835,-0.7398,-0.9469,-0.557,-0.3477,-1.6472,-1.1065
-2.2281,-2.7437,-2.4238,-2.2032,-1.33,-1.0551,-0.5682,-0.0238,-0.0858,-0.2431,-0.092,-0.0477,-0.6166,-0.8158,-2.4038,-2.7082,-2.7055,-1.5561,-2.0388,-1.8995,-1.2669,-1.8148,-1.127,-0.9572,-0.7526,-0.9781,-0.5928,-0.3481,-1.7324,-1.1602
-2.3542,-2.8967,-2.5796,-2.3516,-1.4772,-1.146,-0.6704,-0.0784,-0.1595,-0.3235,-0.1178,-0.0403,-0.6818,-0.9084,-2.5117,-2.8436,-2.8932,-1.6845,-2.1688,-2.0402,-1.3593,-1.9043,-1.2089,-1.0295,-0.7544,-0.9798,-0.6197,-0.3266,-1.8163,-1.232
-2.4662,-3.0559,-2.7546,-2.5174,-1.6494,-1.2762,-0.7779,-0.1434,-0.2323,-0.3997,-0.147,-0.0267,-0.7565,-1.0067,-2.6432,-2.9597,-3.069,-1.8212,-2.306,-2.174,-1.4585,-2.0063,-1.3098,-1.0919,-0.7432,-0.9505,-0.6336,-0.2879,-1.8957,-1.3192
-2.5605,-3.2089,-2.9323,-2.6867,-1.8293,-1.4312,-0.878,-0.2073,-0.2918,-0.46,-0.1746,-0.0084,-0.832,-1.1029,-2.7888,-3.051,-3.218,-1.9537,-2.4417,-2.2929,-1.5558,-2.1143,-1.42,-1.1377,-0.7201,-0.8932,-0.6322,-0.238,-1.9639,-1.4145
-2.6374,-3.3425,-3.0941,-2.843,-1.9972,-1.5913,-0.9559,-0.2567,-0.3247,-0.4923,-0.1932,0.0151,-0.897,-1.1885,-2.9315,-3.1149,-3.3296,-2.0716,-2.5671,-2.3907,-1.6424,-2.2195,-1.5293,-1.1625,-0.6881,-0.8136,-0.6141,-0.1827,-2.0131,-1.5081
-2.7001,-3.4462,-3.2223,-2.9711,-2.1353,-1.7355,-0.9985,-0.2797,-0.3197,-0.4873,-0.195,0.0463,-0.9402,-1.2555,-3.0518,-3.1532,-3.3986,-2.1686,-2.6742,-2.4645,-1.7115,-2.312,-1.6281,-1.1642,-0.6509,-0.7194,-0.5787,-0.1262,-2.0364,-1.5898
-2.7525,-3.5146,-3.3029,-3.0603,-2.2313,-1.8458,-0.9973,-0.2683,-0.2715,-0.4413,-0.1738,0.0877,-0.9525,-1.2982,-3.1342,-3.172,-3.4274,-2.2437,-2.7575,-2.5151,-1.76,-2.3827,-1.7092,-1.1429,-0.6118,-0.6181,-0.5263,-0.0713,-2.0303,-1.6522
-2.7972,-3.5486,-3.3278,-3.107,-2.2806,-1.9108,-0.951,-0.2213,-0.1823,-0.3579,-0.1279,0.1402,-0.93,-1.3144,-3.1721,-3.1805,-3.425,-2.3013,-2.8148,-2.5474,-1.7888,-2.425,-1.7689,-1.1007,-0.5736,-0.5172,-0.4584,-0.0195,-1.9964,-1.6925
-2.8346,-3.5539,-3.2961,-3.1147,-2.2865,-1.9276,-0.8664,-0.1443,-0.0624,-0.2478,-0.0612,0.2014,-0.8745,-1.3053,-3.1698,-3.189,-3.4055,-2.3489,-2.8477,-2.568,-1.8023,-2.4363,-1.8066,-1.0414,-0.5383,-0.4232,-0.3785,0.0278,-1.9409,-1.7132
-2.8626,-3.5388,-3.2147,-3.0924,-2.2584,-1.9009,-0.7572,-0.0489,0.0717,-0.127,0.0167,0.2655,-0.7938,-1.2758,-3.1423,-3.2059,-3.3844,-2.3948,-2.8606,-2.5842,-1.8065,-2.4183,-1.8252,-0.9704,-0.5073,-0.3414,-0.2919,0.0685,-1.8743,-1.7215
-2.8792,-3.5119,-3.0964,-3.0518,-2.2085,-1.8415,-0.6407,0.0495,0.2002,-0.0134,0.0924,0.3238,-0.6999,-1.2328,-3.1107,-3.2359,-3.3749,-2.4445,-2.8594,-2.6015,-1.8075,-2.377,-1.8294,-0.8939,-0.4816,-0.2758,-0.2058,0.1003,-1.8086,-1.727
-2.8838,-3.4797,-2.9583,-3.0042,-2.1492,-1.7627,-0.5347,0.1352,0.3044,0.077,0.152,0.3672,-0.6061,-1.184,-3.0976,-3.2786,-3.3846,-2.4988,-2.8498,-2.6228,-1.8099,-2.3203,-1.8248,-0.8189,-0.4619,-0.2289,-0.1284,0.12,-1.7557,-1.7385
-2.8793,-3.4456,-2.8186,-2.958,-2.0903,-1.6776,-0.4533,0.1956,0.3704,0.1333,0.1839,0.3881,-0.5243,-1.1361,-3.12,-3.3289,-3.4141,-2.553,-2.8357,-2.6475,-1.8151,-2.2569,-1.8161,-0.7522,-0.4482,-0.2019,-0.0675,0.1248,-1.7244,-1.7613
-2.8713,-3.4106,-2.6945,-2.9175,-2.0376,-1.5966,-0.404,0.2241,0.3925,0.1521,0.1826,0.3828,-0.4625,-1.0935,-3.1858,-3.3791,-3.4572,-2.598,-2.819,-2.6727,-1.8221,-2.1939,-1.8065,-0.6996,-0.4405,-0.1953,-0.0297,0.1124,-1.7187,-1.7953
-2.8671,-3.3746,-2.6003,-2.8837,-1.9931,-1.5262,-0.3875,0.2211,0.3729,0.1366,0.149,0.3528,-0.424,-1.0581,-3.2913,-3.4213,-3.5038,-2.624,-2.7998,-2.6942,-1.8277,-2.1359,-1.7965,-0.6645,-0.4384,-0.2088,-0.0191,0.0815,-1.738,-1.8349
-2.8735,-3.3382,-2.5461,-2.8556,-1.9558,-1.4694,-0.3977,0.1931,0.3207,0.0957,0.09,0.3036,-0.4073,-1.0288,-3.4225,-3.4504,-3.5437,-2.6234,-2.7778,-2.7084,-1.8281,-2.0851,-1.7846,-0.6483,-0.4412,-0.2412,-0.0368,0.0332,-1.7775,-1.8702
-2.8948,-3.3051,-2.5369,-2.8325,-1.9237,-1.4271,-0.4252,0.1501,0.2488,0.0401,0.0155,0.2438,-0.4078,-1.0038,-3.5586,-3.4657,-3.5704,-2.5944,-2.7538,-2.7139,-1.8208,-2.0419,-1.7681,-0.6493,-0.4481,-0.2899,-0.0803,-0.0291,-1.8297,-1.8904
-2.9323,-3.2821,-2.5715,-2.8161,-1.8958,-1.399,-0.4597,0.1026,0.17,-0.0203,-0.0651,0.1821,-0.4198,-0.9814,-3.6769,-3.4721,-3.5831,-2.5421,-2.7309,-2.7132,-1.8066,-2.0064,-1.7447,-0.6642,-0.4585,-0.3508,-0.1443,-0.0995,-1.887,-1.887
-2.9841,-3.2791,-2.6436,-2.8108,-1.8735,-1.3856,-0.4939,0.0593,0.0944,-0.0788,-0.1446,0.1257,-0.4388,-0.9627,-3.7578,-3.4787,-3.5873,-2.4775,-2.7148,-2.7122,-1.7904,-1.9802,-1.714,-0.6891,-0.4719,-0.4183,-0.2214,-0.1699,-1.9425,-1.8561
-3.0463,-3.3057,-2.7428,-2.8231,-1.8606,-1.3881,-0.5244,0.0253,0.0283,-0.1328,-0.2197,0.0784,-0.4629,-0.9518,-3.7888,-3.4965,-3.593,-2.4145,-2.7132,-2.7195,-1.7811,-1.9665,-1.6785,-0.7202,-0.4877,-0.4862,-0.3038,-0.2321,-1.9911,-1.7994
-3.1135,-3.3685,-2.8556,-2.859,-1.8627,-1.4083,-0.5528,0.0017,-0.0259,-0.1828,-0.2901,0.0409,-0.4928,-0.9552,-3.7664,-3.5349,-3.6108,-2.3656,-2.7334,-2.7436,-1.7896,-1.9698,-1.6435,-0.7554,-0.5054,-0.5482,-0.3844,-0.2791,-2.0287,-1.7222
-3.1788,-3.4678,-2.9674,-2.9214,-1.8845,-1.4466,-0.5832,-0.013,-0.0689,-0.2311,-0.3572,0.0107,-0.5309,-0.9803,-3.6969,-3.5978,-3.6474,-2.3384,-2.7795,-2.7899,-1.8253,-1.9944,-1.615,-0.7934,-0.5239,-0.5996,-0.4579,-0.3076,-2.0519,-1.6317
-3.2342,-3.5958,-3.063,-3.0076,-1.9277,-1.501,-0.6201,-0.0222,-0.1025,-0.2796,-0.4213,-0.0158,-0.5791,-1.0322,-3.5949,-3.6817,-3.7035,-2.3323,-2.8507,-2.8579,-1.8932,-2.0417,-1.5977,-0.8339,-0.5415,-0.6376,-0.5213,-0.3187,-2.0567,-1.534
-3.2711,-3.7383,-3.1287,-3.1091,-1.9897,-1.5658,-0.6665,-0.0297,-0.1286,-0.3284,-0.4811,-0.0414,-0.638,-1.1112,-3.4795,-3.7755,-3.7723,-2.3393,-2.9401,-2.9408,-1.991,-2.1096,-1.5929,-0.8763,-0.5555,-0.6616,-0.5734,-0.3174,-2.0396,-1.4322
-3.2828,-3.8772,-3.1552,-3.2136,-2.064,-1.6328,-0.7223,-0.0393,-0.1488,-0.3759,-0.5329,-0.0677,-0.7052,-1.2124,-3.3704,-3.8633,-3.8415,-2.3456,-3.036,-3.027,-2.1094,-2.1912,-1.5981,-0.92,-0.5627,-0.6727,-0.6145,-0.3114,-1.9984,-1.3268
-3.2658,-3.9954,-3.1403,-3.3079,-2.1412,-1.6929,-0.7849,-0.0542,-0.1647,-0.4192,-0.5728,-0.0942,-0.7765,-1.3261,-3.2835,-3.9283,-3.8965,-2.3358,-3.1241,-3.1026,-2.2343,-2.2764,-1.6076,-0.9635,-0.5592,-0.6731,-0.6456,-0.3087,-1.9341,-1.2163
-3.2225,-4.081,-3.0903,-3.3814,-2.2121,-1.7391,-0.8498,-0.077,-0.1784,-0.4557,-0.5982,-0.1195,-0.8462,-1.4403,-3.2265,-3.9579,-3.924,-2.2976,-3.1905,-3.1562,-2.3499,-2.3534,-1.6139,-1.0054,-0.5416,-0.6653,-0.6683,-0.3154,-1.8517,-1.0999
-3.1611,-4.1295,-3.0194,-3.429,-2.2694,-1.7677,-0.9114,-0.1093,-0.1924,-0.4838,-0.6099,-0.1422,-0.9089,-1.5435,-3.1984,-3.9467,-3.9149,-2.2253,-3.2245,-3.1811,-2.4428,-2.4114,-1.6101,-1.0443,-0.5083,-0.6516,-0.6843,-0.3348,-1.7603,-0.9789
-3.0943,-4.1445,-2.9475,-3.4515,-2.3091,-1.7795,-0.9635,-0.1507,-0.2087,-0.5027,-0.6115,-0.1609,-0.9599,-1.6262,-3.1903,-3.8976,-3.8663,-2.1213,-3.2203,-3.1772,-2.505,-2.4423,-1.5912,-1.0786,-0.4598,-0.6343,-0.6951,-0.3664,-1.6717,-0.8582
-3.0367,-4.1355,-2.8954,-3.4549,-2.3308,-1.7778,-0.9998,-0.1977,-0.2275,-0.5115,-0.6084,-0.1749,-0.9956,-1.683,-3.1892,-3.8214,-3.782,-1.9961,-3.1782,-3.1505,-2.5345,-2.4427,-1.5554,-1.1065,-0.3998,-0.6157,-0.702,-0.4066,-1.5978,-0.7463
-3.001,-4.1155,-2.8803,-3.4478,-2.3362,-1.7673,-1.0142,-0.2437,-0.2463,-0.508,-0.6054,-0.1832,-1.0137,-1.7123,-3.1828,-3.7335,-3.6724,-1.8657,-3.1048,-3.1115,-2.5355,-2.4144,-1.5047,-1.1258,-0.3344,-0.5979,-0.7051,-0.4499,-1.5481,-0.6545
-2.9955,-4.0963,-2.9106,-3.4387,-2.3285,-1.7521,-1.0014,-0.2799,-0.2603,-0.4889,-0.605,-0.1849,-1.0127,-1.7155,-3.1644,-3.651,-3.5522,-1.7485,-3.0116,-3.0724,-2.5164,-2.3642,-1.4441,-1.1338,-0.2705,-0.5822,-0.7034,-0.4894,-1.5275,-0.594
-3.0221,-4.0859,-2.9832,-3.4331,-2.31,-1.7335,-0.9584,-0.297,-0.2632,-0.4501,-0.6063,-0.1793,-0.992,-1.6963,-3.1347,-3.5882,-3.4381,-1.6612,-2.9134,-3.0444,-2.4873,-2.3026,-1.3808,-1.1278,-0.2145,-0.5687,-0.6944,-0.5191,-1.5349,-0.5738
-3.0761,-4.0867,-3.0831,-3.4323,-2.2823,-1.7107,-0.8853,-0.2879,-0.2496,-0.3888,-0.6063,-0.1664,-0.9523,-1.6593,-3.1019,-3.555,-3.3458,-1.6157,-2.8254,-3.0351,-2.4574,-2.2412,-1.3221,-1.1052,-0.1702,-0.5561,-0.6749,-0.5339,-1.5636,-0.5967
-3.1474,-4.0958,-3.1874,-3.4333,-2.2457,-1.6809,-0.7863,-0.2501,-0.2164,-0.3049,-0.6007,-0.1475,-0.8955,-1.6095,-3.0787,-3.5549,-3.2877,-1.6162,-2.7611,-3.0478,-2.4333,-2.1911,-1.2748,-1.0652,-0.1383,-0.5417,-0.6422,-0.5312,-1.6031,-0.6586
-3.2224,-4.107,-3.2713,-3.4307,-2.2005,-1.6408,-0.6698,-0.1865,-0.1643,-0.2026,-0.5859,-0.1252,-0.8257,-1.5517,-3.078,-3.5854,-3.2706,-1.6587,-2.7297,-3.0809,-2.4183,-2.1603,-1.2435,-1.009,-0.1175,-0.5226,-0.5951,-0.5109,-1.6412,-0.748
-3.2872,-4.1132,-3.314,-3.4187,-2.1479,-1.5888,-0.5467,-0.1049,-0.0969,-0.0899,-0.56,-0.1031,-0.7489,-1.4909,-3.108,-3.6393,-3.295,-1.7317,-2.7352,-3.129,-2.4122,-2.1533,-1.2309,-0.9407,-0.1052,-0.4968,-0.5359,-0.4757,-1.6672,-0.8486
-3.3302,-4.1082,-3.3031,-3.3937,-2.0904,-1.5257,-0.429,-0.0157,-0.0201,0.0227,-0.5229,-0.0843,-0.6726,-1.4321,-3.169,-3.7062,-3.3552,-1.8193,-2.7754,-3.1843,-2.4128,-2.1705,-1.2373,-0.8675,-0.0998,-0.4646,-0.4701,-0.4301,-1.6732,-0.943
-3.3436,-4.0879,-3.237,-3.3548,-2.0319,-1.455,-0.3271,0.0707,0.0602,0.1253,-0.4758,-0.0707,-0.6046,-1.3799,-3.2527,-3.7744,-3.4395,-1.905,-2.8426,-3.2379,-2.4165,-2.2087,-1.261,-0.7982,-0.1016,-0.4288,-0.4059,-0.3798,-1.6551,-1.0163
-3.3241,-4.0503,-3.1239,-3.3039,-1.9762,-1.3823,-0.2476,0.1471,0.1395,0.2104,-0.4195,-0.0616,-0.5513,-1.3381,-3.3443,-3.8325,-3.5327,-1.975,-2.9249,-3.2813,-2.4194,-2.2622,-1.2987,-0.7422,-0.1126,-0.3942,-0.3526,-0.3307,-1.6118,-1.0595
-3.2721,-3.9947,-2.9794,-3.2443,-1.9267,-1.3138,-0.1923,0.2103,0.2156,0.2748,-0.3548,-0.0541,-0.5166,-1.3089,-3.426,-3.8705,-3.6178,-2.0211,-3.0079,-3.3073,-2.4179,-2.3238,-1.3459,-0.7078,-0.1356,-0.3662,-0.3187,-0.2875,-1.5447,-1.0696
-3.1911,-3.9211,-2.8235,-3.1799,-1.8848,-1.2551,-0.1592,0.2607,0.2877,0.3194,-0.2825,-0.0444,-0.5017,-1.2928,-3.4812,-3.8819,-3.6797,-2.0405,-3.0778,-3.3108,-2.409,-2.3867,-1.3982,-0.7003,-0.1724,-0.3491,-0.3095,-0.2533,-1.4569,-1.0494
-3.0866,-3.831,-2.6767,-3.1137,-1.8503,-1.2098,-0.1438,0.3005,0.3551,0.3474,-0.2049,-0.0292,-0.5051,-1.2884,-3.4975,-3.8637,-3.7075,-2.0352,-3.1237,-3.2896,-2.3915,-2.4459,-1.4521,-0.7221,-0.2224,-0.3452,-0.3268,-0.2296,-1.3526,-1.005
-2.9659,-3.7266,-2.5566,-3.048,-1.8223,-1.1791,-0.1417,0.3312,0.4152,0.362,-0.1272,-0.008,-0.525,-1.2944,-3.4687,-3.8177,-3.6972,-2.0105,-3.1406,-3.2454,-2.3657,-2.4991,-1.5062,-0.7724,-0.283,-0.3547,-0.3687,-0.2171,-1.2372,-0.9432
-2.8376,-3.6117,-2.4747,-2.9843,-1.7997,-1.1621,-0.1504,0.3523,0.4632,0.3646,-0.0578,0.0158,-0.5592,-1.3096,-3.3956,-3.75,-3.6518,-1.9732,-3.1296,-3.1834,-2.3348,-2.5471,-1.5612,-0.8481,-0.3493,-0.376,-0.4308,-0.2167,-1.1164,-0.8704
-2.7114,-3.4908,-2.4338,-2.9234,-1.7819,-1.1551,-0.1699,0.3613,0.4919,0.3539,-0.0067,0.0362,-0.606,-1.3336,-3.2853,-3.6695,-3.5802,-1.9306,-3.0977,-3.1119,-2.3038,-2.5926,-1.6189,-0.9432,-0.415,-0.4058,-0.5069,-0.229,-0.9959,-0.7914
-2.5964,-3.3688,-2.427,-2.8656,-1.7689,-1.1531,-0.2011,0.3556,0.4948,0.3277,0.0167,0.0462,-0.6632,-1.3662,-3.1495,-3.5863,-3.4945,-1.8889,-3.0547,-3.0402,-2.2782,-2.638,-1.68,-1.0494,-0.4733,-0.4397,-0.5888,-0.2538,-0.8807,-0.7102
-2.4997,-3.25,-2.4395,-2.8107,-1.7609,-1.1508,-0.2445,0.3333,0.4682,0.2841,0.0071,0.0409,-0.7271,-1.4062,-3.0022,-3.5093,-3.4063,-1.8521,-3.0103,-2.9767,-2.2628,-2.6828,-1.7426,-1.1556,-0.5175,-0.4721,-0.667,-0.2892,-0.7754,-0.6298
-2.4247,-3.1383,-2.4525,-2.7585,-1.7583,-1.144,-0.2989,0.295,0.4129,0.2231,-0.0353,0.0191,-0.7918,-1.4508,-2.8576,-3.4444,-3.324,-1.8219,-2.9706,-2.9264,-2.2597,-2.723,-1.8009,-1.2489,-0.5418,-0.497,-0.7316,-0.3313,-0.684,-0.5531
-2.371,-3.0379,-2.4472,-2.7097,-1.7616,-1.1315,-0.3613,0.2432,0.3341,0.147,-0.1048,-0.0168,-0.8505,-1.4954,-2.7281,-3.3938,-3.2514,-1.7974,-2.9374,-2.8904,-2.2674,-2.7509,-1.8462,-1.317,-0.5423,-0.5094,-0.7737,-0.3749,-0.61,-0.4819
-2.335,-2.9536,-2.4097,-2.6666,-1.7716,-1.1167,-0.4279,0.1811,0.2401,0.0599,-0.192,-0.0622,-0.8973,-1.5348,-2.6232,-3.3561,-3.1879,-1.7758,-2.9081,-2.8666,-2.282,-2.758,-1.8691,-1.3509,-0.5178,-0.5063,-0.7879,-0.4151,-0.5566,-0.4169
-2.3121,-2.8901,-2.334,-2.6326,-1.7896,-1.1068,-0.4948,0.1121,0.1405,-0.0335,-0.2863,-0.1115,-0.9285,-1.5643,-2.5477,-3.3268,-3.1301,-1.7534,-2.8779,-2.8498,-2.2976,-2.7378,-1.8628,-1.3469,-0.4709,-0.4881,-0.7734,-0.4484,-0.526,-0.3578
-2.2981,-2.8509,-2.2231,-2.6114,-1.8164,-1.1112,-0.5591,0.0392,0.0442,-0.1279,-0.378,-0.1599,-0.9443,-1.581,-2.5018,-3.2995,-3.0734,-1.7268,-2.8416,-2.8341,-2.3077,-2.688,-1.825,-1.3083,-0.4081,-0.458,-0.7348,-0.4731,-0.5195,-0.3035
-2.2907,-2.836,-2.0884,-2.6047,-1.8512,-1.1378,-0.6183,-0.0349,-0.0414,-0.2178,-0.4596,-0.2036,-0.9474,-1.5834,-2.4805,-3.2666,-3.014,-1.6937,-2.7956,-2.8133,-2.3066,-2.6117,-1.7593,-1.2442,-0.3392,-0.4218,-0.6804,-0.4889,-0.5359,-0.2529
-2.2887,-2.8407,-1.9469,-2.6105,-1.8911,-1.1895,-0.6701,-0.107,-0.1115,-0.2975,-0.5265,-0.2396,-0.9418,-1.571,-2.4744,-3.221,-2.9495,-1.6546,-2.7382,-2.7819,-2.2893,-2.5162,-1.6738,-1.167,-0.2756,-0.3868,-0.621,-0.4963,-0.5718,-0.2061
-2.291,-2.8551,-1.8171,-2.6225,-1.9298,-1.2625,-0.7117,-0.173,-0.1629,-0.3608,-0.5763,-0.2651,-0.9304,-1.5432,-2.4719,-3.1567,-2.8795,-1.6128,-2.6699,-2.7355,-2.2523,-2.4111,-1.5797,-1.09,-0.2284,-0.3596,-0.5665,-0.4957,-0.6214,-0.1636
-2.2951,-2.8662,-1.7146,-2.6307,-1.9587,-1.3452,-0.7396,-0.2279,-0.194,-0.4017,-0.6078,-0.2771,-0.9133,-1.4985,-2.4603,-3.0709,-2.8052,-1.5736,-2.5921,-2.6713,-2.193,-2.306,-1.4886,-1.0235,-0.2056,-0.3447,-0.5243,-0.4864,-0.6769,-0.1266
-2.2963,-2.8604,-1.6486,-2.6233,-1.9676,-1.421,-0.7499,-0.267,-0.2048,-0.4154,-0.6204,-0.2719,-0.8877,-1.4346,-2.4283,-2.9641,-2.7292,-1.5426,-2.5072,-2.5881,-2.1104,-2.2081,-1.4101,-0.9732,-0.2104,-0.3434,-0.497,-0.4668,-0.7302,-0.0953
-2.2878,-2.8273,-1.6211,-2.5896,-1.9471,-1.4714,-0.7397,-0.287,-0.1966,-0.3997,-0.6136,-0.2462,-0.8486,-1.3494,-2.3676,-2.8407,-2.6551,-1.5239,-2.4176,-2.4868,-2.0053,-2.1219,-1.3507,-0.9391,-0.2401,-0.353,-0.4827,-0.4347,-0.774,-0.0684
-2.2627,-2.7621,-1.6285,-2.5228,-1.8911,-1.4806,-0.7081,-0.2875,-0.1724,-0.3559,-0.5876,-0.198,-0.7913,-1.2427,-2.2748,-2.7083,-2.5869,-1.5183,-2.3263,-2.3708,-1.8811,-2.0493,-1.3131,-0.917,-0.2877,-0.3683,-0.4756,-0.3888,-0.8034,-0.0433
-2.2158,-2.6664,-1.6639,-2.4223,-1.7986,-1.4396,-0.6575,-0.2715,-0.137,-0.2894,-0.544,-0.1284,-0.7143,-1.1178,-2.1532,-2.5762,-2.5286,-1.5237,-2.2371,-2.2456,-1.7443,-1.9909,-1.2974,-0.901,-0.3433,-0.3833,-0.4688,-0.3299,-0.817,-0.0171
-2.1462,-2.5483,-1.7186,-2.2945,-1.6755,-1.3492,-0.5938,-0.2451,-0.0971,-0.2098,-0.4864,-0.0423,-0.6211,-0.9828,-2.0131,-2.454,-2.4841,-1.5362,-2.1551,-2.1192,-1.6047,-1.9472,-1.3021,-0.8866,-0.3984,-0.3936,-0.4574,-0.2624,-0.8165,0.0112
-2.0596,-2.4203,-1.7832,-2.1523,-1.5343,-1.2206,-0.5263,-0.2158,-0.0602,-0.1298,-0.421,0.0503,-0.5206,-0.8498,-1.8708,-2.3503,-2.4556,-1.5519,-2.0862,-2.0006,-1.4742,-1.9198,-1.3251,-0.8734,-0.4476,-0.3986,-0.4405,-0.1945,-0.8058,0.0396
-1.9674,-2.2968,-1.8477,-2.0124,-1.3915,-1.0735,-0.4658,-0.1912,-0.0341,-0.0626,-0.3561,0.1366,-0.4261,-0.733,-1.746,-2.2707,-2.4436,-1.5685,-2.0358,-1.8982,-1.3649,-1.9107,-1.3647,-0.8656,-0.4902,-0.4016,-0.4224,-0.1374,-0.7899,0.0623
-1.8841,-2.1916,-1.9017,-1.8917,-1.2646,-0.932,-0.4219,-0.1765,-0.0244,-0.0198,-0.3005,0.2027,-0.3518,-0.6458,-1.6584,-2.2173,-2.4456,-1.5858,-2.0079,-1.8183,-1.2864,-1.9216,-1.4188,-0.8701,-0.5291,-0.4083,-0.4107,-0.103,-0.7736,0.0703
-1.8239,-2.1147,-1.9357,-1.8038,-1.1678,-0.8194,-0.4014,-0.1731,-0.0335,-0.0082,-0.2613,0.2375,-0.3092,-0.597,-1.6237,-2.1879,-2.4563,-1.6059,-2.0028,-1.7635,-1.2435,-1.9512,-1.4841,-0.8938,-0.5688,-0.4245,-0.4138,-0.1,-0.7605,0.0537
-1.7957,-2.0711,-1.9419,-1.755,-1.1086,-0.7524,-0.4055,-0.178,-0.059,-0.0276,-0.2417,0.2364,-0.3038,-0.5887,-1.6498,-2.1766,-2.4686,-1.6317,-2.0166,-1.7317,-1.2347,-1.9947,-1.5555,-0.9396,-0.6124,-0.4533,-0.4366,-0.1315,-0.7523,0.0038
-1.8015,-2.0589,-1.9156,-1.7433,-1.0858,-0.7375,-0.4294,-0.1845,-0.0933,-0.0711,-0.2402,0.2023,-0.3331,-0.6145,-1.7346,-2.1751,-2.4749,-1.6659,-2.0414,-1.717,-1.2523,-2.0437,-1.6253,-1.0042,-0.6595,-0.4932,-0.4786,-0.1927,-0.7491,-0.0834
-1.8347,-2.07,-1.8559,-1.7584,-1.09,-0.7693,-0.4632,-0.184,-0.1253,-0.1256,-0.2506,0.1463,-0.3871,-0.6617,-1.8653,-2.1735,-2.4693,-1.7096,-2.0671,-1.7107,-1.2837,-2.0867,-1.6846,-1.0772,-0.7059,-0.5387,-0.5326,-0.2719,-0.7487,-0.2059
-1.8827,-2.0912,-1.7665,-1.784,-1.1061,-0.8315,-0.494,-0.1684,-0.1423,-0.1755,-0.2638,0.0839,-0.4507,-0.7131,-2.0189,-2.1626,-2.4491,-1.7611,-2.0831,-1.7037,-1.3143,-2.1123,-1.7241,-1.1436,-0.7438,-0.5811,-0.5864,-0.3534,-0.7475,-0.3544
-1.9293,-2.1071,-1.655,-1.8021,-1.1173,-0.9015,-0.509,-0.1325,-0.1338,-0.2062,-0.2702,0.0322,-0.5074,-0.7515,-2.1662,-2.1358,-2.4147,-1.8159,-2.0807,-1.6879,-1.3304,-2.1112,-1.7365,-1.1867,-0.7643,-0.6111,-0.626,-0.4213,-0.7417,-0.5139
-1.9596,-2.1035,-1.5331,-1.7968,-1.109,-0.955,-0.4985,-0.0765,-0.0941,-0.2077,-0.2625,0.0046,-0.5431,-0.7633,-2.2763,-2.0898,-2.3698,-1.8667,-2.0544,-1.6583,-1.3221,-2.0776,-1.7174,-1.1925,-0.7595,-0.6215,-0.6392,-0.4639,-0.7282,-0.6656
-1.963,-2.0705,-1.4143,-1.7576,-1.0724,-0.9724,-0.4589,-0.0065,-0.0246,-0.1773,-0.2369,0.0083,-0.5485,-0.7402,-2.3225,-2.0252,-2.3188,-1.9053,-2.0024,-1.6131,-1.2846,-2.0106,-1.6661,-1.1529,-0.7252,-0.6088,-0.6186,-0.4763,-0.7072,-0.7908
-1.9362,-2.0046,-1.3114,-1.6816,-1.0054,-0.9421,-0.3923,0.0666,0.0657,-0.1192,-0.1946,0.0429,-0.5203,-0.6806,-2.2889,-1.9459,-2.2653,-1.9232,-1.9263,-1.5533,-1.218,-1.9131,-1.5851,-1.0667,-0.6616,-0.5742,-0.5631,-0.461,-0.6819,-0.8747
-1.8819,-1.9089,-1.2332,-1.5729,-0.9114,-0.8627,-0.3056,0.13,0.1628,-0.0435,-0.1405,0.1015,-0.4599,-0.5875,-2.1738,-1.857,-2.21,-1.9135,-1.8297,-1.4815,-1.126,-1.7903,-1.4791,-0.9402,-0.5741,-0.5225,-0.4774,-0.4258,-0.6586,-0.9095
-1.8072,-1.7915,-1.1825,-1.4403,-0.7973,-0.7413,-0.2072,0.173,0.2513,0.038,-0.0818,0.1732,-0.3714,-0.4669,-1.9909,-1.7638,-2.1499,-1.872,-1.7173,-1.4003,-1.0139,-1.6491,-1.3541,-0.7846,-0.4718,-0.4606,-0.371,-0.3808,-0.6443,-0.8958
-1.7201,-1.6633,-1.1562,-1.2946,-0.6706,-0.5908,-0.1051,0.1903,0.3186,0.1146,-0.0262,0.2465,-0.2602,-0.3258,-1.7666,-1.6696,-2.0784,-1.7983,-1.5935,-1.3118,-0.8864,-1.4961,-1.2168,-0.6144,-0.3661,-0.3955,-0.2548,-0.3346,-0.6442,-0.8419
-1.6268,-1.5342,-1.1455,-1.1459,-0.5368,-0.4266,-0.0043,0.184,0.3583,0.1793,0.0199,0.3117,-0.1317,-0.1709,-1.5342,-1.5752,-1.9877,-1.6955,-1.4619,-1.2164,-0.7473,-1.3379,-1.0738,-0.4444,-0.269,-0.3332,-0.1398,-0.2917,-0.6599,-0.7613
-1.5301,-1.4105,-1.139,-1.0009,-0.3999,-0.263,0.0927,0.1626,0.3708,0.2293,0.0524,0.3624,0.0084,-0.0089,-1.3252,-1.4791,-1.871,-1.5696,-1.3258,-1.1135,-0.5992,-1.1805,-0.9321,-0.2883,-0.1907,-0.2777,-0.0352,-0.2528,-0.6875,-0.6696
-1.4297,-1.2928,-1.1236,-0.8626,-0.2619,-0.1116,0.1851,0.1393,0.3628,0.2653,0.0697,0.3955,0.1539,0.1539,-1.1619,-1.3775,-1.7251,-1.428,-1.1879,-1.002,-0.4443,-1.0298,-0.7981,-0.1577,-0.139,-0.2317,0.0517,-0.2161,-0.718,-0.5799
-1.3228,-1.1767,-1.0876,-0.7305,-0.1245,0.0198,0.2722,0.1274,0.3438,0.2902,0.0728,0.4112,0.2966,0.3101,-1.0524,-1.266,-1.5515,-1.2788,-1.0506,-0.8809,-0.2849,-0.8909,-0.6772,-0.0609,-0.1179,-0.1972,0.1158,-0.1796,-0.739,-0.5009
-1.2059,-1.0541,-1.0215,-0.6019,0.0098,0.1275,0.3522,0.1371,0.324,0.3073,0.0653,0.4123,0.4278,0.4522,-0.9887,-1.1408,-1.357,-1.129,-0.9161,-0.7501,-0.1247,-0.768,-0.573,-0.0026,-0.1273,-0.1756,0.1543,-0.1429,-0.7365,-0.4347
-1.0765,-0.9172,-0.9204,-0.4739,0.1377,0.2115,0.4223,0.1728,0.3112,0.3199,0.0522,0.4029,0.5385,0.5731,-0.951,-0.9997,-1.1521,-0.9845,-0.7863,-0.6113,0.0312,-0.6635,-0.4873,0.0165,-0.163,-0.1679,0.1667,-0.1081,-0.6993,-0.378
-0.9343,-0.7613,-0.7859,-0.3454,0.2552,0.2746,0.4795,0.2318,0.3094,0.3302,0.0395,0.3883,0.6217,0.6672,-0.9142,-0.8433,-0.9495,-0.8497,-0.6631,-0.468,0.1768,-0.5777,-0.4201,0.0005,-0.217,-0.1738,0.155,-0.0789,-0.6214,-0.3244
-0.7824,-0.5874,-0.6269,-0.2173,0.3588,0.3218,0.5212,0.3058,0.3183,0.3398,0.0318,0.3734,0.6733,0.7313,-0.8554,-0.6757,-0.7615,-0.7273,-0.548,-0.3251,0.3059,-0.5091,-0.3704,-0.0431,-0.2794,-0.1919,0.1237,-0.0598,-0.5047,-0.2681
-0.628,-0.4033,-0.4592,-0.0936,0.4457,0.3581,0.5465,0.3823,0.3333,0.349,0.0317,0.3618,0.6929,0.765,-0.7607,-0.5041,-0.5984,-0.6179,-0.4428,-0.1891,0.4126,-0.4545,-0.3369,-0.1041,-0.3401,-0.219,0.079,-0.054,-0.3591,-0.2062
-0.4812,-0.2224,-0.303,0.0192,0.5142,0.3877,0.556,0.4482,0.3477,0.3565,0.0386,0.3551,0.6829,0.7702,-0.629,-0.3383,-0.4669,-0.5208,-0.3493,-0.0668,0.492,-0.4107,-0.3184,-0.1716,-0.3905,-0.2508,0.0277,-0.0631,-0.2016,-0.1411
-0.3544,-0.0615,-0.179,0.1124,0.5627,0.4119,0.5512,0.4923,0.3535,0.3601,0.0485,0.3529,0.6477,0.7504,-0.4713,-0.1896,-0.3696,-0.4344,-0.2697,0.0346,0.5405,-0.3752,-0.3141,-0.236,-0.4255,-0.2816,-0.0236,-0.0861,-0.0529,-0.0799
-0.259,0.0626,-0.1038,0.177,0.589,0.4294,0.5338,0.5069,0.3443,0.3558,0.0557,0.3524,0.5919,0.7092,-0.3078,-0.0688,-0.3053,-0.3584,-0.2063,0.1084,0.556,-0.3468,-0.3235,-0.2909,-0.4436,-0.3059,-0.0698,-0.1196,0.067,-0.0327
-0.2027,0.1375,-0.0844,0.2057,0.5911,0.4369,0.5043,0.4894,0.316,0.3392,0.0533,0.3493,0.5194,0.6503,-0.1623,0.0156,-0.2697,-0.2942,-0.1605,0.1503,0.5382,-0.3252,-0.3454,-0.3333,-0.4465,-0.3194,-0.1079,-0.1586,0.1429,-0.0093
-0.1869,0.1588,-0.1148,0.1957,0.5675,0.4308,0.4619,0.4411,0.2683,0.3056,0.0357,0.3387,0.4328,0.5773,-0.0546,0.06,-0.2558,-0.2445,-0.1324,0.1594,0.4898,-0.3108,-0.378,-0.3645,-0.4385,-0.3206,-0.1381,-0.1983,0.1684,-0.0155
-0.2062,0.1325,-0.1764,0.1507,0.519,0.4095,0.4046,0.3667,0.2041,0.2518,-0.0001,0.3153,0.3339,0.4942,0.0045,0.0676,-0.255,-0.2121,-0.1195,0.14,0.417,-0.3035,-0.4178,-0.3887,-0.425,-0.3117,-0.1631,-0.2354,0.147,-0.0503
-0.2486,0.0742,-0.2411,0.081,0.4494,0.3742,0.3305,0.2734,0.1287,0.1763,-0.054,0.275,0.2246,0.4062,0.0166,0.0481,-0.2582,-0.1978,-0.1168,0.1013,0.3294,-0.3024,-0.4602,-0.4119,-0.4114,-0.2989,-0.1878,-0.2695,0.0915,-0.1055
-0.2975,0.0062,-0.2793,0.0021,0.3662,0.3293,0.2389,0.1691,0.0487,0.0803,-0.122,0.2155,0.1076,0.3189,-0.0052,0.0161,-0.2571,-0.1989,-0.1178,0.0564,0.2394,-0.3052,-0.4999,-0.44,-0.4022,-0.2905,-0.2179,-0.3027,0.0206,-0.1671
-0.3344,-0.0475,-0.2679,-0.0682,0.2799,0.2822,0.132,0.0624,-0.0296,-0.0314,-0.1975,0.1377,-0.0121,0.2393,-0.04,-0.0113,-0.2452,-0.2095,-0.1153,0.0198,0.1608,-0.3089,-0.5317,-0.4766,-0.4006,-0.2948,-0.2576,-0.3384,-0.0456,-0.2187
-0.3414,-0.0656,-0.1959,-0.1128,0.2029,0.242,0.0167,-0.038,-0.1,-0.1509,-0.2715,0.0463,-0.1263,0.1754,-0.0646,-0.0174,-0.2174,-0.22,-0.1021,0.006,0.107,-0.3084,-0.5508,-0.521,-0.4072,-0.3167,-0.3078,-0.3789,-0.0894,-0.245
-0.3029,-0.032,-0.067,-0.1172,0.149,0.2194,-0.0954,-0.1233,-0.1572,-0.2666,-0.3337,-0.0492,-0.2232,0.1363,-0.0588,0.013,-0.1688,-0.2193,-0.0701,0.0274,0.0907,-0.2968,-0.5529,-0.5677,-0.4201,-0.3556,-0.3646,-0.4231,-0.0981,-0.2345
-0.2078,0.063,0.1036,-0.0709,0.1314,0.2252,-0.1886,-0.1845,-0.1959,-0.3649,-0.374,-0.1352,-0.289,0.132,-0.0082,0.0917,-0.0935,-0.196,-0.0104,0.0943,0.1222,-0.2649,-0.5333,-0.6059,-0.4347,-0.4047,-0.419,-0.4658,-0.066,-0.1811
-0.0518,0.2214,0.295,0.0316,0.1606,0.2685,-0.2461,-0.2132,-0.212,-0.4321,-0.3836,-0.1959,-0.3096,0.1716,0.0936,0.2268,0.0159,-0.1412,0.086,0.2136,0.2085,-0.2027,-0.487,-0.622,-0.4445,-0.4526,-0.4583,-0.4979,0.0063,-0.0849
0.1604,0.438,0.4864,0.1892,0.2416,0.354,-0.2538,-0.2041,-0.2026,-0.4574,-0.3577,-0.2166,-0.2746,0.2611,0.2458,0.4204,0.1661,-0.0509,0.2259,0.3871,0.3511,-0.1019,-0.4099,-0.6027,-0.4424,-0.4862,-0.4697,-0.5093,0.1122,0.0477
0.4143,0.6993,0.6618,0.3933,0.3716,0.4799,-0.2047,-0.1558,-0.1676,-0.4359,-0.2968,-0.1882,-0.1805,0.4001,0.4412,0.6669,0.3599,0.0725,0.4107,0.6098,0.5445,0.041,-0.3001,-0.5396,-0.4232,-0.4947,-0.4437,-0.4924,0.2407,0.2045
0.686,0.985,0.8124,0.6279,0.5392,0.6371,-0.1008,-0.0729,-0.1104,-0.37,-0.2076,-0.1094,-0.0327,0.5807,0.6679,0.9524,0.5935,0.2197,0.6342,0.8693,0.7751,0.2218,-0.16,-0.4317,-0.3844,-0.4729,-0.3774,-0.4445,0.3782,0.3692
0.9469,1.2704,0.937,0.8719,0.727,0.811,0.047,0.0348,-0.0374,-0.2689,-0.1025,0.0119,0.1554,0.7873,0.9109,1.2559,0.8553,0.3766,0.8819,1.1465,1.0235,0.4285,0.0034,-0.2868,-0.3279,-0.4222,-0.2755,-0.3692,0.5109,0.5242
1.1691,1.5317,1.0405,1.1034,0.9157,0.9848,0.2219,0.1538,0.0428,-0.1461,0.0037,0.1604,0.365,1.0004,1.1541,1.5528,1.1268,0.5276,1.1337,1.4194,1.2679,0.6435,0.1784,-0.1199,-0.259,-0.3498,-0.1497,-0.2755,0.6281,0.6536
1.3323,1.7502,1.1321,1.3048,1.0892,1.1436,0.4051,0.2702,0.1216,-0.0167,0.0964,0.3166,0.5756,1.2004,1.3812,1.8196,1.3864,0.6598,1.3674,1.6672,1.4885,0.8469,0.3512,0.0502,-0.1851,-0.2661,-0.0151,-0.1747,0.7236,0.7466
1.428,1.9165,1.2216,1.4658,1.2382,1.2782,0.5798,0.3721,0.1923,0.1067,0.1649,0.461,0.7693,1.3715,1.5781,2.0378,1.6132,0.7656,1.5639,1.8737,1.6712,1.0213,0.5078,0.2055,-0.114,-0.1814,0.1127,-0.0779,0.7964,0.7991
1.4609,2.0309,1.3154,1.5849,1.3599,1.3857,0.7338,0.4522,0.2511,0.2153,0.2043,0.5785,0.9324,1.5038,1.7331,2.1962,1.7901,0.844,1.71,2.0295,1.8085,1.1541,0.6364,0.3322,-0.0522,-0.1036,0.2213,0.0065,0.8501,0.8137
1.4462,2.1012,1.4119,1.6671,1.457,1.4685,0.8592,0.5075,0.2972,0.3044,0.2163,0.6599,1.0568,1.5935,1.8381,2.2911,1.9067,0.8983,1.8001,2.1316,1.8991,1.2395,0.7291,0.4225,-0.0032,-0.0367,0.3035,0.0738,0.8895,0.7978
1.4043,2.1384,1.5005,1.7198,1.5327,1.5313,0.9516,0.5389,0.3315,0.3722,0.2069,0.7033,1.1383,1.6412,1.8886,2.3248,1.9599,0.9338,1.8354,2.1818,1.9452,1.278,0.7823,0.4754,0.0322,0.0185,0.3569,0.1226,0.9184,0.7615
1.3557,2.1518,1.564,1.7493,1.5881,1.577,1.0083,0.5489,0.3552,0.4179,0.1837,0.7116,1.1763,1.6503,1.8838,2.3039,1.9536,0.9551,1.8229,2.1843,1.951,1.2749,0.7977,0.4946,0.0556,0.0633,0.3832,0.1535,0.9373,0.7136
1.3155,2.1466,1.5843,1.7582,1.6204,1.6049,1.0272,0.5408,0.3682,0.4403,0.1537,0.6913,1.1727,1.6254,1.828,2.2378,1.8977,0.9642,1.7727,2.1447,1.9206,1.2389,0.7811,0.4871,0.0696,0.099,0.3865,0.1675,0.9436,0.661
1.2915,2.1228,1.5498,1.7451,1.6239,1.6104,1.0076,0.5172,0.3692,0.4381,0.1213,0.65,1.1316,1.5721,1.7311,2.1378,1.8058,0.9609,1.6965,2.0688,1.8584,1.1802,0.742,0.4607,0.0771,0.1266,0.3719,0.1659,0.9333,0.6072
1.2837,2.0777,1.4603,1.7068,1.5927,1.5878,0.9507,0.4809,0.3563,0.4105,0.089,0.5954,1.0602,1.4969,1.6085,2.0163,1.6936,0.9447,1.6058,1.9636,1.7698,1.109,0.6918,0.4233,0.0803,0.1462,0.3447,0.1499,0.903,0.5541
1.2866,2.0089,1.3292,1.6411,1.5247,1.5333,0.8617,0.4346,0.3286,0.3593,0.0577,0.5354,0.9685,1.408,1.4799,1.8865,1.5764,0.9168,1.5113,1.8372,1.6619,1.0347,0.6425,0.3815,0.0809,0.1574,0.3102,0.1222,0.8525,0.5032
1.2916,1.9175,1.1809,1.5496,1.4231,1.4485,0.7497,0.3821,0.2877,0.2895,0.0288,0.4769,0.8687,1.3145,1.3654,1.7608,1.4676,0.8818,1.422,1.6997,1.5443,0.9652,0.6046,0.3411,0.08,0.1604,0.2735,0.087,0.786,0.4576
1.291,1.8103,1.0444,1.4392,1.2976,1.3415,0.6275,0.3283,0.2376,0.2093,0.0047,0.4264,0.7737,1.226,1.2823,1.6505,1.3783,0.8479,1.345,1.5622,1.4282,0.9067,0.5858,0.3066,0.0782,0.1561,0.2395,0.0496,0.7113,0.4224
1.2801,1.7001,0.9465,1.3218,1.1627,1.2256,0.5092,0.2785,0.1847,0.1287,-0.0114,0.3883,0.695,1.1514,1.2414,1.564,1.3165,0.8251,1.286,1.4367,1.3253,0.8634,0.59,0.2814,0.0763,0.1452,0.2116,0.0151,0.6387,0.4041
1.2587,1.6036,0.9059,1.2125,1.0351,1.1167,0.408,0.2379,0.1358,0.0573,-0.0165,0.365,0.6408,1.0973,1.2465,1.5072,1.2882,0.8228,1.2488,1.3342,1.2455,0.8377,0.6171,0.2672,0.0746,0.1282,0.1919,-0.0128,0.5792,0.4087
1.2313,1.538,0.9285,1.1267,0.9301,1.0294,0.3334,0.2106,0.0971,0.0026,-0.0091,0.3557,0.6149,1.0674,1.2942,1.4831,1.2969,0.8472,1.2355,1.2638,1.1957,0.8301,0.6636,0.2643,0.0733,0.1055,0.1807,-0.0328,0.5419,0.4397
1.2061,1.5166,1.0066,1.0766,0.8587,0.974,0.2905,0.1989,0.0727,-0.0317,0.0103,0.3572,0.616,1.0618,1.3756,1.4916,1.3434,0.8991,1.2464,1.2314,1.1785,0.8396,0.7234,0.2717,0.0723,0.077,0.1763,-0.046,0.5322,0.4959
1.193,1.544,1.1198,1.0673,0.8255,0.9542,0.2789,0.203,0.0645,-0.046,0.0383,0.3643,0.6392,1.0774,1.4777,1.5298,1.4255,0.9734,1.2791,1.2382,1.1914,0.8635,0.7889,0.2865,0.0714,0.0428,0.176,-0.0555,0.5507,0.5712
1.1999,1.6131,1.2403,1.0952,0.8273,0.966,0.2939,0.2209,0.072,-0.0435,0.0698,0.3714,0.6768,1.1082,1.5853,1.5914,1.5363,1.0594,1.328,1.2803,1.2273,0.8975,0.8516,0.3053,0.0702,0.0038,0.1766,-0.0653,0.5928,0.655
1.2303,1.7057,1.339,1.1478,0.8547,0.9995,0.3277,0.2494,0.0935,-0.0293,0.0996,0.374,0.7202,1.1465,1.6826,1.6669,1.6643,1.1437,1.3848,1.3486,1.2755,0.9358,0.9037,0.3241,0.0683,-0.038,0.1755,-0.0787,0.6494,0.7345
1.2807,1.7959,1.393,1.2066,0.8939,1.0408,0.3714,0.2848,0.1267,-0.0081,0.1242,0.3705,0.7615,1.1836,1.7546,1.7444,1.7942,1.213,1.4392,1.4299,1.3234,0.9721,0.9386,0.3395,0.066,-0.0791,0.1718,-0.0967,0.7085,0.7974
1.3404,1.8569,1.3901,1.2514,0.9302,1.076,0.4162,0.3229,0.1689,0.0163,0.1428,0.3624,0.7944,1.2119,1.7899,1.8113,1.9084,1.2581,1.4802,1.5091,1.3592,1.0001,0.9524,0.3495,0.0638,-0.1154,0.1662,-0.1179,0.7576,0.8343
1.3929,1.8673,1.3303,1.2655,0.9509,1.0937,0.4548,0.3596,0.2173,0.0415,0.1576,0.3539,0.8148,1.225,1.7832,1.8555,1.9905,1.2757,1.4984,1.571,1.3734,1.0152,0.9443,0.3531,0.063,-0.1427,0.1609,-0.1382,0.7862,0.8416
1.4204,1.8171,1.2237,1.2388,0.9475,1.0874,0.4817,0.3905,0.2681,0.0662,0.1719,0.3508,0.82,1.2189,1.7369,1.8678,2.0281,1.2691,1.4875,1.6036,1.3607,1.0147,0.9168,0.3503,0.0653,-0.1577,0.1585,-0.1524,0.7877,0.8216
1.4079,1.7088,1.0857,1.1703,0.9167,1.0564,0.4928,0.4112,0.3162,0.0887,0.1883,0.358,0.8085,1.1914,1.6612,1.8427,2.0153,1.2466,1.4454,1.599,1.3205,0.9985,0.8748,0.341,0.0726,-0.1589,0.1607,-0.1556,0.7604,0.7821
1.3484,1.5571,0.9334,1.0673,0.8603,1.0052,0.486,0.4171,0.3554,0.1067,0.2066,0.3782,0.7791,1.1427,1.5721,1.7798,1.9535,1.2189,1.3748,1.5554,1.2566,0.9689,0.8249,0.3247,0.086,-0.1465,0.1677,-0.1444,0.7082,0.7342
1.245,1.3834,0.7806,0.9432,0.7845,0.9417,0.4612,0.4053,0.3791,0.1173,0.2233,0.4111,0.7313,1.0747,1.4874,1.683,1.8507,1.1958,1.2821,1.4769,1.176,0.9299,0.7734,0.3007,0.106,-0.1224,0.178,-0.1186,0.6398,0.6898
1.1107,1.2111,0.6368,0.8136,0.6982,0.8755,0.4209,0.3754,0.3826,0.1184,0.2326,0.4534,0.6658,0.9909,1.4219,1.5598,1.7191,1.1833,1.1761,1.3722,1.0875,0.8855,0.7252,0.2681,0.132,-0.0896,0.1888,-0.0807,0.5666,0.659
0.966,1.0593,0.5057,0.6929,0.6113,0.8152,0.3705,0.3307,0.3647,0.1098,0.2285,0.5,0.5849,0.8959,1.3832,1.4197,1.5715,1.1817,1.0656,1.2533,0.9998,0.8384,0.6823,0.2265,0.1618,-0.0517,0.1966,-0.0361,0.5014,0.6473
0.8339,0.9403,0.3877,0.5913,0.5329,0.7668,0.3175,0.2782,0.3287,0.0938,0.2076,0.5451,0.4931,0.7951,1.3692,1.273,1.4189,1.1857,0.9574,1.1327,0.9198,0.789,0.6436,0.1767,0.1916,-0.0127,0.1981,0.0081,0.4554,0.6547
0.7346,0.858,0.2819,0.5146,0.4703,0.7329,0.2709,0.2276,0.2822,0.0756,0.1707,0.5835,0.3967,0.6942,1.3693,1.129,1.2686,1.1854,0.8558,1.0215,0.8517,0.7353,0.6052,0.1205,0.2162,0.0228,0.1907,0.044,0.4369,0.6758
0.681,0.8093,0.1892,0.4634,0.4281,0.713,0.2386,0.1885,0.2357,0.0617,0.1231,0.6107,0.3033,0.5987,1.3674,0.9956,1.1244,1.1699,0.7618,0.9284,0.7973,0.6739,0.5621,0.0604,0.2298,0.0496,0.172,0.0635,0.4494,0.701
0.6755,0.7855,0.1121,0.4347,0.4071,0.7039,0.2257,0.168,0.1989,0.0574,0.0728,0.6237,0.2195,0.513,1.3473,0.8783,0.9871,1.1291,0.6742,0.8578,0.7557,0.6015,0.5094,-0.0011,0.2266,0.062,0.1409,0.0596,0.4907,0.7185
0.7092,0.7751,0.0546,0.4226,0.4048,0.7002,0.2326,0.1677,0.1784,0.0653,0.0281,0.6204,0.1504,0.4399,1.2971,0.7787,0.8551,1.056,0.5897,0.8099,0.7238,0.5153,0.4436,-0.0622,0.203,0.0548,0.0964,0.0275,0.5527,0.7169
0.7641,0.7644,0.0195,0.4191,0.4152,0.6961,0.2551,0.1836,0.1753,0.0838,-0.0047,0.5995,0.0982,0.38,1.213,0.6941,0.7253,0.948,0.5039,0.78,0.6967,0.4145,0.3627,-0.1217,0.1583,0.0247,0.0393,-0.0348,0.6231,0.6872
0.8172,0.7403,0.007,0.4157,0.431,0.6863,0.2857,0.207,0.1857,0.1082,-0.023,0.5618,0.0635,0.3324,1.0994,0.6179,0.5935,0.8074,0.4123,0.7599,0.6695,0.3001,0.2668,-0.179,0.0965,-0.0277,-0.0275,-0.124,0.6873,0.6249
0.846,0.6922,0.0137,0.4052,0.4456,0.6679,0.3166,0.228,0.2022,0.1324,-0.0275,0.5106,0.0464,0.2961,0.968,0.5418,0.4564,0.6414,0.3116,0.7401,0.6383,0.176,0.1587,-0.2321,0.0259,-0.0957,-0.0981,-0.2314,0.7318,0.5311
0.835,0.6148,0.0339,0.3837,0.4562,0.6424,0.343,0.2386,0.2176,0.1517,-0.0208,0.4525,0.0478,0.2716,0.8345,0.4586,0.3132,0.463,0.2023,0.713,0.6027,0.0493,0.0444,-0.277,-0.0414,-0.1669,-0.1627,-0.3422,0.7469,0.4132
0.779,0.5101,0.0613,0.3524,0.4646,0.6154,0.3648,0.2361,0.2274,0.1651,-0.0055,0.3978,0.0709,0.2618,0.7141,0.3652,0.1672,0.2893,0.0898,0.675,0.5666,-0.0696,-0.0666,-0.307,-0.0919,-0.224,-0.2089,-0.4373,0.7291,0.2838
0.6852,0.3876,0.0918,0.3166,0.4769,0.5958,0.3875,0.2236,0.2323,0.176,0.0171,0.3588,0.1203,0.2718,0.6179,0.2638,0.0254,0.1401,-0.0163,0.6278,0.5375,-0.1676,-0.1616,-0.3139,-0.113,-0.2491,-0.2235,-0.4966,0.6818,0.1587
0.5707,0.2616,0.1253,0.2843,0.5008,0.5935,0.4196,0.2094,0.2376,0.1911,0.0478,0.3477,0.2005,0.307,0.5503,0.161,-0.1036,0.0339,-0.1038,0.577,0.524,-0.2321,-0.2274,-0.29,-0.0965,-0.2276,-0.1959,-0.503,0.6142,0.0536
0.4573,0.147,0.1652,0.2626,0.542,0.6156,0.4692,0.204,0.2517,0.2181,0.0889,0.3732,0.3135,0.3708,0.5083,0.065,-0.2121,-0.0161,-0.1625,0.5296,0.533,-0.2535,-0.2532,-0.2306,-0.0406,-0.1524,-0.1215,-0.4472,0.5387,-0.0195
0.3653,0.0549,0.2163,0.255,0.6009,0.6643,0.541,0.2166,0.2828,0.2623,0.1421,0.4378,0.4559,0.4618,0.4829,-0.0176,-0.297,-0.0051,-0.187,0.4906,0.5664,-0.2284,-0.2335,-0.1368,0.0493,-0.0271,-0.0035,-0.3311,0.4674,-0.0548
0.3064,-0.0106,0.2792,0.2598,0.6714,0.7351,0.6325,0.2523,0.3347,0.3235,0.2066,0.5349,0.6171,0.5718,0.462,-0.0846,-0.3604,0.0608,-0.1791,0.4611,0.6195,-0.1618,-0.1707,-0.0172,0.1606,0.1335,0.1453,-0.1697,0.4086,-0.0544
0.2802,-0.0532,0.3454,0.2694,0.7403,0.8168,0.7329,0.3098,0.4044,0.3944,0.2767,0.6486,0.7785,0.6856,0.4338,-0.1394,-0.4098,0.1655,-0.1486,0.4366,0.6806,-0.0668,-0.0753,0.112,0.2759,0.3044,0.3033,0.0095,0.3636,-0.0279
0.2726,-0.0845,0.3924,0.2714,0.7896,0.8933,0.8239,0.3815,0.4808,0.4598,0.3414,0.7544,0.9149,0.7818,0.3894,-0.1913,-0.4563,0.2848,-0.1113,0.4079,0.7324,0.0366,0.0353,0.2284,0.375,0.454,0.4426,0.1694,0.3261,0.0094
0.259,-0.1216,0.3846,0.2501,0.7993,0.9459,0.8823,0.4554,0.5463,0.4996,0.3857,0.8233,0.9978,0.8359,0.3243,-0.2533,-0.5121,0.3897,-0.0862,0.3624,0.7543,0.1255,0.14,0.306,0.4386,0.5492,0.5328,0.2693,0.2831,0.0389
0.2101,-0.184,0.279,0.1895,0.7514,0.9575,0.8846,0.518,0.5807,0.4925,0.3936,0.8266,1,0.8244,0.2379,-0.3395,-0.5879,0.4512,-0.0914,0.2866,0.7267,0.1779,0.218,0.3203,0.4508,0.5604,0.5469,0.2714,0.2172,0.0422
0.0989,-0.2889,0.0364,0.0763,0.6336,0.9156,0.8129,0.5585,0.5661,0.4215,0.3521,0.7423,0.9022,0.73,0.1333,-0.4617,-0.6909,0.445,-0.1408,0.1698,0.6347,0.1771,0.253,0.2527,0.4018,0.4677,0.4655,0.1488,0.1122,0.0047
-0.0919,-0.4473,-0.3671,-0.0961,0.4424,0.8156,0.6589,0.5705,0.4919,0.2781,0.2549,0.5601,0.6972,0.5458,0.0158,-0.6267,-0.8236,0.3576,-0.2405,0.0064,0.4723,0.1156,0.2364,0.0953,0.2895,0.265,0.2821,-0.109,-0.0432,-0.0819
-0.3651,-0.6608,-0.9298,-0.3254,0.1846,0.662,0.4274,0.5541,0.3582,0.0657,0.1045,0.285,0.3937,0.2784,-0.1089,-0.834,-0.9837,0.1897,-0.3883,-0.2017,0.244,-0.0038,0.1693,-0.1459,0.1211,-0.038,0.0054,-0.4919,-0.2513,-0.2172
-0.7075,-0.92,-1.6209,-0.5997,-0.1231,0.4677,0.1359,0.5148,0.1764,-0.2008,-0.0874,-0.0623,0.0158,-0.0524,-0.2362,-1.0757,-1.165,-0.0429,-0.5738,-0.4455,-0.035,-0.1681,0.0622,-0.4514,-0.0885,-0.416,-0.3417,-0.97,-0.5039,-0.3917
-1.0919,-1.2069,-2.3844,-0.8991,-0.4568,0.2517,-0.1881,0.4619,-0.0329,-0.4971,-0.3018,-0.4486,-0.4007,-0.4166,-0.3629,-1.3381,-1.3588,-0.3118,-0.7805,-0.7097,-0.3413,-0.357,-0.0672,-0.7908,-0.3182,-0.8324,-0.7251,-1.4983,-0.7837,-0.5887
