FP1,F3,F7,FC3,C3,C5,P3,P7,PO7,PO3,O1,Oz,Pz,CPz,FP2,Fz,F4,F8,FC4,FCz,Cz,C4,C6,P4,P8,PO8,PO4,O2,HEOG_left,HEOG_right
-0.4119,-1.4308,-0.9431,-1.2046,-0.804,-0.6842,-0.2897,0.0732,0.3135,-0.119,0.0951,0.0806,-0.2872,-0.6283,-0.1916,-1.3416,-1.0312,-0.7016,-1.3694,-1.1196,-0.9138,-0.9632,-0.7837,-0.5279,-0.2405,0.0084,-0.5367,-0.0306,-0.6117,-0.7593
-0.445,-1.2881,-0.8268,-1.1559,-0.8323,-0.6724,-0.2969,-0.0328,0.1996,-0.1442,0.0898,0.0787,-0.2924,-0.6413,-0.2168,-1.3544,-1.0329,-0.6754,-1.2958,-1.1632,-0.9394,-0.9252,-0.747,-0.4538,-0.1505,0.0888,-0.2812,0.0577,-0.5767,-0.6321
-0.4729,-1.1635,-0.7204,-1.1124,-0.8581,-0.6646,-0.3049,-0.1264,0.0957,-0.1688,0.0836,0.0777,-0.2956,-0.6557,-0.2389,-1.364,-1.037,-0.6527,-1.234,-1.2032,-0.963,-0.8893,-0.7103,-0.3864,-0.0719,0.1582,-0.051,0.1398,-0.5437,-0.5147
-0.4913,-1.0667,-0.6287,-1.0745,-0.8768,-0.6607,-0.3143,-0.1968,0.0103,-0.1904,0.0763,0.079,-0.2945,-0.6696,-0.2581,-1.3643,-1.0374,-0.6335,-1.1885,-1.2324,-0.98,-0.8542,-0.6713,-0.3295,-0.0127,0.208,0.132,0.2094,-0.5112,-0.4125
-0.498,-0.9987,-0.554,-1.039,-0.8834,-0.6575,-0.3247,-0.2372,-0.05,-0.2054,0.0684,0.0837,-0.287,-0.6791,-0.2737,-1.3486,-1.0261,-0.6153,-1.1567,-1.2431,-0.9847,-0.8168,-0.6266,-0.2837,0.0235,0.2335,0.2552,0.2617,-0.4767,-0.3273
-0.4925,-0.9513,-0.4954,-0.9998,-0.8725,-0.6495,-0.3349,-0.2455,-0.0824,-0.2099,0.0611,0.0928,-0.2717,-0.679,-0.2843,-1.3101,-0.9947,-0.5931,-1.1294,-1.2278,-0.9709,-0.7727,-0.5729,-0.2473,0.0383,0.2344,0.3162,0.2935,-0.4379,-0.2573
-0.4755,-0.9102,-0.4501,-0.9489,-0.8405,-0.6303,-0.3434,-0.2244,-0.0872,-0.2005,0.0555,0.1065,-0.2485,-0.6638,-0.2888,-1.2441,-0.9355,-0.5612,-1.0942,-1.1811,-0.9337,-0.7177,-0.5073,-0.2168,0.0368,0.2141,0.3213,0.3037,-0.3935,-0.1987
-0.4492,-0.8602,-0.4138,-0.8798,-0.7863,-0.5956,-0.3492,-0.1809,-0.0687,-0.176,0.0522,0.1236,-0.2188,-0.6297,-0.2864,-1.1495,-0.8446,-0.5153,-1.0391,-1.1013,-0.8709,-0.6492,-0.4297,-0.1885,0.026,0.1781,0.2827,0.2922,-0.344,-0.147
-0.4164,-0.7903,-0.3828,-0.7895,-0.7129,-0.5444,-0.352,-0.1245,-0.0341,-0.138,0.0512,0.1416,-0.1852,-0.5755,-0.2777,-1.03,-0.7231,-0.4543,-0.957,-0.9911,-0.7842,-0.5679,-0.3429,-0.1598,0.0125,0.1326,0.2145,0.2605,-0.2915,-0.0993
-0.3798,-0.6969,-0.3534,-0.6795,-0.6265,-0.4794,-0.3523,-0.0653,0.0076,-0.0907,0.0514,0.157,-0.151,-0.5031,-0.2638,-0.8931,-0.5777,-0.3806,-0.8474,-0.858,-0.6788,-0.4774,-0.2524,-0.1299,0.0015,0.0833,0.1306,0.211,-0.2394,-0.0542
-0.3415,-0.5837,-0.323,-0.5556,-0.5347,-0.4053,-0.35,-0.0115,0.048,-0.0403,0.0512,0.166,-0.1195,-0.4171,-0.2457,-0.7487,-0.4199,-0.2996,-0.716,-0.7119,-0.5628,-0.3835,-0.1652,-0.0993,-0.0042,0.0348,0.0425,0.1475,-0.1911,-0.0127
-0.3028,-0.4596,-0.2897,-0.426,-0.4451,-0.3266,-0.3445,0.0316,0.0807,0.0067,0.0494,0.1658,-0.0925,-0.3235,-0.2234,-0.6072,-0.2643,-0.2181,-0.5727,-0.5641,-0.4452,-0.2931,-0.0882,-0.0692,-0.0038,-0.009,-0.041,0.0755,-0.149,0.0232
-0.2642,-0.3358,-0.2524,-0.2996,-0.3634,-0.2469,-0.3333,0.0623,0.1025,0.0445,0.0453,0.1548,-0.0706,-0.2289,-0.1949,-0.4766,-0.1262,-0.1428,-0.4292,-0.4245,-0.3342,-0.2127,-0.0265,-0.0414,0.0017,-0.0453,-0.1135,0.0017,-0.1148,0.0512
-0.2258,-0.2226,-0.2111,-0.1846,-0.293,-0.169,-0.3138,0.0815,0.113,0.0694,0.0385,0.1332,-0.0527,-0.1392,-0.1576,-0.3625,-0.019,-0.0788,-0.2959,-0.301,-0.2364,-0.1473,0.0168,-0.0176,0.0099,-0.0721,-0.1706,-0.0669,-0.089,0.0687
-0.1874,-0.1274,-0.1674,-0.0873,-0.2352,-0.0958,-0.2838,0.0917,0.1143,0.0798,0.0293,0.1025,-0.0372,-0.0599,-0.1097,-0.267,0.0483,-0.0291,-0.1805,-0.1983,-0.1557,-0.0997,0.0413,0.0006,0.0178,-0.088,-0.2088,-0.1242,-0.0716,0.0739
-0.1488,-0.0538,-0.1235,-0.0121,-0.19,-0.0309,-0.2428,0.0954,0.1089,0.0762,0.0173,0.0652,-0.0225,0.005,-0.0522,-0.1896,0.0735,0.0052,-0.0867,-0.1184,-0.094,-0.0703,0.0487,0.0123,0.023,-0.0927,-0.2259,-0.1657,-0.0617,0.0663
-0.1094,-0.0014,-0.0821,0.0396,-0.1561,0.0219,-0.1926,0.0944,0.0992,0.0611,0.0023,0.0245,-0.0076,0.0531,0.0098,-0.1275,0.0617,0.0251,-0.0143,-0.0601,-0.0507,-0.057,0.0424,0.0171,0.0241,-0.0865,-0.2205,-0.1894,-0.0577,0.0472
-0.0686,0.0333,-0.0449,0.0689,-0.132,0.0592,-0.137,0.0895,0.0865,0.0381,-0.0164,-0.0165,0.0075,0.0837,0.0675,-0.0767,0.025,0.0327,0.0398,-0.0201,-0.0233,-0.0553,0.0271,0.016,0.0214,-0.0704,-0.1927,-0.1957,-0.057,0.02
-0.0255,0.0554,-0.0124,0.0794,-0.1155,0.0796,-0.0809,0.0809,0.0706,0.011,-0.0393,-0.0547,0.0217,0.0981,0.1104,-0.033,-0.0213,0.0311,0.0799,0.0065,-0.0079,-0.0598,0.0076,0.0108,0.0165,-0.0461,-0.1447,-0.1867,-0.0565,-0.0101
0.0204,0.0699,0.016,0.076,-0.1047,0.0842,-0.0297,0.0686,0.0511,-0.0166,-0.0663,-0.0873,0.0331,0.0989,0.129,0.0068,-0.0619,0.0225,0.11,0.0247,-0.0007,-0.0654,-0.0124,0.0034,0.0119,-0.0159,-0.0814,-0.1653,-0.0532,-0.0379
0.0684,0.0801,0.0405,0.0638,-0.0981,0.0763,0.012,0.0528,0.027,-0.0426,-0.0964,-0.1125,0.0385,0.0889,0.1177,0.0441,-0.0865,0.0087,0.1319,0.0381,0.0015,-0.0688,-0.0311,-0.0046,0.0094,0.0171,-0.0098,-0.1348,-0.0453,-0.0601
0.1163,0.0861,0.0605,0.0464,-0.0954,0.06,0.0407,0.0339,-0.0015,-0.0661,-0.1276,-0.1293,0.0347,0.0707,0.0762,0.0774,-0.0916,-0.01,0.1455,0.048,-0.0002,-0.0696,-0.0491,-0.0135,0.0094,0.0491,0.061,-0.0986,-0.0335,-0.0768
0.1595,0.0852,0.0737,0.0256,-0.0972,0.0393,0.0545,0.0131,-0.0334,-0.0876,-0.1568,-0.1378,0.0187,0.0458,0.0108,0.1033,-0.0811,-0.0335,0.1497,0.0533,-0.0061,-0.0696,-0.0681,-0.0245,0.0105,0.0764,0.1214,-0.0598,-0.0209,-0.0916
0.1909,0.0734,0.0767,0.0017,-0.1045,0.0173,0.0533,-0.0081,-0.066,-0.108,-0.1806,-0.1389,-0.0106,0.0152,-0.0666,0.1174,-0.0639,-0.0612,0.1445,0.0517,-0.0181,-0.0721,-0.0902,-0.0402,0.0102,0.0956,0.1623,-0.0213,-0.0118,-0.1103
0.2026,0.0478,0.0672,-0.0248,-0.1176,-0.0032,0.0395,-0.0278,-0.096,-0.1282,-0.196,-0.1347,-0.0523,-0.0204,-0.1404,0.1166,-0.0502,-0.0908,0.132,0.0411,-0.0375,-0.0796,-0.1161,-0.0626,0.0054,0.104,0.1767,0.0135,-0.0101,-0.138
0.1877,0.0089,0.0459,-0.0521,-0.1351,-0.0199,0.0167,-0.0443,-0.1201,-0.148,-0.2016,-0.1275,-0.103,-0.0593,-0.1958,0.101,-0.0469,-0.1185,0.1172,0.0217,-0.064,-0.0928,-0.1443,-0.0926,-0.0061,0.1005,0.1607,0.041,-0.0172,-0.1765
0.1442,-0.0378,0.0173,-0.0766,-0.1532,-0.0305,-0.0094,-0.0565,-0.136,-0.166,-0.1977,-0.1201,-0.1569,-0.0987,-0.2229,0.0748,-0.0548,-0.1394,0.1072,-0.0034,-0.0945,-0.1091,-0.1706,-0.1288,-0.0249,0.0848,0.114,0.0577,-0.0306,-0.2228
0.0767,-0.0828,-0.011,-0.0929,-0.1669,-0.0334,-0.0327,-0.0643,-0.1431,-0.1797,-0.1865,-0.1147,-0.2068,-0.1343,-0.2198,0.0461,-0.068,-0.1487,0.1099,-0.0281,-0.1237,-0.1236,-0.1892,-0.1674,-0.0502,0.0579,0.0403,0.0611,-0.0448,-0.2695
-0.0034,-0.1144,-0.0304,-0.0951,-0.1706,-0.0276,-0.0475,-0.0681,-0.1426,-0.1859,-0.1712,-0.1126,-0.2458,-0.1613,-0.1932,0.0248,-0.0759,-0.1436,0.1311,-0.0447,-0.1446,-0.1295,-0.1942,-0.2033,-0.0797,0.0216,-0.0533,0.0499,-0.053,-0.3071
-0.0807,-0.1218,-0.0342,-0.0789,-0.1599,-0.0132,-0.0496,-0.0692,-0.1369,-0.1818,-0.1552,-0.114,-0.2681,-0.1753,-0.1551,0.0203,-0.0674,-0.1238,0.172,-0.0457,-0.1504,-0.1212,-0.182,-0.2312,-0.1106,-0.022,-0.1572,0.0245,-0.0496,-0.3273
-0.1403,-0.0977,-0.0193,-0.0424,-0.1324,0.0088,-0.0377,-0.069,-0.1292,-0.1656,-0.1409,-0.1182,-0.271,-0.1735,-0.1183,0.039,-0.0352,-0.0917,0.2284,-0.0265,-0.1368,-0.0957,-0.1528,-0.2468,-0.1405,-0.0703,-0.2606,-0.0125,-0.032,-0.3249
-0.1719,-0.0408,0.0128,0.0132,-0.0884,0.0375,-0.0135,-0.0687,-0.1223,-0.1373,-0.1295,-0.1238,-0.2548,-0.1553,-0.0921,0.0821,0.0216,-0.0519,0.2907,0.0142,-0.1025,-0.0541,-0.1112,-0.2485,-0.1674,-0.121,-0.3523,-0.0572,-0.0014,-0.2996
-0.1717,0.0449,0.0573,0.0838,-0.03,0.0718,0.0185,-0.0692,-0.118,-0.0989,-0.1207,-0.1293,-0.2228,-0.1227,-0.079,0.1463,0.0966,-0.0101,0.3463,0.074,-0.0495,-0.0011,-0.0649,-0.2367,-0.1901,-0.1711,-0.4229,-0.1048,0.0378,-0.2557
-0.1419,0.1497,0.1075,0.1634,0.0393,0.111,0.0522,-0.0703,-0.1165,-0.0537,-0.1131,-0.1333,-0.18,-0.0792,-0.0761,0.2245,0.1784,0.0284,0.3833,0.1473,0.0173,0.0564,-0.0221,-0.2142,-0.2078,-0.2174,-0.4652,-0.1505,0.0794,-0.201
-0.0882,0.2607,0.1569,0.2449,0.1155,0.1539,0.0821,-0.0712,-0.1163,-0.0058,-0.1042,-0.1346,-0.1319,-0.029,-0.0761,0.3077,0.2542,0.0601,0.3935,0.2273,0.0919,0.1114,0.0111,-0.184,-0.2193,-0.2562,-0.4753,-0.1896,0.1168,-0.1448
-0.0177,0.364,0.2004,0.3217,0.1951,0.1985,0.1042,-0.0702,-0.1144,0.0409,-0.0917,-0.1321,-0.0829,0.0243,-0.0706,0.3873,0.3128,0.0838,0.3749,0.3075,0.1687,0.1591,0.0332,-0.1487,-0.2233,-0.2838,-0.4532,-0.2186,0.1455,-0.0956
0.0632,0.4472,0.2355,0.3882,0.2759,0.2426,0.118,-0.0651,-0.1075,0.0835,-0.0733,-0.1251,-0.0356,0.0785,-0.0523,0.4567,0.3478,0.1012,0.3325,0.3825,0.2439,0.1984,0.0473,-0.1093,-0.2182,-0.2968,-0.4023,-0.2348,0.1634,-0.0585
0.1495,0.5022,0.2623,0.4411,0.3567,0.2835,0.126,-0.0534,-0.0927,0.1203,-0.0477,-0.113,0.0094,0.1331,-0.0168,0.5126,0.3588,0.1162,0.2776,0.4496,0.3157,0.2315,0.0608,-0.065,-0.2026,-0.2933,-0.3289,-0.2369,0.1716,-0.0337
0.2373,0.5271,0.2831,0.4795,0.4375,0.3192,0.1331,-0.0336,-0.0685,0.1505,-0.0151,-0.0958,0.0531,0.1889,0.0365,0.5554,0.3513,0.1341,0.2254,0.508,0.3844,0.2635,0.0824,-0.0142,-0.176,-0.273,-0.2409,-0.2247,0.174,-0.0161
0.3241,0.5264,0.3015,0.5054,0.5186,0.3481,0.1448,-0.0052,-0.0361,0.1744,0.0226,-0.0743,0.0975,0.2472,0.1042,0.589,0.3355,0.1599,0.1924,0.5598,0.4516,0.3008,0.1201,0.0453,-0.1384,-0.2378,-0.1465,-0.1996,0.1761,0.0031
0.4076,0.5103,0.3212,0.5231,0.6003,0.37,0.1662,0.0306,0.0011,0.1922,0.0618,-0.0501,0.1445,0.3095,0.1799,0.6199,0.3244,0.198,0.1924,0.6088,0.5199,0.3493,0.1791,0.1143,-0.0912,-0.1911,-0.0526,-0.1636,0.1839,0.0348
0.4845,0.4925,0.3451,0.5391,0.6825,0.3856,0.2005,0.0709,0.0381,0.2047,0.0982,-0.0249,0.1965,0.377,0.2566,0.6564,0.3309,0.2511,0.2349,0.66,0.5919,0.4133,0.2604,0.1926,-0.036,-0.1371,0.0357,-0.1198,0.2024,0.0888
0.5511,0.4877,0.3754,0.561,0.7646,0.3978,0.2491,0.1122,0.0701,0.213,0.1284,0.0002,0.2553,0.4504,0.3282,0.7065,0.3657,0.3206,0.323,0.7193,0.6703,0.4951,0.3612,0.2785,0.0255,-0.0799,0.1163,-0.071,0.2347,0.1715
0.6023,0.5087,0.4131,0.5965,0.8461,0.4112,0.3114,0.1505,0.0938,0.2189,0.151,0.025,0.3222,0.5302,0.3916,0.7765,0.4353,0.4063,0.4535,0.7917,0.757,0.5947,0.4762,0.3697,0.092,-0.0228,0.1896,-0.0197,0.2818,0.2842
0.6338,0.5643,0.459,0.6517,0.9264,0.4318,0.3852,0.1828,0.1084,0.2251,0.1671,0.0508,0.3978,0.6165,0.4464,0.8691,0.5402,0.506,0.6171,0.8805,0.8528,0.7094,0.5981,0.4632,0.1626,0.0326,0.2578,0.0323,0.3422,0.4222
0.6433,0.6576,0.5124,0.7296,1.0042,0.4656,0.4662,0.2069,0.1161,0.2342,0.1802,0.0799,0.4806,0.7078,0.4931,0.9821,0.6746,0.6154,0.8,0.985,0.9561,0.8335,0.7182,0.5551,0.2355,0.085,0.3232,0.0839,0.4121,0.5744
0.6312,0.7846,0.5713,0.8284,1.077,0.5162,0.5476,0.2212,0.1208,0.2479,0.1948,0.1141,0.5661,0.8003,0.5308,1.1071,0.8263,0.7263,0.9852,1.0995,1.0616,0.9575,0.8267,0.6404,0.3073,0.1335,0.387,0.1336,0.4849,0.7244
0.6013,0.9344,0.6316,0.9404,1.1397,0.5823,0.6206,0.2253,0.1266,0.2658,0.2145,0.1532,0.6468,0.887,0.5561,1.2303,0.9778,0.8272,1.1535,1.2127,1.1602,1.0684,0.9125,0.7123,0.372,0.1758,0.4469,0.1786,0.5515,0.8522
0.5581,1.0904,0.6868,1.0525,1.1842,0.6562,0.6749,0.2188,0.1362,0.2848,0.2406,0.1947,0.7123,0.958,0.5636,1.3339,1.1089,0.9047,1.2857,1.3089,1.239,1.1508,0.9644,0.7625,0.4212,0.208,0.4977,0.215,0.6008,0.9374
0.5059,1.2323,0.7276,1.1478,1.2008,0.7241,0.7002,0.2021,0.1496,0.299,0.271,0.2333,0.7512,1.0021,0.548,1.3996,1.1994,0.9451,1.3647,1.3705,1.284,1.1895,0.9722,0.7826,0.4452,0.225,0.5315,0.2377,0.6214,0.9623
0.448,1.3383,0.7427,1.2087,1.1796,0.7679,0.6879,0.1755,0.1639,0.301,0.3008,0.262,0.7531,1.0091,0.507,1.4115,1.2312,0.9382,1.3774,1.3817,1.283,1.1729,0.9288,0.7657,0.4357,0.2213,0.5399,0.2416,0.6035,0.9152
0.3879,1.3891,0.7201,1.2203,1.114,0.7696,0.6331,0.1403,0.1744,0.284,0.3229,0.2738,0.712,0.9727,0.4443,1.3604,1.1915,0.8792,1.3173,1.3327,1.229,1.0964,0.8329,0.7092,0.3879,0.1925,0.5163,0.2227,0.5412,0.7923
0.3324,1.3699,0.6509,1.1741,1.0044,0.7163,0.5372,0.0985,0.1768,0.2444,0.3308,0.2642,0.6285,0.8941,0.3708,1.2462,1.0741,0.771,1.1869,1.2236,1.1239,0.9652,0.6906,0.6163,0.303,0.1373,0.4588,0.1796,0.4343,0.5998
0.2932,1.275,0.5332,1.0713,0.8609,0.6061,0.4093,0.0542,0.1689,0.1846,0.3207,0.2329,0.5121,0.7836,0.3048,1.0802,0.8819,0.6256,0.9996,1.0671,0.9811,0.796,0.5165,0.4982,0.19,0.0592,0.3721,0.1153,0.2898,0.3539
0.2882,1.1101,0.3768,0.9252,0.7057,0.4512,0.2673,0.0135,0.1525,0.1141,0.2942,0.1857,0.3821,0.6623,0.2688,0.8857,0.6297,0.4639,0.7814,0.8892,0.8261,0.6169,0.3341,0.374,0.0656,-0.0321,0.2689,0.0379,0.122,0.0806
0.3381,0.8949,0.2048,0.7612,0.5711,0.2787,0.1366,-0.0149,0.1344,0.0496,0.2594,0.1339,0.2663,0.5597,0.2857,0.697,0.3457,0.314,0.5696,0.7278,0.6945,0.4642,0.1744,0.2698,-0.0471,-0.1213,0.1688,-0.0397,-0.0487,-0.1866
0.4618,0.6634,0.0514,0.615,0.4957,0.1277,0.0469,-0.0212,0.1247,0.0117,0.2295,0.0935,0.1964,0.5099,0.3716,0.5548,0.0711,0.2079,0.4089,0.627,0.6266,0.3776,0.0715,0.2139,-0.1231,-0.1891,0.0953,-0.1017,-0.1994,-0.4111
0.6692,0.4599,-0.0443,0.5269,0.5157,0.0414,0.0262,0.0034,0.1347,0.0204,0.2199,0.0804,0.2021,0.5446,0.5299,0.5005,-0.1429,0.1755,0.3446,0.629,0.6595,0.3927,0.0564,0.2317,-0.1418,-0.2171,0.0706,-0.1325,-0.3085,-0.56
0.9545,0.3334,-0.0474,0.5341,0.6566,0.0577,0.0938,0.0633,0.1733,0.0891,0.2441,0.107,0.3032,0.6846,0.7465,0.5677,-0.2427,0.2387,0.4135,0.7649,0.8179,0.5319,0.1508,0.3385,-0.0926,-0.1925,0.1093,-0.1214,-0.361,-0.6105
1.2929,0.3285,0.0641,0.6624,0.9252,0.1996,0.2553,0.157,0.2439,0.2204,0.3093,0.1781,0.5041,0.9338,0.9897,0.7754,-0.182,0.4052,0.6352,1.0462,1.1065,0.7991,0.3599,0.5347,0.0209,-0.1122,0.2143,-0.065,-0.3515,-0.5554
1.6425,0.4766,0.2935,0.9198,1.3061,0.4686,0.5006,0.2765,0.3435,0.4053,0.415,0.29,0.7913,1.2765,1.217,1.1227,0.0674,0.6667,1.0058,1.461,1.5066,1.176,0.6704,0.8043,0.181,0.0164,0.3748,0.0319,-0.2853,-0.4041
1.9509,0.7888,0.623,1.2934,1.7637,0.8425,0.8058,0.4089,0.4634,0.6252,0.5533,0.4315,1.1358,1.6794,1.3857,1.5875,0.5059,0.999,1.496,1.9744,1.9791,1.624,1.0502,1.1175,0.3613,0.1772,0.5701,0.1581,-0.1769,-0.1806
2.1666,1.2512,1.0167,1.7504,2.2477,1.278,1.1382,0.5389,0.5913,0.8563,0.7115,0.5873,1.4984,2.0973,1.4661,2.1285,1.0996,1.3662,2.0543,2.5339,2.4703,2.0904,1.4531,1.4366,0.5329,0.3498,0.7737,0.2989,-0.0465,0.0822
2.2509,1.8237,1.4253,2.2417,2.7018,1.7174,1.4619,0.6515,0.7128,1.0745,0.8742,0.7405,1.8366,2.4811,1.4505,2.6904,1.7812,1.7258,2.6137,3.0775,2.9215,2.5159,1.8252,1.7225,0.6719,0.5136,0.9593,0.4394,0.0844,0.3485
2.1874,2.4435,1.795,2.7088,3.0721,2.0985,1.7426,0.7338,0.8142,1.2585,1.0258,0.8755,2.1115,2.7852,1.3537,3.2105,2.4591,2.0353,3.1027,3.5423,3.278,2.8447,2.1148,1.9418,0.7635,0.652,1.105,0.5661,0.1967,0.5857
1.9859,3.0338,2.0761,3.0928,3.3151,2.3664,1.9519,0.7764,0.8835,1.3922,1.1519,0.9798,2.2932,2.9741,1.207,3.6281,3.0349,2.2583,3.4572,3.8742,3.4972,3.0337,2.2816,2.0717,0.8045,0.7542,1.1962,0.6688,0.2772,0.7689
1.6797,3.5156,2.2319,3.343,3.4034,2.4825,2.0693,0.7739,0.9122,1.4651,1.2413,1.0454,2.3641,3.0271,1.0464,3.8929,3.423,2.3694,3.6312,4.0345,3.5545,3.0595,2.3047,2.1032,0.8023,0.8171,1.227,0.7415,0.319,0.8838
1.318,3.8217,2.2443,3.425,3.329,2.4324,2.0838,0.7249,0.8957,1.4722,1.2858,1.0689,2.3202,2.9397,0.9011,3.9728,3.5685,2.3578,3.6045,4.0053,3.4449,2.9215,2.1865,2.0408,0.7719,0.8442,1.1994,0.7819,0.3222,0.9273
0.9546,3.9091,2.1167,3.3271,3.1025,2.2265,1.994,0.6319,0.8338,1.4129,1.2815,1.0513,2.1703,2.7228,0.7867,3.8583,3.457,2.2281,3.3843,3.7907,3.1828,2.641,1.9507,1.9003,0.7316,0.8436,1.1224,0.7917,0.292,0.9073
0.6363,3.7679,1.8721,3.0618,2.7509,1.8977,1.8085,0.5011,0.7306,1.2919,1.2288,0.9974,1.9334,2.4009,0.7041,3.5643,3.1157,1.9991,3.003,3.4162,2.7989,2.2568,1.6369,1.7051,0.6985,0.8259,1.0094,0.7748,0.2373,0.8402
0.3938,3.4242,1.5485,2.6653,2.3139,1.4945,1.5455,0.3424,0.5943,1.1187,1.1323,0.9147,1.6363,2.0086,0.6432,3.1279,2.6066,1.7012,2.5124,2.9248,2.3354,1.8182,1.2933,1.4818,0.685,0.8009,0.8759,0.7366,0.1687,0.7479
0.2368,2.9363,1.1912,2.1919,1.8378,1.0721,1.2313,0.1694,0.437,0.9086,1.0017,0.8129,1.3098,1.5864,0.5888,2.603,2.0141,1.3727,1.9758,2.3711,1.841,1.3785,0.9681,1.2573,0.6962,0.776,0.7373,0.6836,0.0973,0.6534
0.1557,2.3832,0.8454,1.7054,1.3705,0.6839,0.8984,-0.0016,0.2736,0.6818,0.8505,0.7034,0.9862,1.177,0.5261,2.0527,1.4302,1.054,1.4589,1.8141,1.365,0.9873,0.7024,1.0552,0.7297,0.7554,0.6073,0.6225,0.0336,0.577
0.1283,1.8495,0.5484,1.2682,0.9558,0.3729,0.5815,-0.1534,0.1205,0.4615,0.6956,0.5984,0.6957,0.8202,0.4454,1.5394,0.9378,0.7817,1.0202,1.3095,0.9519,0.6844,0.5242,0.8945,0.7766,0.7402,0.4972,0.5599,-0.014,0.5318
0.1292,1.4082,0.3253,0.9308,0.6276,0.1662,0.313,-0.2701,-0.0072,0.271,0.5544,0.5094,0.4639,0.5486,0.3444,1.1153,0.5964,0.5829,0.703,0.9027,0.6366,0.495,0.4448,0.7871,0.8239,0.7286,0.4154,0.5025,-0.0401,0.5208
0.1384,1.1072,0.1866,0.7235,0.4067,0.0714,0.1184,-0.3405,-0.097,0.1302,0.4435,0.4463,0.3093,0.384,0.2307,0.8147,0.4328,0.4715,0.5292,0.6231,0.4411,0.427,0.4577,0.7378,0.8576,0.7179,0.3667,0.4565,-0.0436,0.537
0.1468,0.9621,0.13,0.6523,0.2992,0.0776,0.0131,-0.3588,-0.1409,0.0532,0.376,0.4165,0.2419,0.3355,0.1202,0.6506,0.4383,0.4467,0.4979,0.482,0.373,0.4713,0.542,0.7446,0.8655,0.7052,0.3532,0.4277,-0.0274,0.5653
0.1569,0.9575,0.1435,0.7011,0.2975,0.1595,0.0005,-0.3262,-0.1359,0.0466,0.3607,0.4243,0.2628,0.3997,0.0347,0.6154,0.575,0.4956,0.5879,0.4742,0.4269,0.6058,0.6673,0.8,0.8403,0.6889,0.3742,0.421,0.0021,0.5871
0.1804,1.0555,0.2108,0.8382,0.3839,0.2845,0.0735,-0.2498,-0.0837,0.1093,0.4014,0.4707,0.3655,0.5631,-0.0037,0.6862,0.788,0.5976,0.765,0.5812,0.5866,0.8012,0.8019,0.8934,0.7811,0.6696,0.4273,0.4402,0.0367,0.5856
0.2322,1.2086,0.3147,1.0255,0.5351,0.4211,0.2165,-0.1411,0.0097,0.2335,0.4959,0.553,0.5373,0.8049,0.0216,0.8325,1.0205,0.7297,0.9899,0.7766,0.8293,1.0274,0.9195,1.0139,0.6943,0.6502,0.5084,0.4871,0.0682,0.5499
0.3247,1.3721,0.4402,1.2275,0.7277,0.5456,0.4091,-0.0135,0.1351,0.4063,0.6364,0.6643,0.7614,1.101,0.1173,1.0229,1.2263,0.8713,1.2261,1.0315,1.1293,1.2585,1.004,1.1512,0.5921,0.6353,0.613,0.5606,0.0901,0.4776
0.4622,1.5139,0.5752,1.4183,0.941,0.647,0.6296,0.1198,0.2808,0.6112,0.8099,0.7941,1.019,1.4271,0.2792,1.2316,1.3779,1.008,1.4449,1.3186,1.4611,1.4761,1.0508,1.2969,0.4904,0.6298,0.7355,0.6562,0.0993,0.3756
0.6391,1.6185,0.7113,1.5847,1.1601,0.7264,0.8581,0.2477,0.4338,0.83,0.9991,0.9287,1.2914,1.7609,0.4937,1.4407,1.4685,1.1318,1.6273,1.6146,1.802,1.6698,1.0648,1.4444,0.4054,0.6371,0.8696,0.7656,0.0964,0.2587
0.8405,1.6861,0.8428,1.7251,1.3756,0.7947,1.0786,0.3625,0.581,1.0449,1.1844,1.053,1.5611,2.0836,0.7411,1.6403,1.5078,1.2408,1.7647,1.9016,2.1331,1.8361,1.0573,1.588,0.3507,0.6584,1.008,0.8776,0.0859,0.1464
1.0458,1.7278,0.9659,1.8464,1.5824,0.8668,1.2795,0.4603,0.7106,1.2403,1.3468,1.1528,1.8132,2.3801,0.9999,1.826,1.5154,1.3375,1.8567,2.1664,2.4397,1.9762,1.0422,1.7229,0.3345,0.6918,1.1428,0.9797,0.0753,0.0597
1.2342,1.7591,1.0783,1.9583,1.7783,0.9564,1.4541,0.5409,0.8136,1.4043,1.4707,1.2169,2.0362,2.6392,1.25,1.9963,1.5133,1.4255,1.9087,2.3993,2.711,2.0936,1.0327,1.8444,0.3584,0.7328,1.2656,1.0596,0.0731,0.0161
1.3902,1.7938,1.1777,2.0691,1.9615,1.0716,1.5991,0.6075,0.885,1.5303,1.5462,1.2395,2.2223,2.8525,1.4747,2.1494,1.5186,1.508,1.9296,2.5935,2.9389,2.1917,1.0386,1.9478,0.4177,0.7752,1.369,1.1075,0.086,0.0254
1.5067,1.8394,1.2628,2.1814,2.1291,1.213,1.7139,0.6652,0.9245,1.617,1.5711,1.2207,2.367,3.0145,1.6604,2.2813,1.5401,1.5849,1.9289,2.7435,3.1174,2.272,1.0654,2.029,0.502,0.8123,1.4467,1.1176,0.1175,0.087
1.5862,1.8952,1.3325,2.2911,2.2765,1.3737,1.7992,0.72,0.9365,1.6674,1.5502,1.1665,2.4685,3.1216,1.7972,2.3859,1.5766,1.6527,1.9146,2.8447,3.2423,2.3335,1.1127,2.0842,0.5973,0.8376,1.4942,1.0884,0.1667,0.1897
1.6373,1.953,1.3864,2.3874,2.3971,1.5405,1.8556,0.7773,0.9287,1.6871,1.494,1.0865,2.5262,3.1723,1.8781,2.4551,1.6188,1.7042,1.8922,2.8934,3.31,2.3725,1.1747,2.1098,0.6877,0.846,1.5077,1.0226,0.2279,0.313
1.6701,1.9995,1.4238,2.4553,2.4824,1.6964,1.8832,0.8397,0.9097,1.6819,1.4151,0.9916,2.5398,3.1666,1.8998,2.4805,1.6524,1.7304,1.8634,2.8866,3.3182,2.3832,1.241,2.1026,0.758,0.8335,1.484,0.9259,0.2922,0.4318
1.6908,2.0197,1.4421,2.4782,2.5236,1.8229,1.8803,0.9062,0.8869,1.6555,1.3253,0.8916,2.5078,3.1056,1.8636,2.4544,1.6614,1.7226,1.8262,2.8221,3.265,2.3587,1.2982,2.0599,0.7957,0.7974,1.4194,0.8057,0.348,0.5211
1.6985,2.0005,1.4372,2.442,2.5122,1.9027,1.8442,0.9713,0.8645,1.6089,1.2332,0.7931,2.4282,2.9914,1.7755,2.3711,1.6318,1.6742,1.7756,2.6986,3.1501,2.2931,1.3323,1.9797,0.7931,0.7372,1.3111,0.6699,0.3838,0.5612
1.6857,1.9334,1.4031,2.3374,2.4421,1.9221,1.7714,1.0261,0.8423,1.5406,1.1422,0.6992,2.2988,2.8271,1.6463,2.2284,1.5533,1.5827,1.7046,2.5167,2.9745,2.1822,1.3307,1.8617,0.7487,0.6545,1.1586,0.5262,0.3899,0.5413
1.6414,1.8157,1.3345,2.1623,2.3108,1.8736,1.6593,1.0599,0.8165,1.4483,1.0515,0.6097,2.1193,2.617,1.49,2.0281,1.4213,1.4496,1.6061,2.2795,2.742,2.0254,1.2847,1.7081,0.6675,0.5535,0.9657,0.3821,0.3605,0.4616
1.5553,1.6505,1.2276,1.9221,2.1205,1.7561,1.5076,1.0624,0.7811,1.3303,0.9572,0.5228,1.8931,2.3671,1.322,1.7764,1.2368,1.2809,1.4744,1.9931,2.4594,1.8261,1.1908,1.5239,0.5603,0.4407,0.7417,0.2441,0.2948,0.3323
1.4227,1.4453,1.083,1.6294,1.879,1.5759,1.3194,1.0265,0.7304,1.1876,0.855,0.4365,1.6281,2.0856,1.1564,1.484,1.0061,1.0859,1.3069,1.6676,2.1369,1.5919,1.0513,1.3177,0.4411,0.3246,0.5013,0.1183,0.197,0.1715
1.248,1.2105,0.9061,1.302,1.5991,1.3448,1.1026,0.9506,0.661,1.0252,0.7423,0.3503,1.3375,1.7833,1.0038,1.1656,0.7407,0.8753,1.1051,1.3168,1.7887,1.3341,0.8741,1.1006,0.3251,0.2146,0.2632,0.0101,0.0763,0.0014
1.045,0.958,0.7075,0.9611,1.2981,1.0798,0.869,0.8391,0.5734,0.8516,0.6202,0.2659,1.039,1.4736,0.8696,0.8387,0.4565,0.6608,0.8762,0.9579,1.4318,1.0669,0.6716,0.8857,0.2259,0.12,0.0476,-0.0762,-0.0547,-0.1558
0.8353,0.6999,0.5018,0.6288,0.9957,0.8005,0.634,0.7029,0.4728,0.6782,0.4941,0.1872,0.7527,1.1717,0.7538,0.522,0.1724,0.4536,0.6326,0.6104,1.0853,0.8063,0.4596,0.6867,0.1534,0.0484,-0.1278,-0.1372,-0.1817,-0.2816
0.642,0.4488,0.3055,0.3262,0.7117,0.5272,0.414,0.5566,0.3672,0.5167,0.3729,0.1196,0.4984,0.8924,0.6526,0.2331,-0.0918,0.2638,0.391,0.2932,0.7674,0.5674,0.2546,0.5157,0.1127,0.0052,-0.2507,-0.1713,-0.2907,-0.3638
0.484,0.2166,0.1338,0.0706,0.4623,0.2789,0.2241,0.4168,0.2663,0.3771,0.2668,0.0682,0.2919,0.6484,0.562,-0.0134,-0.3188,0.1,0.1695,0.0223,0.4934,0.3623,0.0722,0.3811,0.1036,-0.0081,-0.3174,-0.179,-0.3706,-0.3976
0.3711,0.0148,-0.002,-0.1261,0.2585,0.0712,0.0753,0.2977,0.1789,0.2647,0.1851,0.0365,0.1424,0.4476,0.4793,-0.2086,-0.4964,-0.0319,-0.0156,-0.1923,0.2724,0.1979,-0.0754,0.2862,0.1215,0.0065,-0.3329,-0.163,-0.4142,-0.3853
0.3014,-0.1473,-0.0956,-0.2592,0.1038,-0.0855,-0.0273,0.2095,0.1116,0.1802,0.1341,0.0255,0.0508,0.2917,0.4037,-0.35,-0.6192,-0.1289,-0.1532,-0.3477,0.1064,0.0749,-0.1814,0.2284,0.1583,0.0428,-0.3103,-0.1285,-0.4193,-0.3337
0.263,-0.2631,-0.1471,-0.3315,-0.0054,-0.1873,-0.0856,0.1563,0.067,0.119,0.1151,0.0325,0.0096,0.176,0.3357,-0.4416,-0.6884,-0.1918,-0.2401,-0.4491,-0.0105,-0.0124,-0.2444,0.1996,0.2042,0.0922,-0.2674,-0.0831,-0.3886,-0.2523
0.2382,-0.3315,-0.1625,-0.3535,-0.079,-0.237,-0.1075,0.136,0.0443,0.0734,0.125,0.0522,0.0048,0.0899,0.2749,-0.4935,-0.7114,-0.2256,-0.282,-0.5086,-0.0905,-0.0747,-0.2688,0.1883,0.2496,0.1441,-0.2236,-0.0356,-0.3286,-0.1519
0.208,-0.3572,-0.1517,-0.3419,-0.131,-0.2444,-0.1056,0.1415,0.0392,0.0342,0.156,0.0767,0.0185,0.0192,0.2186,-0.52,-0.6996,-0.2387,-0.292,-0.5428,-0.1501,-0.1252,-0.2641,0.1813,0.286,0.188,-0.1957,0.0042,-0.2489,-0.0429
0.1582,-0.3511,-0.1265,-0.3167,-0.1764,-0.2239,-0.0945,0.1626,0.0452,-0.007,0.1981,0.098,0.0325,-0.0507,0.1626,-0.5369,-0.6671,-0.2423,-0.2881,-0.5696,-0.2065,-0.1771,-0.2429,0.1664,0.3075,0.215,-0.1956,0.0276,-0.1602,0.0647
0.0827,-0.328,-0.0972,-0.2978,-0.2282,-0.1919,-0.0884,0.188,0.0547,-0.0564,0.2397,0.1085,0.0324,-0.132,0.1014,-0.5585,-0.6284,-0.2479,-0.2885,-0.6048,-0.274,-0.2409,-0.219,0.1347,0.3108,0.2187,-0.2292,0.0279,-0.073,0.162
-0.0159,-0.3035,-0.0707,-0.3006,-0.2948,-0.1637,-0.0986,0.2075,0.0606,-0.1165,0.2704,0.1033,0.009,-0.2315,0.0305,-0.5949,-0.5964,-0.2658,-0.3078,-0.6588,-0.3614,-0.3226,-0.2053,0.0818,0.2957,0.1963,-0.2965,0.0017,0.0047,0.2418
-0.128,-0.2901,-0.0492,-0.3332,-0.3783,-0.1504,-0.1307,0.2143,0.0578,-0.1866,0.2825,0.0802,-0.0398,-0.3495,-0.0513,-0.6499,-0.5811,-0.3028,-0.3538,-0.7349,-0.4704,-0.4231,-0.2119,0.0081,0.2648,0.1489,-0.3924,-0.0505,0.068,0.2996
-0.241,-0.2942,-0.0306,-0.395,-0.4745,-0.1569,-0.1843,0.2056,0.0443,-0.2624,0.2723,0.041,-0.1101,-0.4801,-0.1415,-0.7205,-0.5879,-0.3609,-0.4266,-0.8293,-0.5958,-0.538,-0.2444,-0.0816,0.2226,0.0806,-0.5079,-0.1244,0.1159,0.3339
-0.343,-0.3148,-0.0108,-0.4773,-0.5745,-0.1816,-0.2526,0.183,0.0222,-0.3367,0.2418,-0.0096,-0.1932,-0.6124,-0.2336,-0.7982,-0.6168,-0.4365,-0.5196,-0.9325,-0.7268,-0.6589,-0.303,-0.1792,0.1744,-0.0015,-0.6319,-0.2126,0.1503,0.3464
-0.4253,-0.3439,0.0139,-0.5659,-0.6664,-0.2168,-0.3234,0.1524,-0.003,-0.401,0.1977,-0.0643,-0.2777,-0.7331,-0.3193,-0.8714,-0.6627,-0.5216,-0.6208,-1.0319,-0.8499,-0.7751,-0.3817,-0.2752,0.1258,-0.0894,-0.7522,-0.3057,0.1752,0.3412
-0.4838,-0.3694,0.0444,-0.6445,-0.7386,-0.2514,-0.3818,0.1219,-0.0229,-0.4459,0.151,-0.1145,-0.3517,-0.8293,-0.3906,-0.9285,-0.7165,-0.6048,-0.7161,-1.115,-0.9516,-0.8749,-0.4695,-0.3599,0.0808,-0.1751,-0.857,-0.3933,0.1939,0.3235
-0.5188,-0.3795,0.0781,-0.6987,-0.7823,-0.2746,-0.4135,0.1007,-0.0287,-0.4631,0.1146,-0.1515,-0.4051,-0.8916,-0.4424,-0.9609,-0.7669,-0.6741,-0.792,-1.1724,-1.0212,-0.9482,-0.5521,-0.4248,0.0418,-0.2513,-0.9358,-0.4657,0.2082,0.2979
-0.534,-0.3675,0.1091,-0.7205,-0.7945,-0.2792,-0.4084,0.0959,-0.0133,-0.4472,0.1007,-0.1681,-0.4316,-0.9154,-0.4735,-0.9657,-0.8029,-0.7195,-0.8376,-1.1998,-1.0532,-0.9878,-0.6149,-0.4635,0.0098,-0.3123,-0.9806,-0.5145,0.2169,0.2677
-0.5351,-0.3355,0.1295,-0.71,-0.7785,-0.2646,-0.3638,0.1107,0.0264,-0.3972,0.1176,-0.1601,-0.4294,-0.9025,-0.4867,-0.9464,-0.8167,-0.735,-0.8474,-1.1994,-1.0487,-0.9909,-0.6463,-0.4726,-0.0154,-0.3542,-0.9869,-0.5341,0.2162,0.2342
-0.529,-0.2957,0.131,-0.6761,-0.7443,-0.2377,-0.2857,0.1426,0.088,-0.318,0.1676,-0.1267,-0.4016,-0.8604,-0.4878,-0.9129,-0.8061,-0.7199,-0.8213,-1.1793,-1.0147,-0.9602,-0.6404,-0.452,-0.0337,-0.3741,-0.9537,-0.5219,0.2013,0.1972
-0.5221,-0.2683,0.1058,-0.6352,-0.7064,-0.2111,-0.188,0.1842,0.1635,-0.22,0.2458,-0.0715,-0.3553,-0.8013,-0.4829,-0.8791,-0.775,-0.6794,-0.7659,-1.1522,-0.9635,-0.9034,-0.5991,-0.4053,-0.0442,-0.371,-0.8842,-0.4793,0.1677,0.1551
-0.5194,-0.2766,0.0486,-0.6068,-0.6804,-0.2002,-0.0898,0.2236,0.2411,-0.1183,0.3412,-0.002,-0.3,-0.7396,-0.4769,-0.8604,-0.7338,-0.623,-0.6926,-1.1321,-0.9096,-0.8325,-0.5316,-0.3388,-0.0454,-0.3452,-0.7856,-0.4108,0.114,0.1071
-0.5236,-0.3398,-0.0427,-0.6088,-0.6799,-0.2192,-0.0111,0.2479,0.3073,-0.0296,0.4382,0.0719,-0.2453,-0.6886,-0.4722,-0.8692,-0.6967,-0.5628,-0.616,-1.1311,-0.8673,-0.7614,-0.4526,-0.2611,-0.0355,-0.2982,-0.6674,-0.3238,0.0423,0.0533
-0.5344,-0.4671,-0.1662,-0.6532,-0.7129,-0.2771,0.0316,0.246,0.3503,0.0304,0.5203,0.1397,-0.199,-0.6586,-0.4684,-0.9125,-0.6783,-0.5108,-0.5517,-1.1569,-0.8472,-0.7036,-0.3792,-0.1811,-0.0135,-0.2335,-0.5411,-0.2267,-0.0422,-0.0039
-0.5502,-0.654,-0.3156,-0.7422,-0.7804,-0.376,0.0291,0.2111,0.3618,0.0506,0.5734,0.1923,-0.1653,-0.6548,-0.4628,-0.9898,-0.6902,-0.4767,-0.5129,-1.2105,-0.8545,-0.6692,-0.3275,-0.1075,0.02,-0.1555,-0.4179,-0.1279,-0.1324,-0.0596
-0.5689,-0.8822,-0.4809,-0.8682,-0.8764,-0.5094,-0.0184,0.1426,0.339,0.0269,0.5887,0.2235,-0.1451,-0.6763,-0.4508,-1.093,-0.7372,-0.4655,-0.5079,-1.2867,-0.8881,-0.6639,-0.3088,-0.0469,0.0621,-0.0702,-0.3076,-0.0345,-0.2221,-0.1079
-0.5898,-1.1233,-0.6495,-1.0146,-0.9885,-0.6632,-0.1018,0.0461,0.2848,-0.0374,0.5643,0.2317,-0.1358,-0.717,-0.4276,-1.2079,-0.8158,-0.4761,-0.5381,-1.3747,-0.9406,-0.6872,-0.3271,-0.0033,0.1079,0.0161,-0.2175,0.0482,-0.3071,-0.1425
-0.6138,-1.3447,-0.8086,-1.1597,-1.1007,-0.8184,-0.2044,-0.0675,0.2069,-0.132,0.5054,0.2194,-0.1327,-0.7663,-0.3898,-1.3172,-0.9142,-0.502,-0.5972,-1.4608,-1.0004,-0.7327,-0.3784,0.0222,0.1518,0.0968,-0.1514,0.1171,-0.3856,-0.1594
-0.6421,-1.5164,-0.9472,-1.2812,-1.1962,-0.9543,-0.3068,-0.1843,0.1164,-0.2423,0.4228,0.1928,-0.1306,-0.8123,-0.337,-1.4039,-1.015,-0.5333,-0.6724,-1.5306,-1.054,-0.7903,-0.4515,0.0311,0.1884,0.166,-0.1102,0.1712,-0.4575,-0.1574
-0.674,-1.6173,-1.058,-1.3608,-1.2608,-1.0537,-0.391,-0.29,0.0256,-0.3524,0.33,0.1594,-0.1256,-0.8435,-0.2737,-1.4549,-1.0992,-0.5596,-0.7479,-1.5727,-1.0888,-0.8478,-0.5316,0.0267,0.2135,0.2186,-0.0916,0.2108,-0.5232,-0.1397
-0.7054,-1.6396,-1.1378,-1.3881,-1.2861,-1.1068,-0.445,-0.3725,-0.0545,-0.4489,0.2404,0.127,-0.1164,-0.8522,-0.2079,-1.4636,-1.1515,-0.5733,-0.8082,-1.5807,-1.0966,-0.8943,-0.604,0.0134,0.2247,0.2516,-0.0921,0.2372,-0.5823,-0.1132
-0.7293,-1.5887,-1.1871,-1.3619,-1.2712,-1.1135,-0.465,-0.4241,-0.1157,-0.5222,0.1646,0.101,-0.1041,-0.8353,-0.1504,-1.4314,-1.1635,-0.5713,-0.8426,-1.5539,-1.0743,-0.9226,-0.6577,-0.005,0.2216,0.2635,-0.1075,0.2515,-0.6341,-0.0878
-0.7369,-1.4815,-1.2086,-1.2898,-1.222,-1.0823,-0.4557,-0.4421,-0.1533,-0.5676,0.1089,0.0846,-0.0921,-0.7946,-0.111,-1.3662,-1.1358,-0.5558,-0.8466,-1.4971,-1.0244,-0.9295,-0.6876,-0.0251,0.2056,0.2551,-0.1341,0.2549,-0.6771,-0.0741
-0.7202,-1.3406,-1.206,-1.185,-1.1491,-1.0278,-0.4271,-0.4287,-0.1663,-0.584,0.0757,0.0784,-0.0839,-0.7358,-0.0961,-1.2799,-1.076,-0.5321,-0.8219,-1.4187,-0.9536,-0.9165,-0.6942,-0.0442,0.1795,0.2294,-0.1691,0.2485,-0.71,-0.0812
-0.6735,-1.1895,-1.1825,-1.063,-1.0644,-0.9651,-0.3915,-0.3893,-0.1563,-0.5727,0.0643,0.0812,-0.0816,-0.6662,-0.1075,-1.1857,-0.9966,-0.507,-0.7748,-1.3279,-0.8705,-0.8874,-0.6822,-0.0605,0.1467,0.1907,-0.2099,0.2338,-0.7322,-0.1142
-0.5948,-1.0473,-1.1409,-0.9382,-0.9779,-0.9062,-0.359,-0.3311,-0.1268,-0.5367,0.0718,0.091,-0.0847,-0.5934,-0.1421,-1.0945,-0.9107,-0.4862,-0.7138,-1.2332,-0.7834,-0.8475,-0.6583,-0.0728,0.111,0.1444,-0.2542,0.2123,-0.744,-0.1732
-0.4866,-0.9271,-1.0841,-0.8219,-0.8961,-0.8567,-0.3356,-0.2623,-0.0825,-0.4799,0.0944,0.1046,-0.0902,-0.5236,-0.1931,-1.014,-0.8304,-0.4733,-0.6481,-1.141,-0.6995,-0.8022,-0.629,-0.0804,0.0759,0.0956,-0.2993,0.1857,-0.7472,-0.253
-0.356,-0.8353,-1.0155,-0.7215,-0.8216,-0.8162,-0.3221,-0.1906,-0.0286,-0.4079,0.1275,0.1187,-0.0936,-0.462,-0.2506,-0.9488,-0.7649,-0.4693,-0.586,-1.0563,-0.6243,-0.7568,-0.5996,-0.0843,0.0438,0.0482,-0.3428,0.155,-0.7446,-0.3452
-0.215,-0.7732,-0.9404,-0.6411,-0.7547,-0.7801,-0.3153,-0.1229,0.0293,-0.3282,0.1662,0.1296,-0.0904,-0.4121,-0.3032,-0.9008,-0.7205,-0.4731,-0.5351,-0.9829,-0.5618,-0.716,-0.5736,-0.0861,0.0161,0.0045,-0.3831,0.1207,-0.7404,-0.4396
-0.0794,-0.7384,-0.8655,-0.5819,-0.6945,-0.7432,-0.3096,-0.0647,0.0858,-0.2496,0.2046,0.1339,-0.0779,-0.3762,-0.3394,-0.8701,-0.7007,-0.4815,-0.5007,-0.9239,-0.5144,-0.6837,-0.553,-0.0886,-0.0067,-0.035,-0.42,0.0827,-0.7383,-0.5267
0.033,-0.7262,-0.7991,-0.5434,-0.6404,-0.7019,-0.2991,-0.0196,0.1359,-0.1808,0.2374,0.129,-0.0559,-0.3553,-0.3489,-0.8558,-0.7062,-0.4903,-0.4856,-0.882,-0.4835,-0.6626,-0.5383,-0.0946,-0.0247,-0.0709,-0.4544,0.0408,-0.7414,-0.5992
0.1065,-0.7298,-0.7486,-0.5227,-0.5925,-0.6563,-0.2796,0.0112,0.1765,-0.1285,0.2598,0.114,-0.0269,-0.3484,-0.3249,-0.8556,-0.7343,-0.4952,-0.4893,-0.8581,-0.4684,-0.6535,-0.5289,-0.1054,-0.0374,-0.1036,-0.4879,-0.0046,-0.7503,-0.6523
0.1312,-0.7416,-0.7189,-0.5152,-0.5507,-0.6091,-0.2488,0.0289,0.206,-0.096,0.2691,0.0903,0.0053,-0.3528,-0.2669,-0.8659,-0.7789,-0.4926,-0.5081,-0.8515,-0.4667,-0.6546,-0.5232,-0.1204,-0.044,-0.1328,-0.5213,-0.0521,-0.7631,-0.6841
0.107,-0.753,-0.7107,-0.5141,-0.5147,-0.5637,-0.2068,0.0364,0.2252,-0.0821,0.2655,0.0614,0.0371,-0.3637,-0.1817,-0.8816,-0.8307,-0.4806,-0.536,-0.8586,-0.4739,-0.6623,-0.5193,-0.1366,-0.0426,-0.1563,-0.5526,-0.0983,-0.7753,-0.6944
0.0438,-0.7565,-0.7195,-0.5121,-0.4833,-0.523,-0.1561,0.0382,0.236,-0.082,0.252,0.0331,0.0656,-0.376,-0.0827,-0.897,-0.8796,-0.4596,-0.5666,-0.8743,-0.4847,-0.6717,-0.5154,-0.149,-0.031,-0.1704,-0.5771,-0.1386,-0.7811,-0.685
-0.0404,-0.7472,-0.7371,-0.5027,-0.4556,-0.4882,-0.1009,0.0386,0.2411,-0.0888,0.2337,0.0117,0.0896,-0.3854,0.013,-0.9072,-0.9171,-0.4331,-0.595,-0.8934,-0.4942,-0.6788,-0.5112,-0.153,-0.0076,-0.171,-0.5881,-0.1672,-0.7751,-0.6586
-0.1243,-0.7247,-0.7539,-0.4826,-0.4317,-0.4599,-0.0471,0.0408,0.2425,-0.0961,0.2166,0.0026,0.1084,-0.3902,0.0882,-0.91,-0.9394,-0.4071,-0.6199,-0.9122,-0.4998,-0.6821,-0.5079,-0.1457,0.028,-0.1548,-0.5789,-0.1788,-0.7535,-0.6188
-0.1883,-0.6936,-0.7624,-0.4534,-0.4144,-0.4396,-0.002,0.0456,0.2407,-0.1004,0.2052,0.0089,0.1208,-0.3923,0.1289,-0.9064,-0.9485,-0.3894,-0.6438,-0.9302,-0.5023,-0.6832,-0.5089,-0.128,0.0732,-0.1214,-0.546,-0.1705,-0.7155,-0.57
-0.2192,-0.6631,-0.7588,-0.4215,-0.409,-0.4304,0.0268,0.0514,0.2345,-0.1021,0.2018,0.0298,0.1245,-0.3972,0.1265,-0.9008,-0.9514,-0.3883,-0.6722,-0.9503,-0.5061,-0.6869,-0.5189,-0.1045,0.1232,-0.0743,-0.4905,-0.1425,-0.6631,-0.5166
-0.2131,-0.6443,-0.744,-0.3972,-0.4223,-0.4374,0.0323,0.054,0.2217,-0.105,0.2056,0.0609,0.1162,-0.4117,0.079,-0.8993,-0.9569,-0.4102,-0.7108,-0.9769,-0.5177,-0.6992,-0.5425,-0.0831,0.1707,-0.0204,-0.4187,-0.099,-0.6008,-0.4638
-0.176,-0.6477,-0.7229,-0.3913,-0.4608,-0.4654,0.0099,0.049,0.2003,-0.1145,0.2131,0.0952,0.0926,-0.442,-0.009,-0.9072,-0.9721,-0.4574,-0.7631,-1.0143,-0.5433,-0.7254,-0.5821,-0.0719,0.2078,0.0307,-0.3403,-0.0478,-0.5348,-0.4164
-0.1229,-0.6792,-0.7021,-0.4125,-0.5281,-0.5171,-0.0412,0.0323,0.1693,-0.1353,0.2198,0.1247,0.0515,-0.4911,-0.1262,-0.9274,-0.9993,-0.5268,-0.8281,-1.064,-0.5865,-0.7675,-0.637,-0.0775,0.2274,0.0693,-0.2662,0.0017,-0.4716,-0.3792
-0.0743,-0.7389,-0.6889,-0.4641,-0.6229,-0.5908,-0.1178,0.0021,0.1298,-0.1701,0.2209,0.1423,-0.0067,-0.5575,-0.2563,-0.9593,-1.0359,-0.61,-0.8999,-1.1238,-0.6468,-0.8239,-0.7031,-0.103,0.2244,0.0876,-0.2054,0.0398,-0.4179,-0.3564
-0.0504,-0.8204,-0.6888,-0.5431,-0.7387,-0.6805,-0.2125,-0.0405,0.0848,-0.2183,0.2129,0.1433,-0.0786,-0.6353,-0.3807,-0.9988,-1.0751,-0.6951,-0.9693,-1.1879,-0.7195,-0.8893,-0.7734,-0.1471,0.1968,0.0814,-0.1637,0.059,-0.3798,-0.3515
-0.0656,-0.9125,-0.7056,-0.6404,-0.8644,-0.7758,-0.3154,-0.0917,0.0392,-0.276,0.1946,0.1266,-0.1579,-0.7154,-0.4824,-1.0397,-1.1086,-0.7691,-1.0264,-1.2484,-0.7968,-0.9561,-0.8399,-0.2046,0.1464,0.0515,-0.1429,0.0553,-0.3621,-0.3658
-0.124,-1.0023,-0.7398,-0.7434,-0.9864,-0.8647,-0.4148,-0.1454,-0.0018,-0.337,0.1671,0.0945,-0.2364,-0.7877,-0.5492,-1.0758,-1.1293,-0.8221,-1.0641,-1.2976,-0.8695,-1.0161,-0.8954,-0.268,0.0785,0.0026,-0.1413,0.0293,-0.3676,-0.3986
-0.2188,-1.0787,-0.7899,-0.839,-1.0908,-0.9355,-0.4995,-0.1946,-0.0331,-0.3941,0.1337,0.0523,-0.3053,-0.8436,-0.5763,-1.1018,-1.1337,-0.8487,-1.0799,-1.3296,-0.9294,-1.0632,-0.9351,-0.3293,0.0015,-0.0569,-0.1552,-0.0143,-0.396,-0.4461
-0.3343,-1.1347,-0.8516,-0.9165,-1.1668,-0.9801,-0.5602,-0.2326,-0.0513,-0.4402,0.0992,0.0073,-0.3573,-0.8778,-0.5665,-1.1153,-1.1224,-0.8493,-1.0771,-1.3425,-0.9709,-1.0939,-0.9574,-0.3818,-0.0748,-0.1175,-0.1799,-0.0675,-0.4441,-0.5019
-0.4505,-1.1683,-0.9189,-0.9693,-1.2077,-0.9949,-0.5909,-0.2549,-0.0552,-0.4697,0.0687,-0.0333,-0.3876,-0.8892,-0.5286,-1.1159,-1.0996,-0.8291,-1.0624,-1.3375,-0.9918,-1.1083,-0.9639,-0.4211,-0.141,-0.1703,-0.2103,-0.1208,-0.5051,-0.5579
-0.5475,-1.1808,-0.9842,-0.9949,-1.212,-0.9812,-0.5895,-0.2595,-0.046,-0.4789,0.0471,-0.0627,-0.3949,-0.8803,-0.4748,-1.1045,-1.0707,-0.7957,-1.0434,-1.3184,-0.9925,-1.1084,-0.9574,-0.4451,-0.1892,-0.2084,-0.2415,-0.1649,-0.5699,-0.6051
-0.6103,-1.1738,-1.0395,-0.9929,-1.1823,-0.9437,-0.5574,-0.2466,-0.0271,-0.4664,0.0381,-0.076,-0.3803,-0.8555,-0.4178,-1.0815,-1.0394,-0.7563,-1.0246,-1.2884,-0.9748,-1.0967,-0.9406,-0.4536,-0.2147,-0.2277,-0.2688,-0.1919,-0.6273,-0.6348
-0.6306,-1.1469,-1.0773,-0.9635,-1.1237,-0.8885,-0.4991,-0.2189,-0.0026,-0.4327,0.0436,-0.071,-0.3472,-0.8198,-0.3684,-1.0449,-1.006,-0.7152,-1.0047,-1.2491,-0.9407,-1.0742,-0.9141,-0.4468,-0.2161,-0.2275,-0.2875,-0.1974,-0.666,-0.6391
-0.6083,-1.0965,-1.0919,-0.9062,-1.0425,-0.821,-0.4208,-0.1798,0.023,-0.3806,0.063,-0.0479,-0.2996,-0.7768,-0.3334,-0.9911,-0.9661,-0.6728,-0.9762,-1.1991,-0.8913,-1.04,-0.8758,-0.4251,-0.1948,-0.21,-0.2942,-0.1804,-0.6759,-0.6121
-0.5499,-1.0169,-1.0805,-0.8197,-0.9448,-0.7444,-0.329,-0.1331,0.0463,-0.3147,0.0938,-0.0099,-0.2415,-0.7284,-0.3146,-0.9152,-0.9126,-0.6257,-0.9275,-1.1346,-0.8265,-0.9909,-0.822,-0.3886,-0.1547,-0.1792,-0.2869,-0.1439,-0.6508,-0.5509
-0.4662,-0.903,-1.0431,-0.7036,-0.836,-0.6599,-0.229,-0.0817,0.0657,-0.2401,0.132,0.0381,-0.1758,-0.6745,-0.3091,-0.8137,-0.8375,-0.5687,-0.8463,-1.051,-0.7458,-0.9229,-0.7486,-0.3377,-0.101,-0.1407,-0.2656,-0.0938,-0.5899,-0.456
-0.3692,-0.7537,-0.9822,-0.5598,-0.7206,-0.5671,-0.1244,-0.0278,0.0814,-0.1622,0.1737,0.0902,-0.1045,-0.6136,-0.3109,-0.6862,-0.7358,-0.4969,-0.724,-0.9452,-0.6488,-0.8331,-0.6527,-0.2731,-0.0393,-0.0997,-0.232,-0.0372,-0.4983,-0.3331
-0.2698,-0.5744,-0.902,-0.3944,-0.6024,-0.4657,-0.0173,0.0272,0.0954,-0.0853,0.216,0.1411,-0.0289,-0.5443,-0.3123,-0.5369,-0.6075,-0.4079,-0.5598,-0.8175,-0.5369,-0.721,-0.5351,-0.1965,0.0255,-0.0603,-0.189,0.0191,-0.3865,-0.192
-0.1757,-0.377,-0.8072,-0.2173,-0.4847,-0.3571,0.091,0.0826,0.1114,-0.0126,0.2576,0.1871,0.0501,-0.4662,-0.3062,-0.3746,-0.4595,-0.3038,-0.3615,-0.6726,-0.4135,-0.5902,-0.4005,-0.1106,0.0893,-0.025,-0.1401,0.0702,-0.2682,-0.0467
-0.092,-0.1783,-0.7019,-0.0413,-0.3712,-0.2446,0.1982,0.1376,0.1329,0.054,0.2991,0.2263,0.131,-0.3807,-0.2879,-0.2111,-0.3045,-0.191,-0.1456,-0.5195,-0.2843,-0.4481,-0.2583,-0.0196,0.1492,0.0054,-0.0886,0.1135,-0.1576,0.0876
-0.0213,0.0032,-0.5898,0.1204,-0.2656,-0.1329,0.3006,0.1909,0.1632,0.1131,0.3422,0.2588,0.2112,-0.2917,-0.2558,-0.0594,-0.1589,-0.0798,0.0667,-0.3702,-0.1574,-0.3057,-0.1212,0.0709,0.2026,0.0314,-0.0371,0.1481,-0.0665,0.1964
0.0362,0.1515,-0.4738,0.2561,-0.1715,-0.0275,0.3922,0.2406,0.2035,0.1632,0.3882,0.2856,0.2871,-0.2054,-0.213,0.0688,-0.0395,0.0179,0.2531,-0.2378,-0.042,-0.1757,-0.0032,0.1544,0.2466,0.054,0.0125,0.1741,-0.0029,0.2686
0.0816,0.2553,-0.3574,0.3576,-0.0929,0.0664,0.4659,0.2842,0.2529,0.2026,0.4369,0.3078,0.3538,-0.1292,-0.1667,0.1652,0.0408,0.0904,0.3951,-0.1339,0.0529,-0.0706,0.0824,0.2237,0.2778,0.0734,0.0593,0.1915,0.0298,0.2979
0.1175,0.3103,-0.2451,0.4204,-0.0339,0.1435,0.5144,0.3184,0.3071,0.2287,0.4863,0.3251,0.4061,-0.0707,-0.1275,0.2252,0.0749,0.1284,0.4811,-0.0665,0.1196,-0.0006,0.1262,0.272,0.2918,0.0887,0.1022,0.1993,0.0324,0.2836
0.1467,0.3188,-0.1428,0.4444,0.0015,0.1983,0.5315,0.34,0.3597,0.2385,0.5316,0.3358,0.4394,-0.0358,-0.1059,0.2493,0.064,0.1275,0.5086,-0.0387,0.1534,0.0285,0.1242,0.2941,0.2847,0.0981,0.1399,0.1959,0.009,0.2303
0.1701,0.2892,-0.0577,0.4329,0.0103,0.2249,0.5143,0.3457,0.4024,0.2292,0.5667,0.337,0.4508,-0.0277,-0.1096,0.2418,0.0166,0.0893,0.4836,-0.0479,0.1538,0.0167,0.0793,0.2875,0.2535,0.0991,0.1693,0.1793,-0.0348,0.1467
0.1862,0.2343,0.0036,0.3927,-0.0088,0.2185,0.4635,0.3335,0.4268,0.1986,0.5855,0.3251,0.4396,-0.0458,-0.1401,0.2105,-0.0535,0.0216,0.4193,-0.0864,0.1246,-0.0297,0.0005,0.2535,0.1985,0.0895,0.1856,0.1483,-0.0923,0.0435
0.1906,0.1689,0.0363,0.3333,-0.0536,0.1773,0.3847,0.3029,0.4265,0.1461,0.583,0.2973,0.4079,-0.0852,-0.191,0.1649,-0.1306,-0.063,0.3327,-0.1431,0.0737,-0.1,-0.0985,0.1973,0.1228,0.0686,0.1818,0.1032,-0.1569,-0.0675
0.1784,0.1079,0.0398,0.2665,-0.1177,0.1054,0.2879,0.2557,0.3986,0.0735,0.5575,0.2526,0.3604,-0.1381,-0.2494,0.1151,-0.2004,-0.1497,0.2418,-0.2052,0.012,-0.1802,-0.2025,0.1275,0.0337,0.0374,0.1506,0.047,-0.2219,-0.1752
0.1471,0.0643,0.0186,0.2055,-0.1905,0.0135,0.1859,0.196,0.3444,-0.0142,0.511,0.1928,0.3038,-0.1938,-0.2989,0.0704,-0.2524,-0.2241,0.1629,-0.2602,-0.0478,-0.2561,-0.2974,0.0551,-0.0592,-0.0007,0.0865,-0.0153,-0.2803,-0.2693
0.0991,0.0478,-0.0169,0.1633,-0.2579,-0.0817,0.093,0.1307,0.2702,-0.1091,0.4489,0.1224,0.2462,-0.2414,-0.3241,0.039,-0.2806,-0.2748,0.1093,-0.2972,-0.093,-0.3147,-0.3716,-0.0086,-0.145,-0.0414,-0.0117,-0.0768,-0.3249,-0.3404
0.043,0.0635,-0.0525,0.1512,-0.3052,-0.1604,0.0221,0.0685,0.1857,-0.2009,0.3797,0.0478,0.196,-0.2707,-0.3149,0.0273,-0.283,-0.295,0.0895,-0.3077,-0.1129,-0.3465,-0.4174,-0.0536,-0.214,-0.0797,-0.1387,-0.1305,-0.3479,-0.3801
-0.0082,0.1114,-0.073,0.1767,-0.3199,-0.2043,-0.0167,0.0186,0.1023,-0.2785,0.3129,-0.0239,0.1605,-0.274,-0.2685,0.0393,-0.2602,-0.2829,0.1073,-0.2868,-0.0998,-0.3461,-0.4311,-0.0734,-0.2596,-0.1116,-0.2828,-0.1705,-0.3423,-0.3817
-0.0405,0.1865,-0.0655,0.2417,-0.2942,-0.2011,-0.0179,-0.0108,0.0314,-0.332,0.2572,-0.0863,0.1451,-0.2478,-0.1904,0.0766,-0.2145,-0.2414,0.161,-0.2332,-0.0508,-0.3129,-0.4129,-0.0655,-0.2795,-0.1349,-0.4273,-0.1932,-0.303,-0.3415
-0.0425,0.2804,-0.023,0.3421,-0.227,-0.147,0.0187,-0.0146,-0.018,-0.3548,0.219,-0.1346,0.1524,-0.1929,-0.0923,0.1376,-0.1488,-0.1769,0.2443,-0.1497,0.0319,-0.2502,-0.3663,-0.0321,-0.2756,-0.1494,-0.5541,-0.198,-0.2287,-0.26
-0.0086,0.3834,0.0543,0.4687,-0.1233,-0.0469,0.0886,0.0084,-0.0405,-0.3446,0.2008,-0.1663,0.1821,-0.1144,0.0107,0.2179,-0.0668,-0.0981,0.3468,-0.0424,0.1415,-0.1653,-0.2973,0.0208,-0.2533,-0.1565,-0.6472,-0.1872,-0.1227,-0.1436
0.0592,0.4862,0.158,0.6085,0.0066,0.0866,0.183,0.0547,-0.0351,-0.3042,0.2018,-0.1813,0.2308,-0.0209,0.1035,0.3104,0.0262,-0.0146,0.4557,0.0793,0.267,-0.0677,-0.2147,0.0845,-0.2199,-0.1588,-0.6969,-0.1653,0.0056,-0.0053
0.1524,0.5811,0.2737,0.7468,0.1488,0.2358,0.2902,0.1169,-0.0051,-0.2405,0.2175,-0.1818,0.2925,0.0766,0.1738,0.4055,0.1224,0.0637,0.5562,0.2032,0.3952,0.0306,-0.1298,0.1488,-0.1838,-0.1598,-0.7018,-0.1381,0.1416,0.1361
0.2577,0.6611,0.383,0.8685,0.2878,0.3802,0.3966,0.1843,0.0426,-0.1633,0.2415,-0.1713,0.3594,0.1663,0.2148,0.4921,0.2114,0.1274,0.634,0.3162,0.5121,0.117,-0.0554,0.2032,-0.1528,-0.1631,-0.6686,-0.1121,0.2666,0.2583
0.3597,0.7204,0.4674,0.9601,0.4089,0.4989,0.4884,0.2459,0.0993,-0.0837,0.2666,-0.1538,0.4227,0.2373,0.2258,0.5588,0.2805,0.1684,0.6762,0.405,0.6048,0.1795,-0.0043,0.2389,-0.1338,-0.1718,-0.6106,-0.093,0.3613,0.3394
0.4439,0.7533,0.5121,1.0117,0.4998,0.5749,0.5541,0.2916,0.1561,-0.0123,0.2866,-0.1332,0.4744,0.2815,0.2123,0.5961,0.3173,0.1818,0.6749,0.4591,0.6637,0.2091,0.0136,0.2499,-0.1312,-0.1885,-0.5434,-0.0849,0.409,0.363
0.4991,0.7562,0.5091,1.0186,0.5539,0.5978,0.5865,0.3152,0.2053,0.0426,0.298,-0.1125,0.5089,0.2952,0.1844,0.599,0.3139,0.1672,0.6285,0.4732,0.6846,0.2023,-0.006,0.2353,-0.1465,-0.2142,-0.4816,-0.0893,0.4006,0.3235
0.5186,0.7291,0.4592,0.9829,0.5708,0.5671,0.5845,0.3149,0.2427,0.0759,0.2998,-0.0931,0.524,0.2811,0.1543,0.5689,0.2701,0.1296,0.5444,0.4491,0.67,0.1625,-0.0593,0.1994,-0.1778,-0.2479,-0.4353,-0.105,0.3363,0.2283
0.5019,0.6775,0.3714,0.9141,0.5575,0.4927,0.5534,0.2938,0.2671,0.0871,0.2947,-0.0748,0.5218,0.2472,0.133,0.5148,0.1957,0.0793,0.4385,0.3962,0.629,0.1004,-0.1344,0.1516,-0.2194,-0.2865,-0.4084,-0.1281,0.227,0.0975
0.4552,0.6119,0.2613,0.8276,0.5262,0.3923,0.5045,0.2582,0.2807,0.0797,0.2878,-0.056,0.5085,0.206,0.1273,0.4513,0.1092,0.0301,0.3332,0.3306,0.5762,0.0322,-0.2138,0.1048,-0.2631,-0.3251,-0.3991,-0.1528,0.0919,-0.0405
0.3906,0.5469,0.148,0.7412,0.4914,0.2878,0.4524,0.2162,0.2877,0.061,0.2857,-0.034,0.4923,0.1713,0.1387,0.396,0.0336,-0.0038,0.2524,0.2711,0.5283,-0.0238,-0.2776,0.0726,-0.299,-0.3573,-0.4008,-0.1725,-0.045,-0.1556
0.3244,0.4976,0.0499,0.6721,0.4669,0.1995,0.4121,0.176,0.2927,0.0401,0.2945,-0.0062,0.4822,0.1551,0.1639,0.3654,-0.0096,-0.0114,0.217,0.2359,0.5007,-0.0512,-0.3085,0.0661,-0.3181,-0.3771,-0.4049,-0.1813,-0.16,-0.2228
0.2738,0.4764,-0.0187,0.633,0.4623,0.1421,0.3957,0.1439,0.2994,0.0263,0.3187,0.0297,0.4854,0.1651,0.197,0.3712,-0.0062,0.0134,0.2392,0.238,0.5046,-0.0387,-0.2956,0.0924,-0.3131,-0.3793,-0.4036,-0.1749,-0.2345,-0.2285
0.2537,0.491,-0.0503,0.6306,0.4825,0.1228,0.4099,0.1244,0.3099,0.0271,0.3597,0.075,0.5068,0.2035,0.232,0.4183,0.0473,0.0703,0.3212,0.283,0.5448,0.0177,-0.2358,0.1526,-0.2803,-0.3608,-0.3914,-0.1516,-0.2582,-0.1721
0.2732,0.5422,-0.0447,0.6648,0.5267,0.1412,0.4555,0.1197,0.3239,0.0472,0.4157,0.1296,0.5478,0.2675,0.2649,0.5041,0.1436,0.1541,0.4552,0.3688,0.6199,0.1152,-0.1336,0.2429,-0.2198,-0.3211,-0.3671,-0.1114,-0.231,-0.0657
0.3339,0.6251,-0.0079,0.7302,0.5905,0.1909,0.5272,0.1302,0.34,0.0871,0.4825,0.1925,0.607,0.3506,0.2954,0.6204,0.2678,0.2563,0.6263,0.4865,0.7233,0.2454,0.0011,0.3552,-0.1358,-0.2626,-0.3331,-0.0564,-0.1623,0.0709
0.429,0.7295,0.0504,0.8171,0.6668,0.2622,0.6149,0.1545,0.3556,0.1438,0.5539,0.2613,0.6807,0.4442,0.326,0.755,0.402,0.3672,0.8173,0.6229,0.8448,0.3963,0.1555,0.4792,-0.0352,-0.1899,-0.2942,0.0097,-0.0682,0.2152
0.5447,0.8429,0.1202,0.9141,0.7478,0.3435,0.706,0.1902,0.3684,0.2112,0.6231,0.3324,0.7633,0.5397,0.3607,0.8947,0.5297,0.4785,1.0118,0.7637,0.9731,0.555,0.3161,0.6039,0.0726,-0.1101,-0.2556,0.0818,0.032,0.3474
0.6629,0.9533,0.1928,1.0102,0.826,0.4241,0.7879,0.2335,0.3766,0.282,0.6836,0.4008,0.8484,0.6295,0.4031,1.0281,0.6398,0.5835,1.1973,0.8965,1.0973,0.7093,0.4703,0.7186,0.1771,-0.0311,-0.2204,0.1537,0.1205,0.4547
0.766,1.0522,0.2628,1.0968,0.8963,0.4959,0.8504,0.2802,0.3794,0.3488,0.7303,0.4613,0.9298,0.7083,0.4539,1.1474,0.7286,0.6782,1.3666,1.0127,1.2091,0.8493,0.6076,0.8149,0.2684,0.039,-0.189,0.2188,0.1845,0.5329
0.8402,1.1371,0.3285,1.1698,0.9563,0.5544,0.8883,0.3256,0.3773,0.4061,0.7606,0.5087,1.002,0.7734,0.5098,1.2497,0.7993,0.7602,1.5167,1.109,1.3032,0.9684,0.7202,0.8869,0.3391,0.0936,-0.1589,0.2706,0.2185,0.5851
0.8791,1.2115,0.3908,1.2297,1.0069,0.5998,0.9021,0.3653,0.3715,0.451,0.7744,0.5396,1.0609,0.8253,0.564,1.3365,0.8596,0.8291,1.6481,1.187,1.3781,1.0635,0.8037,0.9326,0.3849,0.1291,-0.126,0.3047,0.224,0.6197
0.8844,1.2839,0.4525,1.2813,1.0518,0.636,0.8976,0.3954,0.3637,0.4831,0.7742,0.553,1.1049,0.8666,0.6083,1.4125,0.9183,0.885,1.762,1.2518,1.4353,1.1346,0.8567,0.9541,0.4064,0.1456,-0.0869,0.3191,0.2083,0.646
0.8648,1.3639,0.5157,1.3312,1.096,0.6689,0.8839,0.4132,0.3554,0.504,0.7646,0.5507,1.1345,0.9015,0.6355,1.483,0.9819,0.9285,1.8592,1.3094,1.4786,1.1841,0.8814,0.9564,0.4077,0.1467,-0.0393,0.315,0.1811,0.6713
0.8325,1.459,0.5807,1.3855,1.1441,0.7037,0.871,0.4172,0.3477,0.5167,0.7508,0.5368,1.1522,0.9346,0.6419,1.5522,1.0525,0.9608,1.9393,1.3652,1.5124,1.2158,0.8821,0.9472,0.396,0.1386,0.0166,0.2967,0.1521,0.6984
0.7991,1.5714,0.6447,1.4477,1.1987,0.7436,0.8672,0.4082,0.3413,0.5243,0.7384,0.5169,1.1622,0.9693,0.6284,1.6214,1.1274,0.9833,2.0004,1.422,1.5407,1.2338,0.8651,0.9348,0.379,0.1287,0.0787,0.2703,0.1283,0.7252
0.7726,1.6965,0.7008,1.5169,1.2594,0.788,0.8771,0.3889,0.3367,0.5296,0.7319,0.4968,1.1685,1.0072,0.6007,1.6888,1.2,0.9978,2.0403,1.4794,1.5657,1.2419,0.8376,0.9264,0.3637,0.1238,0.1431,0.2429,0.1126,0.7456
0.7564,1.8231,0.7399,1.5875,1.3222,0.8333,0.9011,0.3639,0.3347,0.5347,0.7338,0.481,1.1743,1.0473,0.5668,1.7496,1.2621,1.0064,2.0572,1.5339,1.5875,1.2433,0.8068,0.927,0.3552,0.1292,0.205,0.2214,0.1035,0.7516
0.7489,1.9357,0.752,1.6504,1.3801,0.8732,0.935,0.3383,0.3362,0.5398,0.7448,0.4725,1.1807,1.0859,0.5351,1.7974,1.3057,1.0107,2.0507,1.5796,1.6038,1.2398,0.7793,0.9388,0.3563,0.1477,0.2589,0.2107,0.0958,0.7359
0.7454,2.0183,0.73,1.6952,1.4244,0.9,0.9716,0.317,0.3422,0.5443,0.7635,0.4719,1.1865,1.1182,0.5124,1.8256,1.3256,1.0122,2.0221,1.61,1.6112,1.2328,0.7601,0.9611,0.3674,0.1794,0.2999,0.2138,0.0824,0.695
0.7404,2.0585,0.6722,1.7132,1.4469,0.907,1.0028,0.3027,0.3531,0.5466,0.7869,0.4787,1.1886,1.139,0.5016,1.8298,1.3203,1.0116,1.9752,1.6198,1.6065,1.2233,0.7528,0.9912,0.3879,0.2226,0.3245,0.2308,0.0567,0.6305
0.7289,2.052,0.5838,1.7,1.4419,0.8903,1.0223,0.2962,0.3688,0.5451,0.8113,0.4915,1.1837,1.1453,0.5021,1.8095,1.2939,1.0099,1.9161,1.6066,1.5882,1.2129,0.7589,1.0256,0.4164,0.2745,0.3317,0.2598,0.0145,0.5497
0.7079,2.0039,0.4767,1.6576,1.4089,0.8509,1.0271,0.296,0.3883,0.5396,0.8338,0.5089,1.1695,1.1371,0.5101,1.7687,1.2552,1.0085,1.8527,1.5726,1.5579,1.2037,0.7788,1.0611,0.4517,0.3316,0.3231,0.2972,-0.044,0.4643
0.6768,1.9279,0.3663,1.5942,1.352,0.7945,1.0188,0.299,0.4099,0.5314,0.8525,0.5303,1.1459,1.1178,0.5205,1.7151,1.2155,1.009,1.7938,1.5235,1.5204,1.1981,0.8104,1.0957,0.4927,0.3907,0.3026,0.3386,-0.1146,0.388
0.6372,1.8423,0.268,1.5215,1.2794,0.7305,1.0027,0.3022,0.432,0.5236,0.8676,0.5557,1.1155,1.093,0.5291,1.6583,1.1855,1.013,1.7469,1.4679,1.4823,1.1979,0.85,1.128,0.5383,0.4483,0.2753,0.3794,-0.1896,0.3332
0.5922,1.7658,0.1939,1.4519,1.201,0.6696,0.9859,0.3032,0.4528,0.5198,0.8802,0.5851,1.0825,1.0689,0.5336,1.6072,1.173,1.0216,1.7167,1.4145,1.4506,1.2035,0.892,1.1575,0.5871,0.5013,0.2463,0.4156,-0.2596,0.3086
0.5465,1.7133,0.1511,1.396,1.126,0.6216,0.9759,0.3012,0.4709,0.5236,0.8922,0.6177,1.0521,1.0511,0.5339,1.5689,1.1807,1.0345,1.7039,1.3708,1.4311,1.2137,0.9301,1.1839,0.6371,0.5466,0.2199,0.4435,-0.315,0.3175
0.5052,1.6939,0.1418,1.3604,1.0618,0.5929,0.9784,0.2971,0.4851,0.5374,0.9052,0.6519,1.029,1.0436,0.5312,1.5475,1.2073,1.0504,1.7062,1.3423,1.4273,1.2262,0.9585,1.2068,0.6855,0.5815,0.1992,0.4602,-0.3477,0.358
0.4735,1.7106,0.1648,1.3475,1.0126,0.5861,0.9962,0.293,0.4944,0.5613,0.9197,0.6846,1.0166,1.0482,0.5268,1.5443,1.2482,1.0673,1.7192,1.3312,1.4402,1.2383,0.9737,1.2258,0.7295,0.604,0.1855,0.4645,-0.3523,0.4235
0.4553,1.761,0.216,1.3562,0.9798,0.6001,1.0292,0.2909,0.4979,0.5933,0.9349,0.7125,1.0164,1.0647,0.5218,1.5579,1.2973,1.0827,1.738,1.337,1.4682,1.2477,0.9747,1.2404,0.7662,0.6135,0.1784,0.4565,-0.3271,0.5052
0.4524,1.8387,0.289,1.3823,0.9628,0.6304,1.0745,0.2925,0.495,0.6295,0.9492,0.7324,1.028,1.0911,0.5165,1.5847,1.3483,1.0946,1.7581,1.3566,1.5074,1.2525,0.9633,1.2502,0.7937,0.6108,0.1767,0.4383,-0.2739,0.593
0.4637,1.9336,0.3747,1.4194,0.9589,0.6706,1.1272,0.2981,0.4853,0.6647,0.9606,0.7427,1.0493,1.1238,0.5119,1.6188,1.394,1.1018,1.7759,1.3842,1.5524,1.2515,0.9429,1.255,0.811,0.5982,0.1783,0.4141,-0.1984,0.6777
0.4859,2.0327,0.4615,1.4595,0.9643,0.7133,1.182,0.3071,0.4694,0.694,0.9676,0.7435,1.0772,1.1584,0.5096,1.6521,1.4268,1.1035,1.7884,1.4124,1.5966,1.2436,0.9172,1.2552,0.8186,0.5792,0.1814,0.3895,-0.1094,0.751
0.5146,2.1209,0.5361,1.494,0.9743,0.7509,1.2334,0.3179,0.4487,0.7138,0.9698,0.7375,1.1086,1.1902,0.5128,1.6751,1.4386,1.0994,1.7926,1.4326,1.6335,1.2281,0.8892,1.2518,0.8181,0.5582,0.185,0.3708,-0.0174,0.8056
0.5445,2.1829,0.5855,1.5141,0.9837,0.7755,1.2767,0.3285,0.4253,0.7225,0.968,0.7286,1.1402,1.215,0.5251,1.6786,1.4222,1.0895,1.786,1.4369,1.6578,1.2046,0.8607,1.2461,0.8113,0.5393,0.1892,0.3635,0.0665,0.8355
0.5706,2.2054,0.5993,1.5125,0.988,0.781,1.3088,0.3374,0.4016,0.7207,0.9643,0.7211,1.1699,1.2303,0.5495,1.6549,1.3729,1.0743,1.767,1.4194,1.6661,1.1736,0.8322,1.24,0.8003,0.526,0.1952,0.3712,0.1321,0.8366
0.5885,2.1805,0.5723,1.4855,0.9836,0.7632,1.328,0.3437,0.3804,0.7107,0.9616,0.7187,1.1963,1.2356,0.587,1.6001,1.2912,1.0548,1.7354,1.3771,1.6577,1.1374,0.8036,1.2354,0.7864,0.5203,0.2051,0.3945,0.1718,0.8071
0.5955,2.1076,0.5063,1.4335,0.9689,0.7221,1.3348,0.3483,0.364,0.6958,0.9631,0.7231,1.2192,1.2329,0.6356,1.5155,1.1832,1.0324,1.6932,1.3114,1.6351,1.0995,0.7751,1.2339,0.7701,0.5222,0.221,0.4307,0.1816,0.7486
0.5924,1.9949,0.4099,1.3625,0.9453,0.6619,1.3316,0.353,0.3547,0.6794,0.9718,0.7342,1.2394,1.2262,0.6894,1.408,1.0608,1.0088,1.644,1.2278,1.6037,1.0644,0.7473,1.2369,0.7518,0.5301,0.2444,0.4745,0.1618,0.6662
0.584,1.8578,0.2972,1.2829,0.9164,0.5912,1.3215,0.3612,0.3539,0.6645,0.989,0.7497,1.2585,1.221,0.7397,1.2897,0.9393,0.9854,1.5929,1.136,1.571,1.0373,0.7213,1.2455,0.7315,0.5416,0.2758,0.5194,0.117,0.5688
0.5784,1.7164,0.186,1.208,0.8885,0.5216,1.3087,0.376,0.362,0.6529,1.0141,0.7661,1.2786,1.2235,0.7772,1.1752,0.8351,0.9637,1.5461,1.0477,1.5457,1.0227,0.6994,1.2606,0.71,0.5539,0.3143,0.5587,0.0556,0.4669
0.5851,1.5908,0.094,1.1515,0.8691,0.4668,1.2965,0.4005,0.3782,0.6458,1.0437,0.7796,1.302,1.2391,0.7952,1.0797,0.7618,0.9455,1.5096,0.9755,1.5358,1.0243,0.684,1.2831,0.6885,0.5645,0.3583,0.5874,-0.0114,0.3716
0.6133,1.4978,0.0361,1.1247,0.8658,0.4394,1.2876,0.4358,0.4004,0.6433,1.0722,0.7862,1.3305,1.2714,0.7924,1.0158,0.7272,0.9326,1.4882,0.9303,1.5477,1.0441,0.6778,1.3141,0.6688,0.572,0.4053,0.6024,-0.0722,0.2924
0.6695,1.4466,0.0219,1.1333,0.8842,0.4492,1.283,0.4814,0.4251,0.6449,1.0926,0.7831,1.3649,1.3215,0.774,0.9909,0.7311,0.9262,1.4847,0.9192,1.5847,1.0822,0.6826,1.3541,0.6526,0.5755,0.4529,0.603,-0.117,0.2351
0.7559,1.4378,0.053,1.1765,0.9266,0.5003,1.2823,0.5343,0.4483,0.6492,1.0982,0.7687,1.404,1.3871,0.7502,1.0054,0.7645,0.927,1.4986,0.9435,1.6455,1.1356,0.6982,1.4023,0.6411,0.575,0.4984,0.5907,-0.1393,0.2013
0.8684,1.4633,0.1229,1.2464,0.991,0.59,1.2834,0.59,0.4663,0.654,1.0843,0.7431,1.4449,1.4626,0.7341,1.0523,0.8118,0.9337,1.5259,0.9982,1.724,1.1989,0.7212,1.4563,0.6348,0.5703,0.54,0.568,-0.1374,0.1883
0.9966,1.5089,0.2179,1.3294,1.0704,0.7082,1.2832,0.6431,0.4768,0.6565,1.0499,0.7079,1.4834,1.5399,0.7372,1.119,0.8544,0.9436,1.5597,1.0721,1.81,1.2638,0.7457,1.5111,0.6328,0.5612,0.5767,0.5383,-0.1147,0.1901
1.1246,1.557,0.3199,1.4088,1.1542,0.8385,1.2782,0.6887,0.4796,0.6541,0.9982,0.6668,1.5145,1.6091,0.7658,1.1894,0.8752,0.9527,1.5918,1.1503,1.8906,1.3208,0.7636,1.56,0.6331,0.5472,0.6085,0.5046,-0.0779,0.1992
1.2328,1.5909,0.4102,1.4682,1.2295,0.9607,1.2656,0.7229,0.4769,0.6447,0.9362,0.6246,1.5339,1.6605,0.8194,1.2474,0.8633,0.9566,1.6143,1.2167,1.9526,1.3604,0.767,1.5952,0.6333,0.528,0.6356,0.4699,-0.0351,0.2086
1.3011,1.5977,0.4731,1.494,1.2838,1.0539,1.2444,0.7442,0.473,0.6274,0.8739,0.5872,1.5389,1.6859,0.8901,1.28,0.8161,0.9518,1.621,1.2569,1.9845,1.3745,0.7498,1.6093,0.6306,0.5036,0.6582,0.4367,0.006,0.213
1.3124,1.57,0.4987,1.4784,1.3065,1.1006,1.2155,0.7536,0.4733,0.6027,0.8217,0.5604,1.5289,1.6795,0.9656,1.2787,0.7388,0.9357,1.6074,1.2605,1.9787,1.3582,0.7088,1.5966,0.6225,0.4743,0.676,0.4072,0.0392,0.2092
1.2563,1.5073,0.4837,1.4199,1.2917,1.0906,1.1814,0.7539,0.4829,0.5728,0.7885,0.5486,1.505,1.6392,1.0317,1.2402,0.6415,0.9073,1.5707,1.2227,1.9325,1.3098,0.6439,1.554,0.6069,0.4408,0.688,0.3825,0.0598,0.1952
1.1328,1.4152,0.4314,1.3242,1.2391,1.0237,1.146,0.7492,0.5049,0.5407,0.7793,0.5537,1.4695,1.5663,1.0763,1.1666,0.5362,0.8666,1.5096,1.144,1.8479,1.2309,0.5582,1.4818,0.5828,0.4044,0.6928,0.3633,0.0647,0.1695
0.9546,1.3045,0.3518,1.2024,1.1541,0.9102,1.1124,0.7442,0.5396,0.5098,0.7943,0.5739,1.4254,1.4657,1.0898,1.0641,0.4332,0.814,1.4249,1.0303,1.7313,1.1264,0.4573,1.3839,0.5501,0.3661,0.6881,0.3489,0.0529,0.1317
0.7483,1.1884,0.2593,1.0696,1.047,0.7695,1.0826,0.7422,0.583,0.4828,0.8282,0.6036,1.3748,1.3444,1.0654,0.9422,0.3397,0.7496,1.3203,0.8915,1.5921,1.0036,0.3488,1.2667,0.5103,0.3272,0.6711,0.3376,0.0261,0.0827
0.5522,1.0797,0.1712,0.9412,0.9304,0.6262,1.0557,0.7449,0.6274,0.4608,0.8711,0.6335,1.3186,1.211,0.9974,0.8123,0.2594,0.6727,1.203,0.7394,1.4408,0.8709,0.2415,1.1385,0.4662,0.2877,0.637,0.3259,-0.011,0.0269
0.4105,0.9878,0.1043,0.8304,0.8164,0.5049,1.0282,0.7514,0.6622,0.443,0.9097,0.652,1.2556,1.0727,0.8798,0.6855,0.1932,0.5811,1.0831,0.5857,1.2872,0.7363,0.1437,1.0071,0.4211,0.2467,0.579,0.3088,-0.0513,-0.0281
0.3664,0.9167,0.0718,0.7457,0.714,0.4255,0.9945,0.7586,0.6766,0.4264,0.9304,0.647,1.1825,0.9347,0.7064,0.5711,0.1396,0.4716,0.9717,0.4393,1.1381,0.6058,0.0619,0.8788,0.3787,0.2021,0.4881,0.2803,-0.0867,-0.0717
0.453,0.8651,0.0812,0.6899,0.6279,0.3991,0.9483,0.7619,0.6612,0.4069,0.9217,0.6086,1.0955,0.7994,0.4718,0.4744,0.0959,0.3404,0.8786,0.3056,0.9973,0.4823,-0.0009,0.7567,0.3415,0.1509,0.3555,0.2347,-0.1101,-0.0928
0.6855,0.8274,0.133,0.6603,0.5581,0.4275,0.885,0.7572,0.6113,0.3809,0.877,0.5313,0.9914,0.6663,0.1746,0.3968,0.0582,0.1849,0.8098,0.1855,0.8649,0.3656,-0.0458,0.6414,0.3111,0.0907,0.1752,0.1685,-0.1175,-0.0834
1.0562,0.7967,0.2217,0.6507,0.5014,0.5034,0.803,0.7423,0.5279,0.3464,0.7964,0.4161,0.8692,0.5339,-0.1804,0.3358,0.0227,0.005,0.7659,0.0766,0.7386,0.2534,-0.0769,0.5312,0.2874,0.0205,-0.0523,0.0814,-0.1082,-0.0415
1.5342,0.7671,0.3363,0.6526,0.4528,0.6131,0.7048,0.7177,0.418,0.3037,0.6866,0.2708,0.7315,0.4002,-0.5796,0.286,-0.014,-0.1952,0.742,-0.0255,0.6153,0.143,-0.0998,0.4235,0.2689,-0.0586,-0.3178,-0.0229,-0.0852,0.0278
2.0698,0.7352,0.4635,0.6584,0.4076,0.7396,0.5964,0.6868,0.2933,0.2553,0.56,0.1088,0.5844,0.2646,-1.0016,0.2411,-0.0542,-0.4072,0.7291,-0.1251,0.492,0.0321,-0.1201,0.3161,0.2533,-0.1434,-0.6045,-0.1371,-0.0542,0.1128
