FP1,F3,F7,FC3,C3,C5,P3,P7,PO7,PO3,O1,Oz,Pz,CPz,FP2,Fz,F4,F8,FC4,FCz,Cz,C4,C6,P4,P8,PO8,PO4,O2,HEOG_left,HEOG_right
0.5368,0.2534,0.6265,0.0419,0.3936,0.6723,0.8256,0.6071,0.8862,0.416,0.7029,0.4375,1.1768,1.1219,-0.8393,0.0205,-0.1132,-0.4301,0.071,0.4039,0.8507,0.9196,-0.5019,1.1621,-0.374,-0.6207,0.7412,0.4346,0.1657,0.0958
0.0584,-0.0351,0.244,-0.1119,0.2081,0.4973,0.7547,0.6367,0.8095,0.4613,0.5624,0.3525,0.8955,0.7897,-0.9442,-0.2115,-0.3182,-0.52,-0.1836,0.1185,0.5623,0.4805,-0.5444,0.8358,-0.37,-0.4843,0.5136,0.3033,-0.1179,-0.1449
-0.3696,-0.3047,-0.0945,-0.2574,0.0356,0.3364,0.6878,0.6689,0.7422,0.5087,0.4417,0.2799,0.6342,0.4794,-1.0378,-0.4305,-0.5135,-0.6031,-0.425,-0.1503,0.2899,0.076,-0.5768,0.5402,-0.3547,-0.3515,0.3097,0.1955,-0.3712,-0.37
-0.7062,-0.5321,-0.3603,-0.3784,-0.1061,0.205,0.6301,0.705,0.6909,0.5604,0.3581,0.2316,0.4133,0.2128,-1.1081,-0.6181,-0.685,-0.6698,-0.6382,-0.3826,0.0518,-0.2624,-0.5912,0.3068,-0.3196,-0.2251,0.1545,0.126,-0.5709,-0.5623
-0.9253,-0.7033,-0.5404,-0.4661,-0.2064,0.1104,0.5823,0.7409,0.6607,0.616,0.321,0.2146,0.2458,0.0044,-1.1502,-0.762,-0.821,-0.7135,-0.809,-0.5643,-0.1392,-0.5126,-0.5828,0.154,-0.2597,-0.1058,0.0627,0.1034,-0.705,-0.7117
-1.0198,-0.8148,-0.6392,-0.5205,-0.2637,0.0505,0.5403,0.7678,0.654,0.6725,0.3303,0.2297,0.1361,-0.1403,-1.1657,-0.8563,-0.9126,-0.7307,-0.9245,-0.6892,-0.2775,-0.6648,-0.5509,0.0855,-0.176,0.0067,0.0373,0.1281,-0.7734,-0.8157
-1.0015,-0.8704,-0.6769,-0.5474,-0.284,0.0161,0.4975,0.7758,0.6683,0.7244,0.3766,0.2713,0.0809,-0.2239,-1.1602,-0.9013,-0.954,-0.7207,-0.9751,-0.7575,-0.3638,-0.7209,-0.4991,0.0921,-0.0752,0.1118,0.07,0.1917,-0.7863,-0.8776
-0.8974,-0.8783,-0.682,-0.5552,-0.2784,-0.0053,0.4469,0.7567,0.6953,0.7658,0.4431,0.3292,0.0714,-0.2551,-1.1392,-0.9013,-0.9432,-0.6847,-0.957,-0.7739,-0.4036,-0.6925,-0.4339,0.156,0.0314,0.207,0.1448,0.2783,-0.76,-0.9031
-0.7429,-0.8465,-0.6831,-0.5508,-0.259,-0.0249,0.384,0.7074,0.7216,0.791,0.5095,0.391,0.0964,-0.2451,-1.1047,-0.8622,-0.8817,-0.6247,-0.8741,-0.7454,-0.4047,-0.5984,-0.3623,0.2558,0.1309,0.2884,0.2419,0.3682,-0.7122,-0.8972
-0.5735,-0.7821,-0.6995,-0.5374,-0.2357,-0.0494,0.3087,0.6299,0.7317,0.7968,0.5561,0.4449,0.1451,-0.2055,-1.0529,-0.7907,-0.7754,-0.5425,-0.7386,-0.68,-0.3754,-0.4608,-0.2889,0.3701,0.2121,0.3534,0.3415,0.4426,-0.6578,-0.8615
-0.4176,-0.691,-0.7361,-0.514,-0.2138,-0.0802,0.2259,0.531,0.711,0.7824,0.5674,0.4824,0.2088,-0.1459,-0.9761,-0.6934,-0.6346,-0.4404,-0.5697,-0.5857,-0.3237,-0.3028,-0.2151,0.4809,0.2688,0.4021,0.4274,0.4889,-0.6061,-0.7946
-0.2927,-0.58,-0.7821,-0.4777,-0.1944,-0.1133,0.1439,0.4196,0.6503,0.75,0.5344,0.4988,0.2812,-0.0743,-0.8664,-0.5775,-0.4732,-0.3218,-0.3908,-0.4709,-0.2562,-0.1454,-0.1396,0.5745,0.3018,0.4385,0.4886,0.5026,-0.5598,-0.6937
-0.2044,-0.4588,-0.8157,-0.4267,-0.176,-0.1423,0.0723,0.3051,0.5476,0.7034,0.4552,0.4935,0.3578,0.0031,-0.7209,-0.4514,-0.3077,-0.1928,-0.2245,-0.3452,-0.1795,-0.0058,-0.0601,0.6419,0.3178,0.4692,0.5202,0.4884,-0.5164,-0.5581
-0.1481,-0.3399,-0.8114,-0.3622,-0.1564,-0.161,0.0196,0.195,0.4092,0.6473,0.3354,0.4688,0.4345,0.0807,-0.5451,-0.3247,-0.1546,-0.0624,-0.0889,-0.219,-0.1003,0.1043,0.024,0.678,0.3278,0.5013,0.5226,0.4572,-0.4706,-0.3916
-0.1128,-0.2364,-0.7502,-0.2893,-0.1346,-0.1656,-0.0094,0.0948,0.2482,0.5861,0.1858,0.4291,0.5072,0.1534,-0.3542,-0.2066,-0.0279,0.0586,0.0063,-0.1026,-0.0249,0.1795,0.1107,0.6817,0.3432,0.5398,0.5006,0.4228,-0.4176,-0.2039
-0.0852,-0.1583,-0.6266,-0.2146,-0.1107,-0.1552,-0.0137,0.0079,0.0816,0.5227,0.0213,0.3793,0.571,0.2165,-0.1702,-0.104,0.0644,0.1594,0.0618,-0.0039,0.0414,0.2212,0.1948,0.656,0.3724,0.5853,0.4616,0.3967,-0.355,-0.0101
-0.0545,-0.108,-0.4526,-0.1431,-0.085,-0.1315,0.0032,-0.0636,-0.0724,0.4581,-0.1422,0.3237,0.6202,0.2663,-0.0158,-0.0193,0.1221,0.2322,0.087,0.0732,0.0954,0.2366,0.2689,0.607,0.4175,0.6324,0.4144,0.3839,-0.2846,0.1723
-0.0149,-0.0796,-0.2556,-0.0767,-0.0578,-0.0979,0.0344,-0.1187,-0.1974,0.3911,-0.2899,0.2648,0.649,0.3004,0.0925,0.0498,0.1522,0.2743,0.0965,0.13,0.1364,0.2358,0.3261,0.5434,0.4728,0.6695,0.3667,0.3811,-0.2106,0.3261
0.0328,-0.0602,-0.0706,-0.0139,-0.0292,-0.0596,0.0698,-0.1571,-0.2819,0.3177,-0.4107,0.2029,0.651,0.3173,0.1506,0.1088,0.1659,0.2889,0.1045,0.171,0.1651,0.229,0.3611,0.4744,0.5261,0.6815,0.3237,0.3776,-0.1387,0.4385
0.0831,-0.0353,0.0701,0.0472,-0.0002,-0.0223,0.0979,-0.1795,-0.3207,0.2329,-0.4983,0.1369,0.6208,0.3158,0.1676,0.1632,0.1749,0.2833,0.1198,0.202,0.1828,0.2229,0.3715,0.4075,0.5616,0.6535,0.2871,0.3587,-0.0733,0.5026
0.1291,0.0061,0.148,0.1064,0.026,0.0076,0.108,-0.1877,-0.3155,0.1321,-0.5517,0.065,0.5543,0.2948,0.1631,0.2155,0.1866,0.2662,0.1428,0.2265,0.1894,0.219,0.3577,0.3461,0.5638,0.5758,0.2545,0.3108,-0.0162,0.5182
0.1659,0.0666,0.1644,0.1588,0.044,0.0246,0.0922,-0.184,-0.2738,0.014,-0.5741,-0.0126,0.4508,0.2531,0.1597,0.2633,0.2017,0.2442,0.167,0.2442,0.1837,0.2137,0.3227,0.2893,0.5218,0.4476,0.2209,0.2261,0.0337,0.4915
0.1935,0.1394,0.1393,0.1959,0.0474,0.025,0.0485,-0.1714,-0.207,-0.1176,-0.5709,-0.0928,0.3142,0.191,0.1749,0.3001,0.2154,0.2203,0.1816,0.2509,0.1631,0.2001,0.2713,0.2323,0.4322,0.2793,0.1797,0.1057,0.0803,0.433
0.2157,0.2109,0.1044,0.2084,0.0321,0.0088,-0.0182,-0.1527,-0.1269,-0.2517,-0.547,-0.1679,0.1545,0.1119,0.2152,0.3183,0.2194,0.1941,0.1773,0.2413,0.1264,0.1714,0.2102,0.1685,0.3005,0.0913,0.1259,-0.0399,0.1285,0.3557
0.2384,0.2666,0.0921,0.1915,-0.0013,-0.0189,-0.095,-0.1297,-0.0437,-0.3713,-0.5053,-0.2266,-0.012,0.0236,0.2749,0.3126,0.207,0.1636,0.1503,0.2119,0.0751,0.1247,0.1478,0.0929,0.1407,-0.0903,0.0573,-0.1928,0.1827,0.2728
0.2657,0.2963,0.1251,0.1485,-0.0453,-0.0484,-0.1634,-0.1027,0.0352,-0.456,-0.446,-0.2568,-0.1647,-0.0619,0.3382,0.2834,0.1761,0.1277,0.1045,0.1639,0.0154,0.0628,0.0928,0.0044,-0.0272,-0.2401,-0.0237,-0.3316,0.2449,0.1964
0.2975,0.2981,0.2093,0.0916,-0.0865,-0.0669,-0.2029,-0.0709,0.1043,-0.4869,-0.3688,-0.2492,-0.2818,-0.1297,0.3862,0.2367,0.1303,0.0876,0.0496,0.1041,-0.0426,-0.0059,0.0526,-0.0933,-0.1813,-0.3401,-0.1114,-0.4366,0.3133,0.135
0.3278,0.2782,0.3326,0.0386,-0.1094,-0.0623,-0.1966,-0.0332,0.1588,-0.4525,-0.2747,-0.2017,-0.3457,-0.1665,0.403,0.1829,0.0781,0.0471,-0.0019,0.0432,-0.0876,-0.0699,0.031,-0.193,-0.3028,-0.3836,-0.1984,-0.4946,0.3824,0.0927
0.3467,0.2479,0.4675,0.0073,-0.101,-0.0276,-0.1362,0.0099,0.1943,-0.3529,-0.1679,-0.1212,-0.3477,-0.1639,0.3812,0.1324,0.0299,0.0112,-0.0385,-0.0079,-0.11,-0.1178,0.0269,-0.2856,-0.3794,-0.376,-0.2772,-0.5025,0.4436,0.0688
0.3437,0.2191,0.5798,0.0097,-0.0557,0.0364,-0.0252,0.0558,0.207,-0.2015,-0.0562,-0.0233,-0.2908,-0.1213,0.3236,0.0928,-0.0045,-0.0146,-0.0523,-0.041,-0.1055,-0.1414,0.0349,-0.3628,-0.4076,-0.3325,-0.3418,-0.4674,0.4875,0.0579
0.3127,0.1997,0.6383,0.0476,0.023,0.1203,0.1206,0.0985,0.1952,-0.0231,0.0506,0.0713,-0.1895,-0.0466,0.2422,0.0672,-0.0184,-0.0262,-0.0404,-0.053,-0.076,-0.1375,0.0473,-0.4179,-0.3921,-0.2734,-0.3875,-0.405,0.507,0.0534
0.2556,0.1921,0.6253,0.1125,0.1225,0.2082,0.2765,0.1305,0.1599,0.1511,0.1422,0.1413,-0.0671,0.0456,0.1557,0.0537,-0.0097,-0.0217,-0.0048,-0.046,-0.0293,-0.1084,0.0571,-0.447,-0.3442,-0.2198,-0.4105,-0.3355,0.4999,0.0497
0.1826,0.1925,0.542,0.1877,0.2245,0.2823,0.414,0.144,0.1051,0.2896,0.2107,0.1702,0.0496,0.1378,0.0854,0.0483,0.02,-0.001,0.0486,-0.0258,0.0238,-0.06,0.0603,-0.4484,-0.2781,-0.1886,-0.4085,-0.2786,0.4704,0.0454
0.1102,0.1935,0.4083,0.2538,0.3098,0.3264,0.5068,0.133,0.0369,0.3671,0.2511,0.15,0.136,0.2133,0.0519,0.0465,0.0655,0.0344,0.1116,0.0008,0.0724,-0.0009,0.0571,-0.4231,-0.2078,-0.1891,-0.3811,-0.2482,0.4279,0.0433
0.0548,0.1873,0.2564,0.2941,0.363,0.3304,0.5357,0.0944,-0.0373,0.3684,0.2626,0.0826,0.1742,0.2596,0.0704,0.0463,0.1205,0.0815,0.175,0.0283,0.1082,0.0604,0.0511,-0.3756,-0.1436,-0.221,-0.3317,-0.2489,0.3843,0.0492
0.0283,0.1693,0.1214,0.2998,0.3756,0.2916,0.4921,0.0289,-0.1118,0.291,0.247,-0.0213,0.1563,0.2703,0.1463,0.0483,0.1782,0.1367,0.2308,0.0537,0.1276,0.116,0.0473,-0.3144,-0.0912,-0.274,-0.2684,-0.2752,0.35,0.0685
0.0344,0.1406,0.0313,0.2716,0.3476,0.2156,0.378,-0.0596,-0.1835,0.1442,0.2085,-0.145,0.0845,0.2453,0.2726,0.0561,0.2323,0.1946,0.2736,0.0772,0.131,0.16,0.0499,-0.2515,-0.0519,-0.3309,-0.2034,-0.3144,0.3307,0.1034
0.0681,0.1087,0.0007,0.2198,0.2871,0.1143,0.2059,-0.1647,-0.2536,-0.0534,0.1514,-0.2703,-0.0305,0.1893,0.43,0.0742,0.2786,0.2487,0.3012,0.101,0.1223,0.1886,0.0606,-0.2009,-0.025,-0.3735,-0.1509,-0.3511,0.3264,0.1521
0.1188,0.0865,0.0293,0.1621,0.2079,0.004,-0.0049,-0.2784,-0.3267,-0.278,0.0801,-0.381,-0.1723,0.1105,0.592,0.1073,0.3148,0.2925,0.3151,0.1286,0.1068,0.201,0.0779,-0.1752,-0.0097,-0.3882,-0.1238,-0.372,0.332,0.2087
0.1745,0.0885,0.1046,0.1183,0.1266,-0.0982,-0.2309,-0.3917,-0.4082,-0.5045,-0.0006,-0.4655,-0.3227,0.0185,0.7321,0.1584,0.3412,0.3212,0.3198,0.1633,0.0901,0.1991,0.0983,-0.1825,-0.0053,-0.3704,-0.1301,-0.3689,0.3401,0.2663
0.2254,0.1265,0.2069,0.1058,0.0584,-0.1777,-0.4487,-0.4961,-0.5011,-0.7104,-0.0851,-0.5176,-0.4651,-0.0775,0.8322,0.2279,0.3607,0.3336,0.3212,0.207,0.076,0.1865,0.1178,-0.2246,-0.0119,-0.3247,-0.1707,-0.34,0.345,0.3191
0.2659,0.2042,0.316,0.1332,0.0135,-0.2261,-0.638,-0.5838,-0.6035,-0.8784,-0.1669,-0.5367,-0.5881,-0.1705,0.886,0.3124,0.3774,0.3323,0.3252,0.2587,0.0655,0.1679,0.1331,-0.2962,-0.0283,-0.2626,-0.2388,-0.289,0.3443,0.3638
0.295,0.3146,0.4149,0.1981,-0.0057,-0.2422,-0.7846,-0.6487,-0.7074,-0.9977,-0.2391,-0.5271,-0.6859,-0.2558,0.8994,0.4049,0.3952,0.3226,0.3363,0.3145,0.0568,0.1472,0.1423,-0.3874,-0.0526,-0.1986,-0.3214,-0.2237,0.3398,0.399
0.3146,0.4407,0.4925,0.2862,-0.0045,-0.2319,-0.8811,-0.6858,-0.8004,-1.0645,-0.2953,-0.4967,-0.7583,-0.3317,0.8854,0.4954,0.4162,0.3103,0.3564,0.3674,0.0457,0.1264,0.1442,-0.485,-0.0816,-0.1449,-0.4017,-0.1541,0.3365,0.4248
0.3273,0.5588,0.5435,0.3762,0.0061,-0.2056,-0.9269,-0.6914,-0.868,-1.0804,-0.3299,-0.4549,-0.8087,-0.3981,0.8587,0.5718,0.4392,0.2992,0.3834,0.4087,0.0269,0.1048,0.1374,-0.5763,-0.1125,-0.109,-0.4628,-0.0905,0.3392,0.4407
0.335,0.6447,0.5667,0.445,0.0132,-0.175,-0.9266,-0.6631,-0.8973,-1.0507,-0.3384,-0.4099,-0.8413,-0.4559,0.8313,0.6225,0.4591,0.2899,0.4105,0.4298,-0.0044,0.0785,0.1199,-0.651,-0.143,-0.0915,-0.4912,-0.0408,0.3503,0.4457
0.3372,0.6798,0.5633,0.4746,0.0063,-0.1504,-0.8875,-0.6012,-0.879,-0.9828,-0.3178,-0.3671,-0.8591,-0.5057,0.8101,0.6376,0.4678,0.28,0.4262,0.4234,-0.0509,0.0422,0.0895,-0.7028,-0.1714,-0.0874,-0.4795,-0.0085,0.3675,0.4381
0.3317,0.6558,0.5355,0.4569,-0.0192,-0.1373,-0.8185,-0.5102,-0.8094,-0.8852,-0.267,-0.3278,-0.8624,-0.5468,0.7966,0.6119,0.4566,0.2657,0.4176,0.3866,-0.1118,-0.0091,0.0443,-0.7295,-0.1964,-0.0899,-0.4278,0.0073,0.3838,0.4168
0.3154,0.5767,0.4873,0.3959,-0.0604,-0.1363,-0.7274,-0.3991,-0.6904,-0.7666,-0.1879,-0.2903,-0.8488,-0.5759,0.7884,0.5471,0.42,0.2436,0.3756,0.3223,-0.182,-0.0762,-0.0165,-0.7315,-0.2164,-0.0934,-0.3425,0.0111,0.3894,0.3821
0.2863,0.4581,0.424,0.3056,-0.1076,-0.1425,-0.6207,-0.2807,-0.5296,-0.6359,-0.0856,-0.2514,-0.8135,-0.5875,0.7806,0.4525,0.3594,0.2128,0.3,0.2398,-0.2516,-0.1539,-0.0916,-0.7102,-0.2298,-0.0973,-0.2349,0.0086,0.3744,0.3354
0.2451,0.3223,0.3523,0.2059,-0.1462,-0.1476,-0.5031,-0.1692,-0.3401,-0.5022,0.0315,-0.2085,-0.7517,-0.5746,0.7675,0.344,0.2836,0.1755,0.2012,0.1539,-0.3075,-0.2305,-0.1762,-0.6669,-0.2355,-0.1055,-0.1184,0.0044,0.3325,0.2794
0.1973,0.193,0.2796,0.1173,-0.1614,-0.1429,-0.3784,-0.0776,-0.1387,-0.3747,0.1521,-0.1611,-0.6605,-0.5308,0.7459,0.2415,0.207,0.1376,0.0976,0.0819,-0.3364,-0.2901,-0.2615,-0.6034,-0.2334,-0.124,-0.0075,0.0014,0.2633,0.2172
0.1523,0.09,0.2128,0.0558,-0.1418,-0.122,-0.2502,-0.0147,0.0559,-0.2621,0.2641,-0.1112,-0.5407,-0.4529,0.7169,0.1642,0.1463,0.1073,0.0107,0.0402,-0.3274,-0.3167,-0.3348,-0.5229,-0.2239,-0.1573,0.0842,0.0007,0.174,0.152
0.1219,0.0258,0.1585,0.0309,-0.0822,-0.0823,-0.1231,0.0166,0.2259,-0.1714,0.3558,-0.0632,-0.3973,-0.3421,0.6877,0.1272,0.1158,0.0941,-0.0414,0.0402,-0.2749,-0.2982,-0.3807,-0.4317,-0.2076,-0.2044,0.1456,0.003,0.078,0.0876
0.116,0.0053,0.1228,0.0452,0.0154,-0.0255,-0.0023,0.0191,0.3562,-0.1072,0.4176,-0.0227,-0.2397,-0.2052,0.6712,0.1387,0.1248,0.1068,-0.0483,0.0866,-0.1803,-0.2299,-0.3846,-0.3385,-0.184,-0.2576,0.1695,0.0093,-0.0073,0.0284
0.1397,0.0268,0.1118,0.0962,0.1428,0.0442,0.1061,0.0005,0.4357,-0.0712,0.4428,0.0039,-0.0794,-0.053,0.6828,0.1989,0.175,0.1516,-0.0096,0.1767,-0.0513,-0.1156,-0.3365,-0.2535,-0.1511,-0.3048,0.1549,0.021,-0.0657,-0.0201
0.1898,0.0851,0.1302,0.1786,0.288,0.1212,0.1962,-0.0295,0.4583,-0.0625,0.4281,0.0111,0.0707,0.1015,0.7356,0.3009,0.2615,0.2305,0.0663,0.3011,0.0994,0.033,-0.2335,-0.1854,-0.1061,-0.3327,0.1073,0.039,-0.0862,-0.0522
0.2548,0.1731,0.1789,0.2856,0.4372,0.1999,0.2628,-0.0623,0.423,-0.0781,0.3738,-0.0049,0.1993,0.2451,0.8347,0.4324,0.3741,0.3398,0.1658,0.4461,0.2561,0.1995,-0.0819,-0.1391,-0.047,-0.3319,0.0382,0.0634,-0.0671,-0.063
0.3163,0.2833,0.2528,0.41,0.5771,0.2754,0.3022,-0.0926,0.3346,-0.1134,0.2843,-0.0452,0.297,0.3666,0.9725,0.5782,0.5003,0.4707,0.275,0.5956,0.4031,0.3665,0.1047,-0.1138,0.0257,-0.3004,-0.0368,0.0926,-0.0166,-0.0502
0.3526,0.4082,0.3406,0.5439,0.6965,0.3435,0.3128,-0.1191,0.2032,-0.1639,0.1677,-0.1077,0.3575,0.4576,1.1279,0.7227,0.6278,0.6102,0.3844,0.7341,0.5269,0.5193,0.3074,-0.103,0.108,-0.245,-0.101,0.1239,0.0494,-0.0151
0.3438,0.5391,0.4265,0.678,0.7863,0.4003,0.2948,-0.1448,0.0436,-0.2252,0.0357,-0.1865,0.3775,0.513,1.2709,0.8522,0.747,0.7433,0.4898,0.8488,0.6179,0.648,0.5068,-0.0971,0.1912,-0.1799,-0.1405,0.1535,0.1114,0.0378
0.2783,0.6659,0.4956,0.8012,0.8399,0.4415,0.2498,-0.1752,-0.126,-0.2941,-0.0979,-0.2739,0.3554,0.5297,1.3715,0.9559,0.8504,0.8558,0.5908,0.9298,0.6698,0.7469,0.6853,-0.0867,0.2637,-0.1228,-0.1475,0.177,0.1524,0.1019
0.1568,0.7758,0.5382,0.9005,0.8525,0.4618,0.18,-0.2168,-0.2874,-0.3689,-0.2196,-0.3611,0.2906,0.505,1.4092,1.0262,0.9322,0.9364,0.6864,0.9706,0.6795,0.8126,0.8288,-0.0672,0.3136,-0.0904,-0.1229,0.1902,0.1623,0.1708
-0.0072,0.8539,0.5529,0.9617,0.8208,0.4548,0.0869,-0.2751,-0.4253,-0.4498,-0.3196,-0.441,0.182,0.4359,1.3797,1.0578,0.9864,0.9772,0.7715,0.967,0.6452,0.8416,0.9265,-0.0424,0.331,-0.0939,-0.0772,0.1885,0.1399,0.2393
-0.1905,0.8851,0.5458,0.9716,0.743,0.4136,-0.0284,-0.3537,-0.5306,-0.5387,-0.3942,-0.5101,0.0289,0.3192,1.2965,1.0473,1.0068,0.9748,0.8357,0.9165,0.5656,0.8293,0.9702,-0.0244,0.3111,-0.1367,-0.0289,0.1678,0.0927,0.3038
-0.3665,0.8569,0.5261,0.9198,0.6187,0.332,-0.1651,-0.4528,-0.6025,-0.6377,-0.4459,-0.5688,-0.1685,0.1526,1.1857,0.9927,0.987,0.9293,0.8645,0.8182,0.4398,0.7708,0.9534,-0.0308,0.2535,-0.2146,0.0003,0.1237,0.0339,0.3614
-0.5113,0.762,0.5022,0.8014,0.4498,0.2069,-0.3216,-0.5681,-0.6476,-0.748,-0.4821,-0.6203,-0.4063,-0.0627,1.0778,0.8936,0.9225,0.844,0.8437,0.6733,0.2682,0.6626,0.8727,-0.0787,0.1625,-0.3175,-0.0094,0.0534,-0.0227,0.4095
-0.6091,0.6011,0.4775,0.6186,0.2417,0.04,-0.4935,-0.6913,-0.6777,-0.868,-0.5104,-0.6688,-0.6755,-0.3198,0.9983,0.7521,0.8118,0.7248,0.763,0.4859,0.0543,0.5054,0.7299,-0.1791,0.0441,-0.4317,-0.0698,-0.043,-0.0658,0.4449
-0.6537,0.3843,0.4504,0.3819,0.0035,-0.1611,-0.6736,-0.8109,-0.7057,-0.9923,-0.5362,-0.7167,-0.9612,-0.6054,0.9615,0.5741,0.6584,0.58,0.6198,0.2643,-0.1941,0.3056,0.534,-0.332,-0.0944,-0.5432,-0.1819,-0.1613,-0.0902,0.4641
-0.6483,0.1304,0.4158,0.1097,-0.2508,-0.3824,-0.8513,-0.9136,-0.7417,-1.1118,-0.5602,-0.7629,-1.2434,-0.9004,0.9687,0.3695,0.4711,0.4199,0.4206,0.0217,-0.4636,0.076,0.3019,-0.5257,-0.2454,-0.6399,-0.335,-0.2925,-0.0965,0.4644
-0.6033,-0.1348,0.369,-0.1731,-0.5033,-0.6053,-1.014,-0.9874,-0.7907,-1.2159,-0.5796,-0.8036,-1.4996,-1.1817,1.0102,0.1532,0.2641,0.2568,0.1813,-0.2238,-0.7355,-0.1652,0.057,-0.7384,-0.4005,-0.7136,-0.5091,-0.4244,-0.0901,0.4451
-0.5331,-0.3818,0.3089,-0.4377,-0.7332,-0.8079,-1.1485,-1.0246,-0.8514,-1.2946,-0.5896,-0.8333,-1.7084,-1.4255,1.0697,-0.0558,0.0564,0.1039,-0.0742,-0.45,-0.9874,-0.3963,-0.1747,-0.9424,-0.55,-0.7609,-0.6797,-0.5443,-0.0778,0.4078
-0.4524,-0.5808,0.2406,-0.6549,-0.919,-0.9688,-1.2436,-1.0238,-0.917,-1.3411,-0.5857,-0.8471,-1.8525,-1.6107,1.1295,-0.2357,-0.1299,-0.0254,-0.3156,-0.633,-1.1951,-0.5944,-0.3687,-1.1099,-0.6823,-0.7826,-0.8228,-0.6413,-0.0654,0.3579
-0.3739,-0.7057,0.1752,-0.7987,-1.0415,-1.0701,-1.2912,-0.9908,-0.9776,-1.3535,-0.5655,-0.8425,-1.9207,-1.7208,1.1751,-0.3638,-0.271,-0.1187,-0.5094,-0.7496,-1.336,-0.7382,-0.5061,-1.2181,-0.7856,-0.7826,-0.9198,-0.7086,-0.0557,0.3039
-0.3065,-0.7379,0.1266,-0.8501,-1.0867,-1.1003,-1.2884,-0.9378,-1.0243,-1.3359,-0.5291,-0.821,-1.9097,-1.7465,1.199,-0.4204,-0.3448,-0.1653,-0.6234,-0.781,-1.3921,-0.8102,-0.5754,-1.2526,-0.8486,-0.7668,-0.9612,-0.744,-0.048,0.2572
-0.2558,-0.6696,0.108,-0.8014,-1.0492,-1.0573,-1.2384,-0.8815,-1.0517,-1.2975,-0.4802,-0.7887,-1.8241,-1.6863,1.2027,-0.3918,-0.3347,-0.1579,-0.633,-0.7171,-1.3536,-0.8003,-0.5742,-1.2103,-0.8632,-0.741,-0.9475,-0.7502,-0.0397,0.2303
-0.2244,-0.5071,0.1277,-0.6588,-0.9345,-0.9501,-1.1507,-0.8396,-1.0611,-1.2516,-0.4257,-0.7551,-1.6763,-1.5482,1.1957,-0.2748,-0.2341,-0.0941,-0.528,-0.5594,-1.2219,-0.7082,-0.5082,-1.0995,-0.8258,-0.7098,-0.8887,-0.7338,-0.0287,0.2342
-0.2143,-0.2716,0.1851,-0.4433,-0.76,-0.7979,-1.0407,-0.8272,-1.0597,-1.2124,-0.3752,-0.7317,-1.485,-1.3487,1.1915,-0.0791,-0.0499,0.0217,-0.3166,-0.3233,-1.0107,-0.5452,-0.3903,-0.9389,-0.7386,-0.6756,-0.8017,-0.7031,-0.0156,0.2751
-0.2269,0.0026,0.2693,-0.188,-0.5521,-0.6272,-0.9262,-0.8533,-1.058,-1.1922,-0.3384,-0.7284,-1.2726,-1.1112,1.2017,0.1719,0.1968,0.1779,-0.0256,-0.0368,-0.7446,-0.3326,-0.2388,-0.7538,-0.61,-0.6385,-0.7058,-0.6667,-0.0047,0.3522
-0.2631,0.2732,0.3595,0.0674,-0.3415,-0.4665,-0.8242,-0.9178,-1.0649,-1.1976,-0.3224,-0.7505,-1.0617,-0.8624,1.2301,0.4444,0.4732,0.3553,0.3035,0.2636,-0.4558,-0.0989,-0.0747,-0.5708,-0.4537,-0.597,-0.6179,-0.6304,-0.0035,0.4565
-0.3213,0.4971,0.4296,0.2837,-0.1569,-0.3402,-0.7458,-1.01,-1.0836,-1.2263,-0.3281,-0.797,-0.8707,-0.6281,1.2702,0.6988,0.7397,0.5307,0.6216,0.5389,-0.178,0.1258,0.0826,-0.4119,-0.2871,-0.5498,-0.5481,-0.5966,-0.0195,0.573
-0.3962,0.6371,0.4547,0.4293,-0.0196,-0.2634,-0.6939,-1.11,-1.1084,-1.2673,-0.349,-0.8596,-0.7114,-0.4288,1.3068,0.8967,0.9558,0.6797,0.8796,0.7536,0.0586,0.3143,0.2176,-0.29,-0.1286,-0.4974,-0.4976,-0.5634,-0.0587,0.6825
-0.4793,0.6679,0.4186,0.4846,0.059,-0.2402,-0.6631,-1.1928,-1.126,-1.3029,-0.3725,-0.9254,-0.5884,-0.2787,1.3203,1.0062,1.0862,0.7808,1.0351,0.8807,0.2314,0.4455,0.3215,-0.2082,0.0056,-0.4428,-0.4605,-0.5261,-0.1232,0.7657
-0.5628,0.5787,0.3176,0.443,0.0772,-0.2649,-0.6429,-1.2333,-1.1194,-1.3141,-0.3836,-0.9797,-0.5014,-0.1851,1.2934,1.0061,1.1058,0.8184,1.0581,0.9043,0.326,0.5056,0.3905,-0.1616,0.1035,-0.3909,-0.4269,-0.4788,-0.2116,0.8053
-0.6441,0.3733,0.1597,0.31,0.04,-0.3261,-0.622,-1.2132,-1.0757,-1.2866,-0.3704,-1.0099,-0.4485,-0.1511,1.2146,0.8879,1.0023,0.7843,0.9345,0.8195,0.3361,0.4881,0.4231,-0.1424,0.1595,-0.347,-0.3889,-0.417,-0.3201,0.7878
-0.7293,0.0683,-0.0397,0.0994,-0.0453,-0.4114,-0.5943,-1.1251,-0.991,-1.2162,-0.3287,-1.0095,-0.4304,-0.1779,1.0796,0.655,0.7773,0.6769,0.668,0.6307,0.2605,0.3916,0.4168,-0.1441,0.1743,-0.316,-0.3443,-0.3397,-0.4446,0.7048
-0.8329,-0.3116,-0.264,-0.1713,-0.1723,-0.5121,-0.5619,-0.9757,-0.8739,-1.1112,-0.2637,-0.9789,-0.4518,-0.267,0.8889,0.3211,0.4447,0.5,0.2793,0.3492,0.1016,0.2198,0.3663,-0.1652,0.1538,-0.3012,-0.2989,-0.2516,-0.5824,0.553
-0.9728,-0.7378,-0.4999,-0.4836,-0.3373,-0.6252,-0.5357,-0.7849,-0.7435,-0.9914,-0.1888,-0.9258,-0.5211,-0.4198,0.6456,-0.0927,0.0287,0.2612,-0.197,-0.0093,-0.1355,-0.0196,0.265,-0.2094,0.1066,-0.3054,-0.2655,-0.1625,-0.7322,0.3347
-1.1627,-1.1817,-0.7381,-0.821,-0.5383,-0.7525,-0.5324,-0.5812,-0.6238,-0.8826,-0.1212,-0.8624,-0.6469,-0.6361,0.3539,-0.5598,-0.4394,-0.0283,-0.7156,-0.4251,-0.4419,-0.3132,0.1082,-0.2828,0.0424,-0.3306,-0.2597,-0.086,-0.8935,0.0589
-1.4052,-1.6167,-0.9711,-1.1681,-0.772,-0.8974,-0.5687,-0.3958,-0.5368,-0.8101,-0.077,-0.8022,-0.8341,-0.9108,0.0214,-1.0502,-0.9234,-0.353,-1.2266,-0.8753,-0.8037,-0.6417,-0.1026,-0.3903,-0.0303,-0.3782,-0.2952,-0.0365,-1.0642,-0.2584
-1.6881,-2.0187,-1.1901,-1.5094,-1.0304,-1.0607,-0.656,-0.2558,-0.4959,-0.7923,-0.0664,-0.7562,-1.0789,-1.2314,-0.3374,-1.5316,-1.3857,-0.6923,-1.6815,-1.3331,-1.2002,-0.9803,-0.3556,-0.5315,-0.1049,-0.448,-0.379,-0.0252,-1.2392,-0.5944
-1.9852,-2.3664,-1.3829,-1.8276,-1.2986,-1.2377,-0.7957,-0.1788,-0.5024,-0.8358,-0.0918,-0.7304,-1.3672,-1.5766,-0.697,-1.9713,-1.7899,-1.0202,-2.0404,-1.7682,-1.6039,-1.3006,-0.6283,-0.6992,-0.1766,-0.5375,-0.5095,-0.0573,-1.409,-0.9204
-2.2611,-2.6403,-1.534,-2.1028,-1.5546,-1.4169,-0.9769,-0.1703,-0.5454,-0.935,-0.1473,-0.7249,-1.6745,-1.9178,-1.0211,-2.3385,-2.1047,-1.3066,-2.2767,-2.1488,-1.9821,-1.5748,-0.89,-0.8791,-0.242,-0.6414,-0.6758,-0.1297,-1.5608,-1.2055
-2.4792,-2.8236,-1.6271,-2.3127,-1.7714,-1.5803,-1.1779,-0.2228,-0.6064,-1.0731,-0.2219,-0.7354,-1.9686,-2.2214,-1.2664,-2.606,-2.3062,-1.521,-2.38,-2.4436,-2.2996,-1.7786,-1.1066,-1.0514,-0.2984,-0.7517,-0.8596,-0.2319,-1.6797,-1.4212
-2.6093,-2.9028,-1.6481,-2.4355,-1.9214,-1.7065,-1.3697,-0.3188,-0.6655,-1.2266,-0.3022,-0.7551,-2.2139,-2.4534,-1.3921,-2.7527,-2.3796,-1.6372,-2.3534,-2.625,-2.5233,-1.8935,-1.248,-1.194,-0.3436,-0.8599,-1.0376,-0.3482,-1.7518,-1.5459
-2.634,-2.8697,-1.5889,-2.4534,-1.9805,-1.7734,-1.5208,-0.4347,-0.7079,-1.3702,-0.376,-0.7774,-2.3769,-2.5841,-1.3715,-2.7655,-2.3198,-1.6385,-2.2093,-2.6726,-2.6258,-1.9078,-1.2929,-1.2854,-0.3759,-0.9582,-1.1852,-0.4614,-1.767,-1.5695
-2.5523,-2.7235,-1.4496,-2.3569,-1.9333,-1.7631,-1.6033,-0.546,-0.7279,-1.4816,-0.4338,-0.7972,-2.4316,-2.5922,-1.1993,-2.6405,-2.1312,-1.5207,-1.9645,-2.576,-2.5893,-1.8166,-1.2324,-1.3075,-0.3938,-1.041,-1.2795,-0.5555,-1.7213,-1.4954
-2.3776,-2.4725,-1.2394,-2.1475,-1.7755,-1.6657,-1.5978,-0.6325,-0.7288,-1.5443,-0.4695,-0.8114,-2.3632,-2.4682,-0.8945,-2.3851,-1.8274,-1.293,-1.6375,-2.3368,-2.409,-1.6224,-1.0704,-1.2497,-0.3962,-1.1039,-1.304,-0.6186,-1.6184,-1.3391
-2.1347,-2.135,-0.9765,-1.8395,-1.5161,-1.4825,-1.4971,-0.6818,-0.7198,-1.5498,-0.4802,-0.818,-2.1717,-2.2168,-0.4956,-2.0173,-1.431,-0.9767,-1.2485,-1.9704,-2.0939,-1.3355,-0.822,-1.1111,-0.3824,-1.1428,-1.2509,-0.6425,-1.4699,-1.1257
-1.8531,-1.7379,-0.6863,-1.4588,-1.1761,-1.2271,-1.3078,-0.6915,-0.7123,-1.4976,-0.4657,-0.8152,-1.8717,-1.8566,-0.0515,-1.5657,-0.9715,-0.6011,-0.8202,-1.5044,-1.6671,-0.9746,-0.5105,-0.9022,-0.3518,-1.1525,-1.1234,-0.6241,-1.2943,-0.8838
-1.5622,-1.3139,-0.3981,-1.0395,-0.7862,-0.9235,-1.0491,-0.668,-0.7152,-1.3943,-0.4286,-0.8008,-1.491,-1.4184,0.3882,-1.0658,-0.4839,-0.1995,-0.3787,-0.9759,-1.1633,-0.5663,-0.1636,-0.6438,-0.3042,-1.1267,-0.9348,-0.564,-1.1136,-0.6413
-1.2869,-0.897,-0.1415,-0.6188,-0.3818,-0.6031,-0.749,-0.6243,-0.7317,-1.2524,-0.374,-0.7728,-1.0659,-0.9407,0.7818,-0.5568,-0.0042,0.1956,0.0478,-0.4272,-0.6243,-0.1422,0.1906,-0.3632,-0.2404,-1.0595,-0.7059,-0.4672,-0.9501,-0.4203
-1.0464,-0.5185,0.0582,-0.2315,0.0018,-0.2985,-0.4405,-0.5762,-0.759,-1.0882,-0.3091,-0.7303,-0.6368,-0.4653,1.1,-0.0764,0.4332,0.5557,0.4305,0.0991,-0.0944,0.2639,0.526,-0.0899,-0.1627,-0.9476,-0.4613,-0.3425,-0.8224,-0.2358
-0.8532,-0.2029,0.1833,0.0939,0.334,-0.039,-0.1558,-0.5384,-0.7888,-0.9203,-0.2424,-0.6749,-0.2426,-0.0318,1.3267,0.3427,0.7997,0.858,0.7443,0.5652,0.3846,0.62,0.8203,0.1494,-0.0754,-0.7924,-0.2252,-0.2021,-0.7429,-0.0965
-0.7141,0.0336,0.2265,0.3386,0.592,0.1542,0.0778,-0.5216,-0.8094,-0.7671,-0.183,-0.611,0.0842,0.3268,1.4568,0.6764,1.0752,1.0867,0.9713,0.9417,0.7784,0.9002,1.0554,0.3341,0.0148,-0.6014,-0.0184,-0.0604,-0.7163,-0.0064
-0.6304,0.1849,0.1928,0.4946,0.7631,0.2707,0.2417,-0.53,-0.8096,-0.6445,-0.139,-0.5465,0.3204,0.5881,1.4937,0.9107,1.2495,1.2325,1.104,1.2102,1.0632,1.088,1.2181,0.4525,0.0993,-0.3886,0.1442,0.0677,-0.7395,0.0326
-0.5978,0.2546,0.0994,0.5647,0.8458,0.3124,0.3281,-0.5606,-0.7814,-0.5633,-0.1166,-0.4908,0.4549,0.7418,1.4463,1.043,1.3234,1.293,1.1468,1.3647,1.2289,1.1787,1.3008,0.5021,0.1682,-0.1737,0.2546,0.169,-0.8029,0.0201
-0.6062,0.2546,-0.0258,0.5611,0.8488,0.292,0.3404,-0.6041,-0.7231,-0.528,-0.1184,-0.4531,0.4887,0.7908,1.3289,1.0813,1.3078,1.2725,1.1148,1.4111,1.2785,1.1803,1.3026,0.4893,0.2122,0.0199,0.3113,0.2342,-0.8917,-0.0422
-0.6411,0.2026,-0.1499,0.5025,0.7886,0.2297,0.2914,-0.6477,-0.6395,-0.5361,-0.1422,-0.4396,0.433,0.7481,1.1599,1.0412,1.221,1.1821,1.0298,1.3646,1.227,1.1107,1.2305,0.4269,0.2245,0.1691,0.3186,0.2596,-0.9891,-0.149
-0.6864,0.1188,-0.2422,0.41,0.6859,0.1476,0.1999,-0.6791,-0.5412,-0.579,-0.181,-0.4526,0.3059,0.6337,0.9616,0.942,1.0843,1.038,0.9143,1.2453,1.0965,0.9933,1.0984,0.3302,0.2025,0.2551,0.2838,0.2477,-1.0789,-0.29
-0.728,0.0211,-0.2812,0.3032,0.5609,0.0646,0.0861,-0.6904,-0.442,-0.6437,-0.2234,-0.4899,0.1284,0.4692,0.7588,0.8026,0.9182,0.8601,0.7863,1.0739,0.9116,0.851,0.9259,0.2136,0.1494,0.2681,0.2153,0.206,-1.1489,-0.4506
-0.7576,-0.077,-0.26,0.1972,0.4305,-0.0076,-0.0317,-0.6805,-0.355,-0.7152,-0.2563,-0.5457,-0.0789,0.2745,0.5745,0.6386,0.7389,0.6689,0.6555,0.8683,0.6949,0.7021,0.7358,0.088,0.0743,0.2097,0.1208,0.1453,-1.1922,-0.6126
-0.7744,-0.1682,-0.1877,0.1016,0.3063,-0.0648,-0.1395,-0.6542,-0.29,-0.7783,-0.2671,-0.6119,-0.298,0.0661,0.4265,0.4615,0.5577,0.4831,0.5246,0.6424,0.4649,0.5577,0.5499,-0.0402,-0.0097,0.093,0.0069,0.0773,-1.2077,-0.757
-0.7854,-0.2499,-0.0865,0.0207,0.1951,-0.1089,-0.2277,-0.6194,-0.2512,-0.8197,-0.2471,-0.6791,-0.5132,-0.1433,0.3234,0.2804,0.3822,0.3174,0.3922,0.4073,0.2363,0.4235,0.3861,-0.1677,-0.0877,-0.0608,-0.1206,0.0123,-1.1982,-0.8672
-0.8017,-0.3217,0.0136,-0.0436,0.1008,-0.1436,-0.2902,-0.583,-0.2372,-0.8293,-0.1931,-0.7385,-0.7111,-0.3428,0.2639,0.1036,0.2185,0.1818,0.2585,0.1736,0.0206,0.3014,0.2558,-0.2916,-0.1469,-0.227,-0.2551,-0.0426,-1.1685,-0.931
-0.8349,-0.3833,0.083,-0.0911,0.0256,-0.1722,-0.3235,-0.5482,-0.2421,-0.8025,-0.1096,-0.7834,-0.8795,-0.5227,0.2384,-0.0594,0.0735,0.0811,0.1277,-0.0474,-0.1717,0.193,0.1631,-0.4078,-0.1794,-0.3827,-0.3884,-0.0842,-1.1233,-0.9431
-0.8922,-0.4326,0.1012,-0.1223,-0.0289,-0.1948,-0.3267,-0.5136,-0.2577,-0.741,-0.0082,-0.8102,-1.008,-0.6736,0.2325,-0.198,-0.0452,0.0156,0.0093,-0.2428,-0.3313,0.1006,0.1057,-0.5094,-0.1837,-0.5114,-0.51,-0.1135,-1.0664,-0.9057
-0.9736,-0.466,0.0629,-0.1383,-0.0618,-0.2094,-0.3021,-0.4756,-0.2755,-0.6533,0.0936,-0.8204,-1.0891,-0.7879,0.2313,-0.3024,-0.1309,-0.0186,-0.0855,-0.4002,-0.4508,0.0279,0.0779,-0.5884,-0.1652,-0.6045,-0.6094,-0.1348,-1.0008,-0.8279
-1.0714,-0.4793,-0.0194,-0.1413,-0.0736,-0.2127,-0.2552,-0.4317,-0.2887,-0.5541,0.1752,-0.8195,-1.1191,-0.8605,0.2236,-0.3656,-0.1801,-0.0275,-0.1478,-0.5097,-0.5257,-0.0219,0.073,-0.638,-0.1333,-0.6608,-0.6776,-0.1537,-0.9297,-0.7245
-1.1718,-0.4693,-0.1181,-0.1347,-0.0665,-0.2022,-0.1946,-0.383,-0.2931,-0.4613,0.217,-0.8165,-1.0988,-0.8895,0.2048,-0.3852,-0.1942,-0.0187,-0.1747,-0.5657,-0.5553,-0.0473,0.0867,-0.655,-0.0993,-0.6847,-0.7103,-0.1749,-0.8571,-0.6128
-1.2585,-0.4351,-0.1979,-0.1216,-0.0433,-0.1766,-0.13,-0.3344,-0.2872,-0.3915,0.2047,-0.8213,-1.0329,-0.8761,0.1777,-0.3645,-0.1789,0.0015,-0.1699,-0.5682,-0.5417,-0.049,0.1175,-0.6409,-0.0725,-0.6841,-0.7081,-0.2011,-0.7875,-0.5101
-1.3174,-0.378,-0.2258,-0.1032,-0.0063,-0.1357,-0.0693,-0.2929,-0.2728,-0.3558,0.133,-0.8414,-0.9278,-0.8226,0.1513,-0.3103,-0.1422,0.0291,-0.142,-0.5213,-0.4891,-0.0293,0.1664,-0.6006,-0.0583,-0.6683,-0.6762,-0.2323,-0.7257,-0.4299
-1.3394,-0.301,-0.1807,-0.0772,0.0436,-0.0797,-0.0157,-0.2643,-0.254,-0.3567,0.0078,-0.8801,-0.7905,-0.7318,0.1375,-0.2311,-0.0913,0.0632,-0.0996,-0.4322,-0.4019,0.009,0.2348,-0.5405,-0.0567,-0.6463,-0.6231,-0.2659,-0.6753,-0.38
-1.3226,-0.2079,-0.0599,-0.038,0.1075,-0.0087,0.033,-0.2505,-0.2361,-0.3877,-0.1547,-0.9348,-0.6272,-0.6064,0.1465,-0.1348,-0.03,0.1055,-0.0481,-0.309,-0.2842,0.0641,0.3223,-0.4671,-0.064,-0.6252,-0.5586,-0.2974,-0.6376,-0.3608
-1.2713,-0.1026,0.1202,0.0218,0.1873,0.0771,0.0834,-0.249,-0.2248,-0.4354,-0.3315,-0.9985,-0.444,-0.4497,0.1827,-0.0272,0.0418,0.1589,0.0129,-0.1601,-0.1406,0.1354,0.425,-0.3852,-0.0745,-0.6097,-0.4926,-0.3222,-0.6113,-0.3661
-1.1949,0.0113,0.3273,0.1085,0.2839,0.1765,0.1438,-0.2538,-0.2238,-0.4836,-0.4972,-1.0611,-0.2475,-0.2672,0.2422,0.0885,0.1273,0.2249,0.089,0.0063,0.0229,0.223,0.5359,-0.2982,-0.0833,-0.6027,-0.4335,-0.3371,-0.5936,-0.3847
-1.1043,0.1295,0.5218,0.2244,0.396,0.2861,0.2205,-0.2576,-0.233,-0.5173,-0.6293,-1.1119,-0.0453,-0.067,0.3125,0.2102,0.2301,0.3028,0.1886,0.1818,0.1987,0.3268,0.6461,-0.2081,-0.0879,-0.6058,-0.3875,-0.341,-0.5806,-0.4042
-1.01,0.2468,0.6663,0.3649,0.5184,0.4001,0.3162,-0.2537,-0.2479,-0.526,-0.7118,-1.1414,0.1533,0.1397,0.3767,0.336,0.3515,0.3887,0.3171,0.3575,0.3763,0.4452,0.7467,-0.1163,-0.0883,-0.6204,-0.3582,-0.3361,-0.5696,-0.4131
-0.9202,0.3561,0.7343,0.5186,0.6426,0.5103,0.4283,-0.2378,-0.2598,-0.5045,-0.7368,-1.1435,0.3379,0.3391,0.4185,0.4624,0.4869,0.4757,0.4723,0.5229,0.5436,0.5733,0.8306,-0.0246,-0.0861,-0.6475,-0.3467,-0.3263,-0.5591,-0.4034
-0.8413,0.448,0.7161,0.6673,0.7567,0.6063,0.5488,-0.2094,-0.2589,-0.4544,-0.7049,-1.117,0.4968,0.5156,0.4276,0.5825,0.6252,0.5552,0.6408,0.666,0.6869,0.7016,0.8936,0.0638,-0.0836,-0.6875,-0.352,-0.3174,-0.5498,-0.3719
-0.7787,0.511,0.6185,0.7886,0.8464,0.6764,0.665,-0.1719,-0.2385,-0.3837,-0.6243,-1.0662,0.6176,0.6529,0.4028,0.6856,0.7489,0.6179,0.7987,0.773,0.792,0.8165,0.9336,0.1438,-0.0829,-0.7401,-0.3718,-0.3158,-0.5441,-0.3205
-0.7388,0.5329,0.4612,0.8588,0.8962,0.708,0.7595,-0.1336,-0.1974,-0.3069,-0.5094,-1.002,0.6874,0.7351,0.3508,0.757,0.837,0.6547,0.9166,0.829,0.8447,0.9012,0.9493,0.2078,-0.0863,-0.8043,-0.4039,-0.3283,-0.5453,-0.2559
-0.729,0.5015,0.2696,0.8569,0.8906,0.6886,0.8134,-0.1061,-0.1425,-0.2427,-0.3782,-0.9398,0.6934,0.7481,0.2836,0.7802,0.8693,0.6577,0.966,0.8195,0.8325,0.9383,0.939,0.2468,-0.0959,-0.8777,-0.4468,-0.3609,-0.5575,-0.1895
-0.7572,0.4073,0.068,0.7683,0.8168,0.608,0.8084,-0.102,-0.0869,-0.2114,-0.2494,-0.8969,0.6256,0.6822,0.2138,0.7391,0.8304,0.6213,0.9262,0.7331,0.746,0.9131,0.9,0.2514,-0.1134,-0.9555,-0.4999,-0.4164,-0.5844,-0.1356
-0.8277,0.246,-0.1255,0.5883,0.6682,0.4611,0.7323,-0.1315,-0.0465,-0.2297,-0.1395,-0.8875,0.4793,0.5339,0.1511,0.6227,0.7129,0.5434,0.7887,0.5644,0.5818,0.8162,0.8294,0.214,-0.1384,-1.0292,-0.563,-0.4925,-0.6281,-0.1087
-0.9388,0.021,-0.3009,0.3246,0.4474,0.2503,0.5822,-0.1988,-0.035,-0.3057,-0.0592,-0.9192,0.2581,0.3089,0.1007,0.4279,0.519,0.426,0.559,0.3168,0.3445,0.6463,0.7266,0.1312,-0.1678,-1.0854,-0.6348,-0.5801,-0.6883,-0.1205
-1.0806,-0.2554,-0.4547,-0.0034,0.1678,-0.0122,0.3677,-0.3,-0.0591,-0.4361,-0.0114,-0.9894,-0.0241,0.0221,0.0616,0.1623,0.2609,0.2752,0.2553,0.0037,0.0476,0.4114,0.5937,0.006,-0.1956,-1.1082,-0.711,-0.6636,-0.7612,-0.1772
-1.2359,-0.5628,-0.5868,-0.3663,-0.1474,-0.3051,0.1096,-0.4223,-0.1166,-0.6053,0.0081,-1.0862,-0.3442,-0.303,0.0272,-0.1562,-0.0413,0.1005,-0.0943,-0.3528,-0.2873,0.1281,0.4369,-0.1521,-0.2143,-1.0826,-0.7847,-0.7237,-0.8404,-0.2785
-1.3845,-0.8754,-0.6976,-0.7304,-0.4692,-0.6004,-0.1629,-0.5466,-0.1966,-0.7888,0.0085,-1.1906,-0.673,-0.6383,-0.0129,-0.502,-0.3629,-0.0867,-0.4564,-0.7247,-0.634,-0.1805,0.2655,-0.3279,-0.2179,-1.0007,-0.8469,-0.7421,-0.9187,-0.418
-1.5077,-1.1668,-0.7858,-1.0634,-0.7678,-0.869,-0.4185,-0.6511,-0.2829,-0.958,0.0001,-1.2823,-0.9797,-0.9552,-0.0693,-0.8461,-0.6782,-0.2748,-0.7988,-1.0832,-0.9657,-0.489,0.0914,-0.5036,-0.2043,-0.8657,-0.8887,-0.7065,-0.9902,-0.5848
-1.5934,-1.4148,-0.8475,-1.34,-1.0185,-1.0854,-0.6297,-0.7165,-0.3581,-1.0869,-0.0099,-1.3443,-1.2368,-1.2288,-0.1485,-1.1612,-0.9644,-0.4526,-1.0948,-1.4033,-1.2589,-0.7735,-0.0723,-0.6613,-0.1769,-0.6945,-0.904,-0.6145,-1.0517,-0.7652
-1.6378,-1.6044,-0.8774,-1.5461,-1.2055,-1.2328,-0.7775,-0.7306,-0.4079,-1.1575,-0.0182,-1.3674,-1.4238,-1.4412,-0.2494,-1.4256,-1.2036,-0.6097,-1.3265,-1.667,-1.4963,-1.0141,-0.2131,-0.7859,-0.1444,-0.5151,-0.8898,-0.4748,-1.1028,-0.9449
-1.6453,-1.7302,-0.8715,-1.6792,-1.3237,-1.3056,-0.8544,-0.6913,-0.4247,-1.1632,-0.0258,-1.3518,-1.5294,-1.5823,-0.3629,-1.626,-1.3841,-0.7376,-1.4855,-1.8647,-1.6676,-1.1969,-0.3214,-0.866,-0.1185,-0.3617,-0.8472,-0.3061,-1.1453,-1.1106
-1.6267,-1.7951,-0.8305,-1.7466,-1.3775,-1.3097,-0.8641,-0.6076,-0.4081,-1.1097,-0.0356,-1.306,-1.5519,-1.6497,-0.4742,-1.7585,-1.5003,-0.8298,-1.5715,-1.9951,-1.7697,-1.3143,-0.393,-0.8953,-0.1111,-0.2664,-0.7805,-0.1333,-1.1812,-1.2517
-1.5952,-1.8083,-0.7615,-1.7621,-1.3786,-1.2595,-0.8188,-0.4971,-0.3643,-1.0119,-0.0503,-1.2438,-1.4984,-1.6475,-0.5678,-1.8275,-1.5525,-0.8835,-1.5899,-2.0631,-1.8054,-1.3651,-0.4302,-0.8732,-0.1306,-0.2519,-0.697,0.018,-1.2108,-1.3607
-1.5638,-1.782,-0.6783,-1.7409,-1.3415,-1.1743,-0.7356,-0.3821,-0.304,-0.8902,-0.0709,-1.1814,-1.3826,-1.5849,-0.6324,-1.8433,-1.5461,-0.9001,-1.5504,-2.0781,-1.7819,-1.3542,-0.4418,-0.8054,-0.1791,-0.3255,-0.6062,0.1268,-1.2325,-1.4337
-1.5423,-1.7288,-0.598,-1.6965,-1.2804,-1.0739,-0.6324,-0.2845,-0.239,-0.7652,-0.0961,-1.1336,-1.2229,-1.4749,-0.6653,-1.8197,-1.4918,-0.8857,-1.466,-2.0518,-1.7101,-1.2924,-0.441,-0.7041,-0.2522,-0.4776,-0.519,0.1809,-1.2427,-1.4697
-1.5361,-1.6591,-0.5376,-1.638,-1.2071,-0.9749,-0.5251,-0.2216,-0.1795,-0.6545,-0.1238,-1.1116,-1.0397,-1.3328,-0.6725,-1.7709,-1.4044,-0.8504,-1.3523,-1.9963,-1.6032,-1.1951,-0.4409,-0.5863,-0.3396,-0.684,-0.447,0.1782,-1.237,-1.4708
-1.5465,-1.5815,-0.5094,-1.5708,-1.13,-0.8888,-0.4259,-0.2032,-0.1327,-0.5705,-0.1517,-1.1221,-0.8532,-1.1749,-0.6668,-1.7094,-1.3005,-0.8059,-1.226,-1.9231,-1.4755,-1.0799,-0.4499,-0.4716,-0.4281,-0.9109,-0.4004,0.126,-1.212,-1.4404
-1.5701,-1.5025,-0.518,-1.4977,-1.055,-0.8228,-0.3437,-0.2313,-0.101,-0.5201,-0.1781,-1.1671,-0.6815,-1.0173,-0.662,-1.6449,-1.1962,-0.7621,-1.1025,-1.842,-1.3412,-0.964,-0.4687,-0.3784,-0.5048,-1.1228,-0.3872,0.0385,-1.1668,-1.384
-1.5993,-1.4283,-0.5596,-1.4218,-0.9871,-0.7804,-0.2836,-0.3008,-0.0838,-0.5052,-0.2021,-1.2438,-0.5389,-0.8743,-0.6668,-1.5833,-1.1033,-0.7248,-0.9934,-1.761,-1.2131,-0.8613,-0.4896,-0.3209,-0.5597,-1.2889,-0.4116,-0.0665,-1.1034,-1.3082
-1.6235,-1.3648,-0.6229,-1.3484,-0.9307,-0.7628,-0.2482,-0.4012,-0.0782,-0.5241,-0.2233,-1.346,-0.4346,-0.7569,-0.6807,-1.5271,-1.0279,-0.6945,-0.9048,-1.6853,-1.101,-0.7809,-0.5006,-0.3068,-0.5871,-1.3879,-0.4725,-0.1715,-1.0271,-1.2207
-1.6296,-1.3171,-0.692,-1.2842,-0.8898,-0.7693,-0.2372,-0.5184,-0.0823,-0.572,-0.2414,-1.4648,-0.3728,-0.6722,-0.694,-1.4757,-0.9698,-0.6671,-0.8366,-1.6173,-1.0111,-0.7262,-0.49,-0.3358,-0.5861,-1.4109,-0.5639,-0.2622,-0.9448,-1.1297
-1.6056,-1.2885,-0.7499,-1.2359,-0.8669,-0.797,-0.2479,-0.6366,-0.0961,-0.6419,-0.2566,-1.5898,-0.3527,-0.6226,-0.6916,-1.4265,-0.9241,-0.6368,-0.7844,-1.5566,-0.9455,-0.6955,-0.4514,-0.4002,-0.5602,-1.3619,-0.6749,-0.3303,-0.8644,-1.0432
-1.5432,-1.2777,-0.782,-1.2073,-0.8619,-0.84,-0.2752,-0.7406,-0.1218,-0.7245,-0.2689,-1.7097,-0.3695,-0.6064,-0.6594,-1.3756,-0.8839,-0.5986,-0.7415,-1.5004,-0.9026,-0.6837,-0.3863,-0.4871,-0.5152,-1.2556,-0.7911,-0.3736,-0.793,-0.9674
-1.4414,-1.2791,-0.779,-1.1978,-0.8709,-0.8897,-0.3125,-0.8179,-0.1618,-0.8086,-0.2782,-1.813,-0.4155,-0.6186,-0.5895,-1.3194,-0.8431,-0.5509,-0.7024,-1.4446,-0.8784,-0.6835,-0.3044,-0.5811,-0.4581,-1.1132,-0.8972,-0.3946,-0.736,-0.907
-1.308,-1.2835,-0.7384,-1.202,-0.8877,-0.9359,-0.3524,-0.8612,-0.2164,-0.8823,-0.2845,-1.8896,-0.4819,-0.6518,-0.4836,-1.2564,-0.7989,-0.4961,-0.6647,-1.3858,-0.868,-0.6877,-0.2205,-0.667,-0.3951,-0.958,-0.9795,-0.3991,-0.6962,-0.8643
-1.1596,-1.2816,-0.6652,-1.2121,-0.9045,-0.9697,-0.3885,-0.8696,-0.2817,-0.9349,-0.2875,-1.9322,-0.5591,-0.6987,-0.3521,-1.1878,-0.7528,-0.4398,-0.6308,-1.3226,-0.8671,-0.6907,-0.1509,-0.733,-0.331,-0.8097,-1.0277,-0.3926,-0.6738,-0.8401
-1.0184,-1.2668,-0.5709,-1.2209,-0.9152,-0.9853,-0.4162,-0.8486,-0.3502,-0.959,-0.2878,-1.9374,-0.6385,-0.7524,-0.2111,-1.1183,-0.7102,-0.3891,-0.6073,-1.2574,-0.8732,-0.6898,-0.1088,-0.7722,-0.2685,-0.6816,-1.0364,-0.38,-0.6669,-0.8337
-0.9084,-1.2383,-0.471,-1.2238,-0.9168,-0.982,-0.4336,-0.809,-0.412,-0.9525,-0.2864,-1.9067,-0.7125,-0.8081,-0.0777,-1.055,-0.6785,-0.3507,-0.6028,-1.1956,-0.8858,-0.6856,-0.1024,-0.7835,-0.2092,-0.5789,-1.0049,-0.3644,-0.6721,-0.8439
-0.8488,-1.2013,-0.3812,-1.2205,-0.9104,-0.964,-0.4413,-0.7635,-0.4573,-0.9189,-0.2837,-1.8455,-0.7751,-0.8624,0.0342,-1.0053,-0.6642,-0.329,-0.6243,-1.1448,-0.9056,-0.6812,-0.1329,-0.7704,-0.1545,-0.5005,-0.937,-0.3478,-0.6856,-0.8691
-0.8493,-1.1642,-0.3146,-1.2135,-0.9001,-0.9383,-0.4413,-0.7236,-0.4782,-0.8659,-0.279,-1.7612,-0.8209,-0.9127,0.1158,-0.9747,-0.6705,-0.3248,-0.6738,-1.1113,-0.9325,-0.6802,-0.1955,-0.7395,-0.1062,-0.4416,-0.839,-0.3314,-0.704,-0.9078
-0.9066,-1.1355,-0.2783,-1.2055,-0.8909,-0.9121,-0.4355,-0.6964,-0.4698,-0.8022,-0.2686,-1.6607,-0.8454,-0.956,0.1643,-0.9643,-0.6954,-0.3356,-0.7465,-1.0975,-0.9644,-0.6846,-0.2802,-0.6972,-0.067,-0.3981,-0.7191,-0.3159,-0.7243,-0.9576
-1.0049,-1.1196,-0.2719,-1.1968,-0.886,-0.8891,-0.424,-0.6831,-0.4307,-0.735,-0.2468,-1.549,-0.8434,-0.9875,0.1808,-0.9691,-0.7315,-0.356,-0.8309,-1.0999,-0.996,-0.6925,-0.373,-0.6474,-0.0404,-0.3694,-0.5849,-0.3021,-0.7433,-1.015
-1.1191,-1.1143,-0.2885,-1.1831,-0.8843,-0.8679,-0.4046,-0.6788,-0.3625,-0.6672,-0.2071,-1.4289,-0.8099,-1.0007,0.1695,-0.9785,-0.7676,-0.3786,-0.9112,-1.1088,-1.0193,-0.6983,-0.4579,-0.5903,-0.03,-0.3591,-0.4434,-0.2913,-0.7572,-1.0751
-1.221,-1.1113,-0.3163,-1.1566,-0.8804,-0.8423,-0.3734,-0.6735,-0.27,-0.5977,-0.1451,-1.303,-0.7414,-0.9882,0.1362,-0.9789,-0.792,-0.3961,-0.972,-1.1111,-1.0251,-0.6939,-0.5195,-0.5237,-0.039,-0.3735,-0.3017,-0.2856,-0.7611,-1.1326
-1.2849,-1.0985,-0.3415,-1.1083,-0.8658,-0.8035,-0.3263,-0.6554,-0.1607,-0.5239,-0.0606,-1.1754,-0.6372,-0.9447,0.0884,-0.9574,-0.7952,-0.4029,-1.0024,-1.0933,-1.0057,-0.672,-0.5468,-0.4462,-0.0698,-0.418,-0.1682,-0.288,-0.7503,-1.1833
-1.2928,-1.0648,-0.3504,-1.0316,-0.8319,-0.7436,-0.2618,-0.6148,-0.0443,-0.4442,0.0408,-1.0544,-0.5021,-0.8684,0.036,-0.9056,-0.7727,-0.3963,-0.9977,-1.0464,-0.957,-0.6287,-0.5359,-0.36,-0.123,-0.4944,-0.0536,-0.3019,-0.7212,-1.2256
-1.2376,-1.0035,-0.332,-0.9254,-0.7731,-0.6594,-0.1826,-0.5473,0.0685,-0.3615,0.1479,-0.953,-0.3465,-0.7632,-0.0091,-0.8221,-0.7246,-0.3766,-0.9597,-0.9673,-0.8801,-0.5655,-0.4908,-0.2727,-0.1972,-0.5985,0.0286,-0.3304,-0.6739,-1.2612
-1.1237,-0.9151,-0.2796,-0.7948,-0.689,-0.5535,-0.0966,-0.4564,0.1673,-0.2834,0.2461,-0.8862,-0.1855,-0.6377,-0.0342,-0.712,-0.6546,-0.3457,-0.8927,-0.8596,-0.7805,-0.4877,-0.4222,-0.1955,-0.2882,-0.7207,0.0655,-0.3744,-0.6125,-1.2943
-0.9648,-0.8059,-0.1924,-0.65,-0.5842,-0.4347,-0.0152,-0.3529,0.2447,-0.2209,0.3195,-0.8675,-0.0359,-0.5035,-0.028,-0.5853,-0.5673,-0.3058,-0.8016,-0.7315,-0.666,-0.4027,-0.3436,-0.1404,-0.3891,-0.8473,0.0478,-0.4309,-0.5451,-1.3286
-0.7803,-0.6861,-0.0756,-0.5033,-0.4674,-0.3152,0.0492,-0.2523,0.296,-0.1854,0.3551,-0.9049,0.0866,-0.3725,0.0156,-0.4527,-0.4663,-0.2582,-0.6888,-0.5926,-0.5452,-0.3171,-0.2663,-0.1156,-0.4904,-0.9623,-0.0262,-0.4925,-0.482,-1.3642
-0.5908,-0.566,0.0599,-0.3661,-0.3482,-0.2072,0.0867,-0.1705,0.32,-0.1856,0.344,-0.9972,0.1708,-0.2544,0.0951,-0.323,-0.3542,-0.2033,-0.5551,-0.4514,-0.4251,-0.2352,-0.1962,-0.1229,-0.5808,-1.0501,-0.1486,-0.5485,-0.4328,-1.3951
-0.4144,-0.4538,0.1999,-0.2468,-0.2356,-0.1206,0.0922,-0.12,0.3176,-0.2253,0.2842,-1.1337,0.2114,-0.1557,0.2012,-0.2011,-0.2329,-0.1408,-0.4019,-0.3141,-0.3108,-0.1583,-0.1322,-0.1573,-0.6489,-1.0972,-0.3027,-0.5873,-0.4035,-1.4095
-0.2645,-0.3542,0.3302,-0.1504,-0.1366,-0.0608,0.0659,-0.1074,0.2908,-0.3026,0.1805,-1.296,0.2084,-0.0799,0.3197,-0.0888,-0.1061,-0.0709,-0.2341,-0.1845,-0.2063,-0.087,-0.068,-0.2092,-0.6843,-1.0936,-0.4662,-0.5994,-0.3952,-1.3914
-0.1492,-0.2691,0.4397,-0.0789,-0.056,-0.0298,0.013,-0.1333,0.2424,-0.4109,0.044,-1.4622,0.1659,-0.0288,0.4366,0.0139,0.0198,0.0052,-0.0631,-0.0656,-0.1153,-0.023,0.0055,-0.2679,-0.6796,-1.0352,-0.6164,-0.5808,-0.4034,-1.3258
-0.0723,-0.1982,0.522,-0.0321,0.0034,-0.0265,-0.0584,-0.1933,0.1757,-0.5402,-0.1097,-1.6117,0.09,-0.0041,0.5439,0.1064,0.1352,0.0855,0.0931,0.0389,-0.0425,0.0291,0.0953,-0.325,-0.632,-0.9259,-0.7357,-0.5346,-0.42,-1.203
-0.0343,-0.1407,0.5754,-0.0084,0.0398,-0.0485,-0.14,-0.2813,0.095,-0.6793,-0.2635,-1.73,-0.0129,-0.0074,0.6406,0.1856,0.2288,0.1667,0.2127,0.1237,0.0067,0.0621,0.2034,-0.3764,-0.5455,-0.7785,-0.8153,-0.471,-0.4366,-1.024
-0.0331,-0.096,0.6006,-0.0051,0.0529,-0.0928,-0.2248,-0.3909,0.0053,-0.8176,-0.4019,-1.8115,-0.137,-0.0404,0.7301,0.2469,0.2901,0.244,0.2764,0.1828,0.0269,0.0676,0.3248,-0.4226,-0.4304,-0.615,-0.8558,-0.4049,-0.4469,-0.8025
-0.0649,-0.0632,0.5984,-0.0182,0.0434,-0.1557,-0.3079,-0.5167,-0.0884,-0.9465,-0.5139,-1.8597,-0.2762,-0.1036,0.8132,0.2849,0.3123,0.3109,0.2735,0.2112,0.0148,0.04,0.4471,-0.4661,-0.3024,-0.4617,-0.8651,-0.3527,-0.4495,-0.5649
-0.1235,-0.0409,0.5681,-0.0422,0.0141,-0.2318,-0.3856,-0.6531,-0.1815,-1.059,-0.5936,-1.8845,-0.4229,-0.1943,0.8823,0.296,0.2947,0.3591,0.2076,0.207,-0.0293,-0.0214,0.5535,-0.5088,-0.1801,-0.3444,-0.8544,-0.3268,-0.4474,-0.3453
-0.2006,-0.0275,0.5082,-0.0706,-0.0305,-0.3137,-0.4542,-0.7933,-0.2705,-1.149,-0.6404,-1.898,-0.5677,-0.3059,0.9203,0.2804,0.2433,0.3798,0.0962,0.1724,-0.1001,-0.1103,0.6257,-0.5505,-0.081,-0.2814,-0.834,-0.3319,-0.4466,-0.1792
-0.2847,-0.0212,0.4195,-0.098,-0.0841,-0.3924,-0.51,-0.9288,-0.3523,-1.2104,-0.6565,-1.9098,-0.6982,-0.4282,0.905,0.2421,0.1687,0.366,-0.0334,0.114,-0.1888,-0.2151,0.649,-0.5875,-0.0186,-0.2781,-0.8104,-0.3631,-0.4531,-0.0951
-0.3628,-0.0221,0.3073,-0.1215,-0.141,-0.4595,-0.5483,-1.0494,-0.4231,-1.2373,-0.6446,-1.9244,-0.8016,-0.5483,0.8185,0.1881,0.0842,0.3145,-0.1522,0.0407,-0.2839,-0.3213,0.6164,-0.6143,0.0005,-0.3262,-0.7854,-0.4068,-0.47,-0.1086
-0.4219,-0.0325,0.1835,-0.1424,-0.1962,-0.5085,-0.565,-1.1441,-0.4786,-1.2242,-0.6062,-1.9397,-0.8658,-0.6528,0.656,0.1267,0.002,0.2288,-0.2373,-0.0377,-0.3744,-0.4157,0.5315,-0.6251,-0.0229,-0.4057,-0.7567,-0.4447,-0.4968,-0.2189
-0.4518,-0.0568,0.0645,-0.1656,-0.2464,-0.5364,-0.5568,-1.2034,-0.5138,-1.1677,-0.5408,-1.9482,-0.8822,-0.7293,0.4317,0.0656,-0.0683,0.1192,-0.2774,-0.1128,-0.4506,-0.4889,0.4085,-0.6153,-0.0813,-0.4909,-0.72,-0.4591,-0.5297,-0.4094
-0.4487,-0.0998,-0.0327,-0.1972,-0.2895,-0.5432,-0.5226,-1.2201,-0.5244,-1.0675,-0.4467,-1.9393,-0.8467,-0.7676,0.1779,0.0107,-0.1201,0.0027,-0.2734,-0.1774,-0.5052,-0.5364,0.2698,-0.5822,-0.1624,-0.5581,-0.6703,-0.4374,-0.5635,-0.6515
-0.4163,-0.1642,-0.0963,-0.2415,-0.324,-0.5322,-0.4631,-1.1912,-0.5079,-0.9276,-0.3227,-1.9023,-0.7606,-0.7614,-0.0628,-0.0342,-0.1501,-0.1007,-0.2358,-0.2269,-0.5336,-0.5587,0.1403,-0.526,-0.2524,-0.5911,-0.6047,-0.3747,-0.5941,-0.9112
-0.366,-0.2491,-0.1242,-0.3001,-0.3484,-0.5085,-0.3812,-1.119,-0.465,-0.7567,-0.1709,-1.8295,-0.6304,-0.7091,-0.2476,-0.0686,-0.1581,-0.1728,-0.1811,-0.2589,-0.5346,-0.5602,0.0409,-0.4508,-0.3386,-0.5841,-0.524,-0.274,-0.6199,-1.1552
-0.3142,-0.3498,-0.124,-0.3712,-0.3625,-0.4787,-0.283,-1.0122,-0.4002,-0.569,0.0018,-1.72,-0.4681,-0.6153,-0.3452,-0.0955,-0.1481,-0.2023,-0.1283,-0.275,-0.5109,-0.5484,-0.0171,-0.3651,-0.412,-0.5419,-0.4338,-0.1463,-0.643,-1.3573
-0.2793,-0.4588,-0.1104,-0.4515,-0.3677,-0.4506,-0.1775,-0.8858,-0.3221,-0.3836,0.1818,-1.582,-0.2906,-0.4918,-0.3432,-0.1214,-0.129,-0.1889,-0.0966,-0.2808,-0.4697,-0.5336,-0.0353,-0.2822,-0.469,-0.4776,-0.3446,-0.008,-0.6684,-1.5016
-0.2767,-0.5684,-0.0987,-0.538,-0.368,-0.432,-0.0768,-0.7589,-0.243,-0.2228,0.3501,-1.433,-0.1185,-0.3561,-0.2513,-0.1553,-0.1138,-0.1436,-0.1024,-0.285,-0.4223,-0.5267,-0.0259,-0.2181,-0.5108,-0.4085,-0.2702,0.1203,-0.7023,-1.5834
-0.315,-0.6711,-0.0989,-0.6277,-0.3687,-0.4289,0.0064,-0.6512,-0.1765,-0.1083,0.4847,-1.2977,0.0273,-0.2288,-0.0989,-0.2056,-0.1169,-0.0861,-0.1557,-0.2972,-0.3809,-0.5369,-0.0072,-0.1886,-0.5414,-0.3522,-0.2246,0.2177,-0.7498,-1.6082
-0.3938,-0.7601,-0.1136,-0.7168,-0.3741,-0.4435,0.0611,-0.5789,-0.1353,-0.0571,0.566,-1.2025,0.1285,-0.1286,0.0719,-0.2761,-0.149,-0.0386,-0.2561,-0.3235,-0.3559,-0.5685,0.0043,-0.2045,-0.5653,-0.3222,-0.2185,0.2671,-0.8126,-1.5879
-0.5036,-0.828,-0.1376,-0.7987,-0.3852,-0.4725,0.0818,-0.5506,-0.1279,-0.0771,0.5821,-1.1692,0.1737,-0.0685,0.2175,-0.3625,-0.2121,-0.0187,-0.3904,-0.3635,-0.352,-0.6183,-0.001,-0.2682,-0.5855,-0.3251,-0.2568,0.2591,-0.8873,-1.5362
-0.6284,-0.8667,-0.1619,-0.8621,-0.397,-0.5066,0.0698,-0.5655,-0.1564,-0.1646,0.5319,-1.2096,0.1606,-0.0519,0.304,-0.4515,-0.2971,-0.0339,-0.5341,-0.4077,-0.3657,-0.6752,-0.022,-0.3724,-0.6029,-0.3599,-0.3366,0.1941,-0.9657,-1.4654
-0.748,-0.867,-0.1766,-0.8916,-0.3991,-0.5323,0.0338,-0.6136,-0.216,-0.3052,0.4258,-1.322,0.0969,-0.0718,0.3174,-0.5215,-0.3834,-0.0779,-0.6544,-0.4393,-0.3852,-0.7215,-0.0477,-0.5003,-0.6173,-0.4199,-0.4478,0.0828,-1.0356,-1.3829
-0.8426,-0.821,-0.1745,-0.8707,-0.3774,-0.5352,-0.0122,-0.6794,-0.295,-0.476,0.2837,-1.4916,-0.002,-0.1133,0.2677,-0.5483,-0.443,-0.132,-0.7182,-0.4375,-0.3934,-0.7376,-0.0612,-0.6301,-0.6277,-0.494,-0.5746,-0.0567,-1.0831,-1.2911
-0.8946,-0.7244,-0.1528,-0.7868,-0.3192,-0.5042,-0.0529,-0.7462,-0.3769,-0.6518,0.1299,-1.6931,-0.1161,-0.157,0.1864,-0.5105,-0.4477,-0.1702,-0.6989,-0.3837,-0.3718,-0.7064,-0.0449,-0.7389,-0.6332,-0.5698,-0.6982,-0.2022,-1.0948,-1.188
-0.8917,-0.5787,-0.1123,-0.6357,-0.217,-0.4351,-0.0758,-0.8009,-0.4434,-0.8093,-0.0108,-1.8957,-0.2248,-0.1843,0.1179,-0.3962,-0.376,-0.166,-0.5836,-0.2672,-0.3059,-0.6182,0.0137,-0.8079,-0.6323,-0.6346,-0.8001,-0.3319,-1.0599,-1.07
-0.8285,-0.3917,-0.0559,-0.4248,-0.0724,-0.3324,-0.0744,-0.8373,-0.4786,-0.9321,-0.1186,-2.0692,-0.3111,-0.1818,0.1067,-0.2066,-0.2195,-0.1002,-0.3756,-0.0888,-0.1896,-0.4734,0.1177,-0.8258,-0.6227,-0.6768,-0.8648,-0.4282,-0.9736,-0.9345
-0.7082,-0.1766,0.0141,-0.1729,0.1036,-0.2078,-0.0495,-0.8559,-0.4731,-1.0122,-0.1812,-2.1899,-0.3644,-0.1444,0.1841,0.0433,0.014,0.0337,-0.0945,0.1383,-0.0269,-0.2832,0.2598,-0.791,-0.6016,-0.6877,-0.882,-0.4799,-0.8386,-0.7835
-0.5423,0.0499,0.0966,0.0929,0.292,-0.0776,-0.0079,-0.8627,-0.4273,-1.0501,-0.1958,-2.2454,-0.3813,-0.0752,0.3593,0.3271,0.3018,0.2265,0.2282,0.3904,0.1678,-0.0668,0.424,-0.7106,-0.5661,-0.6624,-0.8477,-0.4839,-0.6667,-0.625
-0.3494,0.2703,0.1903,0.3426,0.4697,0.0413,0.0398,-0.8662,-0.3522,-1.0527,-0.1683,-2.236,-0.365,0.0149,0.615,0.6122,0.6101,0.4556,0.5551,0.638,0.3731,0.152,0.5886,-0.5981,-0.5146,-0.6018,-0.7647,-0.4441,-0.478,-0.4728
-0.1518,0.4681,0.2912,0.5493,0.6147,0.1346,0.0825,-0.8744,-0.2666,-1.0305,-0.1114,-2.1734,-0.3237,0.1117,0.9121,0.8658,0.9012,0.6894,0.85,0.8517,0.5652,0.3495,0.7315,-0.4705,-0.4476,-0.5122,-0.6416,-0.3696,-0.2987,-0.3448
0.0283,0.6306,0.3912,0.6951,0.7108,0.1939,0.1126,-0.8929,-0.1924,-0.9944,-0.0406,-2.0772,-0.2663,0.2009,1.1996,1.0617,1.1409,0.8953,1.0837,1.0086,0.723,0.5074,0.8348,-0.3435,-0.3682,-0.4052,-0.4905,-0.2723,-0.1557,-0.258
0.1728,0.7507,0.4791,0.7742,0.7519,0.2182,0.1283,-0.9229,-0.1484,-0.9524,0.0293,-1.9689,-0.1998,0.2729,1.4281,1.185,1.3058,1.0472,1.2386,1.0969,0.8331,0.6161,0.8883,-0.2276,-0.2812,-0.2953,-0.3239,-0.1644,-0.0712,-0.224
0.2697,0.8271,0.5425,0.7931,0.743,0.2138,0.1351,-0.9612,-0.1449,-0.9084,0.0878,-1.8676,-0.1266,0.3251,1.563,1.2341,1.3869,1.1312,1.3101,1.1176,0.8923,0.6762,0.8919,-0.1264,-0.1929,-0.1971,-0.1523,-0.0567,-0.0569,-0.2453
0.314,0.8632,0.5715,0.7668,0.6979,0.192,0.1434,-1.0012,-0.1806,-0.8622,0.1301,-1.7859,-0.0448,0.3617,1.5916,1.2192,1.3893,1.1477,1.3044,1.0831,0.9072,0.6965,0.8546,-0.0368,-0.11,-0.123,0.0164,0.0426,-0.1116,-0.3136
0.3072,0.8649,0.5605,0.7131,0.6347,0.1649,0.1645,-1.035,-0.2429,-0.812,0.1577,-1.7292,0.0497,0.3909,1.5243,1.1578,1.329,1.1093,1.2355,1.0125,0.891,0.6908,0.7918,0.0476,-0.0383,-0.0795,0.176,0.1284,-0.2214,-0.4118
0.2564,0.8375,0.5095,0.6473,0.5696,0.1412,0.2058,-1.0558,-0.3112,-0.7567,0.1765,-1.6967,0.1594,0.4211,1.3878,1.0693,1.2266,1.0351,1.1207,0.9263,0.8583,0.6724,0.7205,0.1319,0.0179,-0.0662,0.319,0.1984,-0.3635,-0.5182
0.1725,0.7849,0.4242,0.5777,0.5135,0.1242,0.2674,-1.0599,-0.3631,-0.699,0.1938,-1.6832,0.2826,0.4574,1.2159,0.9699,1.1022,0.9443,0.9773,0.8406,0.8214,0.6506,0.655,0.2164,0.0555,-0.0757,0.4359,0.2517,-0.5108,-0.6117
0.0689,0.709,0.3152,0.5059,0.4692,0.1114,0.3412,-1.0468,-0.3804,-0.6456,0.2151,-1.6834,0.4112,0.4988,1.0395,0.8704,0.9714,0.8516,0.8207,0.765,0.7869,0.6283,0.6038,0.295,0.0733,-0.0964,0.5148,0.2875,-0.6381,-0.6765
-0.0409,0.6119,0.1961,0.4284,0.4331,0.0965,0.4128,-1.0186,-0.3539,-0.6067,0.2419,-1.6936,0.5316,0.5394,0.8804,0.7759,0.8436,0.7647,0.6634,0.7018,0.7558,0.6028,0.569,0.357,0.0715,-0.1168,0.544,0.3036,-0.7262,-0.7038
-0.1457,0.497,0.0813,0.3403,0.3975,0.0724,0.4657,-0.9792,-0.285,-0.5932,0.2704,-1.7138,0.6271,0.5691,0.7502,0.6876,0.7237,0.6851,0.515,0.6479,0.7246,0.5676,0.5471,0.3899,0.0513,-0.1295,0.5146,0.2956,-0.7649,-0.6931
-0.2381,0.3705,-0.0164,0.2392,0.3547,0.034,0.4852,-0.9331,-0.1848,-0.6144,0.2923,-1.7467,0.681,0.5772,0.6515,0.6049,0.6129,0.6104,0.3822,0.5981,0.6877,0.5152,0.531,0.3839,0.0152,-0.1329,0.4239,0.2582,-0.7544,-0.6505
-0.3148,0.2411,-0.088,0.1276,0.2996,-0.0201,0.4623,-0.885,-0.07,-0.6749,0.2971,-1.7958,0.6801,0.5548,0.5825,0.5277,0.5117,0.537,0.2692,0.5474,0.6396,0.4399,0.5123,0.3342,-0.034,-0.132,0.2768,0.1872,-0.7046,-0.5872
-0.3755,0.1189,-0.1285,0.0128,0.2315,-0.087,0.3958,-0.8396,0.0407,-0.7739,0.2745,-1.8632,0.6176,0.4969,0.5403,0.4574,0.4208,0.463,0.1776,0.493,0.577,0.3396,0.4836,0.2427,-0.0936,-0.1363,0.0859,0.0814,-0.6323,-0.5166
-0.4205,0.0138,-0.1362,-0.0938,0.1547,-0.1602,0.2918,-0.8005,0.131,-0.9044,0.2168,-1.948,0.4938,0.4031,0.5227,0.3966,0.3415,0.3886,0.1065,0.4352,0.4989,0.2168,0.4407,0.1174,-0.1616,-0.1566,-0.1308,-0.056,-0.5569,-0.4516
-0.4488,-0.066,-0.1117,-0.1802,0.0766,-0.2312,0.1628,-0.7705,0.1889,-1.0546,0.121,-2.0461,0.3157,0.2777,0.5286,0.3487,0.2753,0.316,0.0536,0.3763,0.4067,0.0779,0.383,-0.0301,-0.2363,-0.2012,-0.3531,-0.2171,-0.4954,-0.4023
-0.4575,-0.1156,-0.0576,-0.2364,0.0056,-0.2915,0.0236,-0.7512,0.2079,-1.2101,-0.0114,-2.1516,0.0958,0.1278,0.5556,0.3161,0.223,0.2482,0.0156,0.3192,0.3032,-0.0678,0.3129,-0.1874,-0.3152,-0.2733,-0.5623,-0.3904,-0.458,-0.3746
-0.4436,-0.1338,0.0206,-0.2578,-0.0522,-0.3357,-0.1118,-0.7434,0.1869,-1.3565,-0.1736,-2.258,-0.1506,-0.0382,0.5991,0.2991,0.184,0.1872,-0.011,0.2659,0.1912,-0.2098,0.2349,-0.3432,-0.3942,-0.3698,-0.7438,-0.5629,-0.4465,-0.3696
-0.4052,-0.1234,0.1138,-0.2468,-0.0947,-0.3627,-0.2327,-0.7478,0.129,-1.4825,-0.3546,-2.3597,-0.4073,-0.2117,0.6508,0.2947,0.1562,0.1341,-0.029,0.2166,0.0735,-0.3386,0.1542,-0.4891,-0.4677,-0.482,-0.8878,-0.7218,-0.4541,-0.3842
-0.3434,-0.0902,0.2093,-0.2114,-0.1242,-0.376,-0.3333,-0.7641,0.0405,-1.5808,-0.5392,-2.4524,-0.6586,-0.3851,0.7008,0.2976,0.1363,0.0884,-0.041,0.1698,-0.0475,-0.4468,0.076,-0.6185,-0.5281,-0.5972,-0.9889,-0.8558,-0.4682,-0.4115
-0.2618,-0.0416,0.2933,-0.1635,-0.1458,-0.382,-0.4118,-0.7911,-0.0691,-1.6484,-0.7089,-2.532,-0.8892,-0.5508,0.7394,0.3023,0.1211,0.0502,-0.0483,0.124,-0.1681,-0.5295,0.0054,-0.7262,-0.5672,-0.701,-1.0446,-0.9557,-0.4742,-0.4422
-0.1656,0.0158,0.3542,-0.1148,-0.165,-0.3873,-0.4698,-0.8269,-0.188,-1.6854,-0.8433,-2.5936,-1.0846,-0.7005,0.7611,0.3049,0.1094,0.0203,-0.0511,0.0797,-0.2826,-0.584,-0.0523,-0.8075,-0.5775,-0.7788,-1.0542,-1.0137,-0.4596,-0.4658
-0.0603,0.0769,0.3866,-0.0739,-0.1852,-0.3972,-0.5102,-0.8705,-0.3027,-1.6937,-0.923,-2.6314,-1.2312,-0.8249,0.7664,0.3052,0.1025,0.002,-0.0478,0.0409,-0.3824,-0.61,-0.0918,-0.8587,-0.5545,-0.8183,-1.019,-1.0246,-0.4173,-0.4722
0.0492,0.1396,0.393,-0.0436,-0.2065,-0.4138,-0.5367,-0.9222,-0.4006,-1.6769,-0.9333,-2.6394,-1.3181,-0.9147,0.7623,0.3068,0.1047,0.0005,-0.0353,0.0151,-0.457,-0.608,-0.1082,-0.8784,-0.4977,-0.8109,-0.943,-0.9865,-0.3477,-0.4543
0.159,0.2044,0.382,-0.0212,-0.2258,-0.4366,-0.5531,-0.9853,-0.4723,-1.6398,-0.8677,-2.6138,-1.3386,-0.9612,0.7607,0.3168,0.1229,0.0218,-0.009,0.0119,-0.495,-0.579,-0.097,-0.8677,-0.412,-0.7549,-0.8339,-0.9026,-0.2589,-0.4101
0.2666,0.273,0.365,0.0009,-0.237,-0.4622,-0.5626,-1.0649,-0.5149,-1.5882,-0.7314,-2.5544,-1.2922,-0.9584,0.7745,0.3434,0.1651,0.0717,0.0376,0.0408,-0.487,-0.5226,-0.0557,-0.8302,-0.3072,-0.6567,-0.7032,-0.782,-0.1644,-0.3434
0.371,0.3472,0.3531,0.0327,-0.2333,-0.4856,-0.5669,-1.1654,-0.5338,-1.5292,-0.5419,-2.4665,-1.1844,-0.9044,0.8145,0.3944,0.2385,0.1536,0.1113,0.1089,-0.4273,-0.4375,0.0164,-0.7704,-0.1967,-0.5312,-0.5648,-0.6393,-0.0791,-0.2626
0.4727,0.428,0.3554,0.0833,-0.208,-0.5007,-0.5662,-1.2873,-0.5419,-1.4704,-0.3277,-2.3598,-1.0268,-0.8016,0.887,0.4754,0.3483,0.2675,0.2178,0.2186,-0.3154,-0.3219,0.1178,-0.6924,-0.0953,-0.3998,-0.4336,-0.4929,-0.0152,-0.1785
0.5747,0.5141,0.3793,0.1581,-0.1573,-0.5016,-0.5598,-1.4249,-0.5565,-1.4192,-0.1238,-2.2476,-0.8352,-0.6571,0.994,0.5879,0.4947,0.4097,0.3591,0.3665,-0.1573,-0.1752,0.2457,-0.5985,-0.0164,-0.286,-0.3233,-0.3616,0.0221,-0.1001
0.6815,0.602,0.4309,0.2569,-0.081,-0.4834,-0.5462,-1.5662,-0.5944,-1.3824,0.0349,-2.1439,-0.6277,-0.4821,1.1323,0.7287,0.6721,0.5723,0.5317,0.5433,0.0353,-0.0003,0.3962,-0.4903,0.0302,-0.2096,-0.2444,-0.261,0.0358,-0.0327
0.7976,0.6866,0.5144,0.3739,0.0171,-0.444,-0.5249,-1.6943,-0.6663,-1.3651,0.121,-2.0594,-0.422,-0.2903,1.2944,0.8899,0.8687,0.7443,0.7251,0.7353,0.2465,0.1947,0.5641,-0.3696,0.04,-0.1812,-0.2027,-0.2001,0.0365,0.0236
0.9253,0.763,0.6302,0.4988,0.1295,-0.3836,-0.4957,-1.7912,-0.774,-1.3701,0.1201,-2.0001,-0.2331,-0.0966,1.4674,1.0599,1.0679,0.9118,0.9235,0.9266,0.458,0.3969,0.7421,-0.2397,0.0146,-0.2003,-0.1986,-0.1801,0.0392,0.0723
1.0618,0.8278,0.7731,0.6198,0.2467,-0.3055,-0.46,-1.8423,-0.909,-1.3968,0.0338,-1.9663,-0.0723,0.0849,1.634,1.2248,1.2516,1.0603,1.1098,1.102,0.6527,0.5902,0.9189,-0.1061,-0.0395,-0.2565,-0.2267,-0.1949,0.0589,0.1182
1.1983,0.8805,0.9309,0.7266,0.3601,-0.2142,-0.4193,-1.839,-1.0546,-1.4417,-0.1217,-1.9538,0.0537,0.2425,1.7746,1.3717,1.4044,1.1763,1.27,1.2497,0.8163,0.759,1.0788,0.024,-0.113,-0.3337,-0.2768,-0.2341,0.1058,0.1631
1.3205,0.9233,1.0866,0.8131,0.4631,-0.1151,-0.376,-1.7814,-1.1901,-1.4984,-0.3191,-1.9567,0.1425,0.3676,1.8709,1.49,1.517,1.2501,1.3967,1.3629,0.9397,0.8908,1.2036,0.1429,-0.1953,-0.4161,-0.3357,-0.2863,0.1819,0.2048
1.4122,0.9603,1.2215,0.879,0.5527,-0.0135,-0.3332,-1.678,-1.2949,-1.5601,-0.5258,-1.9697,0.1944,0.4549,1.9117,1.5734,1.5865,1.2774,1.4885,1.4401,1.0188,0.9777,1.276,0.2424,-0.2766,-0.4925,-0.3907,-0.342,0.2804,0.2367
1.4592,0.9952,1.3203,0.9279,0.6284,0.0849,-0.2957,-1.5441,-1.3531,-1.6213,-0.7107,-1.9906,0.2107,0.5012,1.8975,1.6191,1.6148,1.2605,1.546,1.4832,1.0537,1.0165,1.2856,0.3147,-0.3492,-0.5579,-0.4333,-0.3955,0.3875,0.2512
1.4542,1.0286,1.375,0.9647,0.6909,0.1733,-0.2701,-1.399,-1.3568,-1.6802,-0.8492,-2.0203,0.1914,0.5046,1.8425,1.6267,1.6049,1.2074,1.5665,1.4948,1.0462,1.0065,1.2331,0.3511,-0.4081,-0.6128,-0.4618,-0.4451,0.4867,0.2433
1.3993,1.0566,1.3868,0.9923,0.7397,0.2434,-0.2653,-1.2626,-1.3075,-1.7389,-0.9277,-2.062,0.135,0.4635,1.7714,1.5966,1.5577,1.1292,1.5414,1.4762,0.9988,0.9482,1.1311,0.3434,-0.4512,-0.6605,-0.4827,-0.4918,0.5633,0.2135
1.3058,1.0714,1.3657,1.0095,0.7725,0.2863,-0.29,-1.1513,-1.216,-1.8021,-0.9453,-2.119,0.0396,0.378,1.7126,1.5294,1.472,1.0378,1.4582,1.4268,0.9144,0.8432,1.0019,0.2843,-0.479,-0.7044,-0.5082,-0.5376,0.6083,0.1684
1.1911,1.0637,1.3276,1.0123,0.7856,0.2952,-0.3503,-1.0758,-1.0994,-1.8733,-0.912,-2.192,-0.0952,0.2508,1.6889,1.4264,1.3459,0.9432,1.3068,1.345,0.797,0.6953,0.8714,0.1706,-0.4937,-0.7454,-0.5528,-0.5835,0.62,0.1189
1.0736,1.0265,1.2894,0.9954,0.7758,0.2676,-0.4469,-1.0388,-0.977,-1.9526,-0.8447,-2.2769,-0.2652,0.0892,1.7106,1.2914,1.1809,0.8522,1.0865,1.2313,0.6538,0.5125,0.7632,0.0059,-0.4986,-0.7821,-0.6272,-0.629,0.6035,0.0769
0.9678,0.9573,1.2646,0.9553,0.7427,0.2074,-0.573,-1.0358,-0.866,-2.0339,-0.7622,-2.3648,-0.4602,-0.0939,1.7711,1.1321,0.9853,0.7686,0.812,1.0906,0.4956,0.3083,0.6925,-0.1974,-0.4962,-0.8125,-0.7339,-0.6718,0.5678,0.0512
0.8809,0.8593,1.2601,0.8921,0.6895,0.1244,-0.7147,-1.0572,-0.7776,-2.106,-0.6813,-2.4432,-0.6631,-0.2806,1.8486,0.9601,0.7751,0.6932,0.5141,0.9334,0.3371,0.1016,0.6633,-0.4181,-0.4883,-0.8351,-0.8645,-0.7087,0.5225,0.0443
0.8117,0.7393,1.2746,0.8095,0.6233,0.0329,-0.853,-1.0916,-0.7159,-2.1546,-0.615,-2.4987,-0.8531,-0.4508,1.9104,0.7898,0.5731,0.625,0.2362,0.7748,0.194,-0.0849,0.6673,-0.6294,-0.4753,-0.8508,-1.0014,-0.7377,0.4748,0.0511
0.7508,0.605,1.2994,0.7125,0.5529,-0.0522,-0.9678,-1.1295,-0.6789,-2.166,-0.5717,-2.5208,-1.0088,-0.5856,1.9204,0.6353,0.404,0.5614,0.0256,0.6317,0.0808,-0.2288,0.6853,-0.8042,-0.4566,-0.8628,-1.1216,-0.7591,0.4277,0.0588
0.6838,0.4619,1.3211,0.6057,0.4865,-0.1188,-1.0423,-1.1653,-0.6603,-2.1305,-0.5566,-2.5033,-1.113,-0.6708,1.8472,0.5069,0.2895,0.4982,-0.0764,0.5182,0.0069,-0.3124,0.6913,-0.9205,-0.4314,-0.8754,-1.2027,-0.7758,0.3804,0.0502
0.5955,0.3123,1.3258,0.4914,0.4299,-0.1603,-1.0661,-1.198,-0.6526,-2.045,-0.5717,-2.4464,-1.1561,-0.6999,1.6709,0.4094,0.2427,0.4308,-0.0442,0.4432,-0.0246,-0.3266,0.6593,-0.9667,-0.399,-0.8927,-1.2282,-0.7927,0.3297,0.008
0.4736,0.1561,1.3034,0.3699,0.3854,-0.1756,-1.0372,-1.2297,-0.6489,-1.9129,-0.6158,-2.3552,-1.138,-0.6749,1.387,0.3408,0.2657,0.355,0.1272,0.4081,-0.0178,-0.2724,0.5697,-0.9429,-0.3596,-0.917,-1.1912,-0.8154,0.2718,-0.0805
0.3132,-0.0076,1.2501,0.241,0.3523,-0.1686,-0.9619,-1.2632,-0.6438,-1.7435,-0.6842,-2.2383,-1.0678,-0.605,1.0072,0.2948,0.3499,0.2685,0.4215,0.4076,0.0188,-0.1604,0.4154,-0.8597,-0.3138,-0.9488,-1.0955,-0.8475,0.2043,-0.219
0.1179,-0.178,1.1694,0.1059,0.3278,-0.1462,-0.8534,-1.2999,-0.6337,-1.5494,-0.7689,-2.1057,-0.9613,-0.505,0.5562,0.2625,0.4778,0.1717,0.8055,0.4315,0.0735,-0.0085,0.204,-0.7356,-0.2631,-0.9869,-0.9545,-0.8895,0.1273,-0.4007
-0.1007,-0.3522,1.0709,-0.0321,0.3084,-0.1158,-0.7284,-1.3389,-0.6168,-1.344,-0.8595,-1.9671,-0.8381,-0.3921,0.0675,0.2354,0.6273,0.0676,1.2349,0.4672,0.135,0.1617,-0.0435,-0.5924,-0.2095,-1.0294,-0.7884,-0.9385,0.0433,-0.6092
