time	FP1	F3	F7	FC3	C3	C5	P3	P7	PO7	PO3	O1	Oz	Pz	CPz	FP2	Fz	F4	F8	FC4	FCz	Cz	C4	C6	P4	P8	PO8	PO4	O2	HEOG_left	HEOG_right
-199.2188	-0.1148	-0.8899	-0.6423	-0.848	-0.7795	-0.2583	-0.1805	0.1762	0.4243	0.6716	0.4895	0.5758	0.0548	-0.4095	-0.9271	-0.9714	-0.8596	-1.1416	-0.8218	-0.9481	-0.7442	-1.0363	-0.6722	-0.1948	-0.2086	-0.2601	-0.0309	0.178	0.0125	-0.2532
-195.3125	-0.2193	-0.8008	-0.5397	-0.8012	-0.7436	-0.2144	-0.191	0.1235	0.3472	0.6345	0.4616	0.4233	0.0912	-0.3328	-0.7413	-0.832	-0.7828	-0.8631	-0.7699	-0.8112	-0.6404	-0.9324	-0.6583	-0.2218	-0.2093	-0.258	-0.0525	0.116	-0.0314	-0.2324
-191.4062	-0.309	-0.7162	-0.4476	-0.7545	-0.7157	-0.1776	-0.2071	0.0686	0.2696	0.5865	0.4209	0.2728	0.1088	-0.2717	-0.5738	-0.7021	-0.7074	-0.6119	-0.7215	-0.6859	-0.5501	-0.8375	-0.6444	-0.2521	-0.2125	-0.2612	-0.0862	0.0496	-0.067	-0.2084
-187.5	-0.3714	-0.6392	-0.3722	-0.7069	-0.7004	-0.1512	-0.232	0.0111	0.1921	0.5192	0.3581	0.1271	0.0936	-0.2379	-0.4382	-0.5896	-0.6354	-0.4098	-0.6785	-0.5813	-0.4835	-0.7584	-0.6295	-0.2876	-0.219	-0.2729	-0.1392	-0.0238	-0.0872	-0.1798
-183.5938	-0.4014	-0.5717	-0.3162	-0.6568	-0.6977	-0.1346	-0.2661	-0.0464	0.1184	0.4304	0.2704	-0.0099	0.0394	-0.2377	-0.3406	-0.4996	-0.5692	-0.27	-0.6422	-0.5029	-0.4467	-0.6986	-0.6139	-0.3278	-0.2283	-0.2932	-0.2131	-0.1039	-0.0872	-0.1492
-179.6875	-0.4011	-0.5148	-0.2788	-0.603	-0.7032	-0.1239	-0.3066	-0.0982	0.055	0.3244	0.1616	-0.1334	-0.0513	-0.2706	-0.2787	-0.4346	-0.5117	-0.1958	-0.6132	-0.452	-0.4399	-0.6586	-0.599	-0.3698	-0.2389	-0.3196	-0.3034	-0.1869	-0.0659	-0.1225
-175.7812	-0.3793	-0.4692	-0.2564	-0.5453	-0.7095	-0.113	-0.3485	-0.1377	0.0088	0.2107	0.0414	-0.2387	-0.1684	-0.3306	-0.2447	-0.3947	-0.4656	-0.1813	-0.5914	-0.4263	-0.459	-0.6361	-0.5867	-0.4094	-0.2489	-0.3476	-0.4006	-0.267	-0.0255	-0.1066
-171.875	-0.3476	-0.4353	-0.243	-0.4854	-0.7089	-0.0966	-0.3868	-0.1596	-0.0149	0.101	-0.0775	-0.3215	-0.297	-0.4076	-0.2278	-0.378	-0.4331	-0.2137	-0.5765	-0.4212	-0.4968	-0.6264	-0.5785	-0.4423	-0.2571	-0.3724	-0.4926	-0.3376	0.0284	-0.1069
-167.9688	-0.3165	-0.4127	-0.2319	-0.4263	-0.6958	-0.0723	-0.4175	-0.162	-0.015	0.0059	-0.1824	-0.3795	-0.4203	-0.4897	-0.218	-0.3809	-0.4151	-0.2762	-0.5673	-0.4304	-0.5442	-0.6241	-0.5739	-0.4651	-0.2633	-0.3904	-0.5678	-0.393	0.0881	-0.1246
-164.0625	-0.2918	-0.3991	-0.2165	-0.3717	-0.6679	-0.0416	-0.4388	-0.1475	0.0048	-0.0675	-0.2631	-0.4125	-0.5234	-0.565	-0.2087	-0.3983	-0.4102	-0.3503	-0.5617	-0.4467	-0.5919	-0.6228	-0.5702	-0.4758	-0.2683	-0.4004	-0.6175	-0.4305	0.1452	-0.1554
-160.1562	-0.2733	-0.3906	-0.1917	-0.3247	-0.6265	-0.0097	-0.4507	-0.1222	0.0362	-0.1171	-0.314	-0.4228	-0.5949	-0.6233	-0.1974	-0.4231	-0.4141	-0.4188	-0.5561	-0.4624	-0.6307	-0.6161	-0.562	-0.4744	-0.2735	-0.4034	-0.6373	-0.4503	0.1919	-0.1898
-156.25	-0.2552	-0.3815	-0.1548	-0.2867	-0.5756	0.0162	-0.4541	-0.0945	0.0692	-0.1452	-0.3342	-0.4138	-0.6288	-0.6567	-0.1854	-0.4476	-0.4207	-0.4676	-0.546	-0.4702	-0.6527	-0.598	-0.5432	-0.4618	-0.2802	-0.4019	-0.6274	-0.4548	0.2225	-0.2158
-152.3438	-0.2296	-0.3661	-0.1067	-0.2572	-0.5207	0.0288	-0.4506	-0.0726	0.0936	-0.1571	-0.3274	-0.3893	-0.6245	-0.6608	-0.1758	-0.464	-0.4229	-0.4877	-0.5272	-0.464	-0.6524	-0.5643	-0.5083	-0.4392	-0.2885	-0.3989	-0.5917	-0.447	0.2341	-0.2219
-148.4375	-0.1903	-0.3406	-0.0524	-0.2345	-0.4674	0.0226	-0.4411	-0.0627	0.102	-0.1589	-0.3	-0.3531	-0.5861	-0.6346	-0.1723	-0.4667	-0.415	-0.4759	-0.4969	-0.4401	-0.6269	-0.5135	-0.4548	-0.4078	-0.2969	-0.3956	-0.536	-0.4294	0.2268	-0.2007
-144.5312	-0.136	-0.3042	-0.0003	-0.2167	-0.4202	-0.0045	-0.4263	-0.0676	0.0904	-0.1562	-0.2601	-0.308	-0.5213	-0.5808	-0.1777	-0.4536	-0.3943	-0.4347	-0.4551	-0.3984	-0.5772	-0.4474	-0.3842	-0.3686	-0.3021	-0.3912	-0.4669	-0.4026	0.2031	-0.1513
-140.625	-0.0719	-0.2598	0.0396	-0.2019	-0.3822	-0.0504	-0.4059	-0.0867	0.0595	-0.1525	-0.2157	-0.2562	-0.4392	-0.505	-0.1922	-0.4261	-0.362	-0.3715	-0.4047	-0.3423	-0.5081	-0.3707	-0.3021	-0.322	-0.2996	-0.3827	-0.3898	-0.3657	0.1673	-0.0799
-136.7188	-0.0084	-0.213	0.0586	-0.1891	-0.3542	-0.1089	-0.3793	-0.1161	0.0137	-0.1487	-0.1735	-0.1997	-0.3492	-0.4142	-0.2137	-0.3888	-0.3224	-0.2959	-0.351	-0.2783	-0.4266	-0.2903	-0.216	-0.2688	-0.2844	-0.3651	-0.309	-0.3171	0.1246	0.0017
-132.8125	0.0414	-0.1697	0.0519	-0.1774	-0.3346	-0.1705	-0.3448	-0.1488	-0.0393	-0.144	-0.1377	-0.1403	-0.2589	-0.3166	-0.2376	-0.3474	-0.2811	-0.2175	-0.2995	-0.2141	-0.3411	-0.2133	-0.1338	-0.21	-0.2529	-0.334	-0.2271	-0.2559	0.0801	0.079
-128.9062	0.0653	-0.1346	0.0206	-0.1658	-0.3195	-0.2237	-0.3007	-0.177	-0.0903	-0.1358	-0.1102	-0.08	-0.1742	-0.2193	-0.2578	-0.3077	-0.2437	-0.1434	-0.2549	-0.1568	-0.2597	-0.1459	-0.0619	-0.1482	-0.2042	-0.2866	-0.1465	-0.1834	0.038	0.1388
-125	0.0553	-0.1098	-0.0288	-0.1529	-0.3035	-0.2571	-0.245	-0.1926	-0.1301	-0.1215	-0.0905	-0.0217	-0.0985	-0.1286	-0.2683	-0.2736	-0.2142	-0.0779	-0.2199	-0.1117	-0.1881	-0.0923	-0.0041	-0.087	-0.1409	-0.2232	-0.0695	-0.1035	0.0013	0.1726
-121.0938	0.0098	-0.0952	-0.0861	-0.1371	-0.2808	-0.2617	-0.1771	-0.1896	-0.1512	-0.0997	-0.0767	0.0317	-0.0335	-0.0491	-0.2652	-0.2476	-0.1947	-0.0221	-0.1952	-0.0818	-0.1301	-0.0543	0.0385	-0.0312	-0.0688	-0.1477	0.001	-0.023	-0.0289	0.1783
-117.1875	-0.0666	-0.0885	-0.1403	-0.1173	-0.2467	-0.2324	-0.0975	-0.165	-0.1498	-0.0707	-0.0659	0.0769	0.0207	0.0161	-0.2473	-0.23	-0.1862	0.0237	-0.1796	-0.0673	-0.0864	-0.0318	0.0664	0.0144	0.004	-0.0664	0.062	0.0502	-0.0532	0.1605
-113.2812	-0.1632	-0.0868	-0.1821	-0.093	-0.1986	-0.1698	-0.0088	-0.1196	-0.1264	-0.0371	-0.0558	0.1109	0.0645	0.0658	-0.2171	-0.2199	-0.1882	0.0595	-0.1712	-0.0658	-0.0557	-0.0223	0.0819	0.0468	0.0697	0.0132	0.1106	0.1086	-0.073	0.129
-109.375	-0.2654	-0.087	-0.2058	-0.0644	-0.1363	-0.0798	0.0846	-0.0582	-0.0858	-0.0034	-0.0445	0.1316	0.0992	0.1008	-0.1801	-0.2152	-0.1992	0.0842	-0.1672	-0.0735	-0.0346	-0.022	0.0879	0.0654	0.1224	0.0847	0.1457	0.1467	-0.0901	0.0949
-105.4688	-0.3565	-0.086	-0.2102	-0.0327	-0.0617	0.0268	0.1769	0.0116	-0.0361	0.0256	-0.0315	0.138	0.1263	0.1235	-0.1432	-0.2126	-0.2156	0.0964	-0.1643	-0.0844	-0.0186	-0.0253	0.0877	0.0737	0.1597	0.1437	0.1677	0.1622	-0.1063	0.0684
-101.5625	-0.4202	-0.0806	-0.1975	0.0007	0.0226	0.1368	0.2622	0.0807	0.0128	0.0457	-0.0166	0.1303	0.1478	0.1381	-0.1126	-0.2076	-0.2321	0.0949	-0.1582	-0.0917	-0.0024	-0.0255	0.0857	0.0781	0.1829	0.1887	0.1793	0.156	-0.1222	0.0554
-97.6562	-0.4431	-0.0677	-0.1715	0.0352	0.1143	0.2366	0.3347	0.1406	0.0516	0.0547	-0.0005	0.1101	0.1661	0.1496	-0.092	-0.1946	-0.2414	0.0807	-0.144	-0.088	0.0192	-0.0155	0.0867	0.0865	0.1959	0.2206	0.1845	0.131	-0.1374	0.0572
-93.75	-0.4174	-0.0437	-0.1365	0.071	0.2115	0.315	0.3904	0.1843	0.0731	0.0528	0.0162	0.08	0.183	0.1632	-0.0809	-0.1675	-0.2349	0.0581	-0.116	-0.0667	0.0511	0.0114	0.0957	0.1065	0.2041	0.2418	0.1874	0.0919	-0.1508	0.0709
-89.8438	-0.3427	-0.0057	-0.0958	0.1089	0.3129	0.3646	0.4273	0.208	0.0734	0.0429	0.0328	0.0439	0.2001	0.1827	-0.075	-0.1208	-0.2039	0.0358	-0.0687	-0.0233	0.0961	0.06	0.1174	0.1424	0.2124	0.2554	0.1918	0.044	-0.1605	0.0913
-85.9375	-0.2266	0.0478	-0.0517	0.1506	0.4164	0.3826	0.4464	0.2111	0.053	0.03	0.0495	0.0067	0.2182	0.2103	-0.0664	-0.0509	-0.1416	0.0252	0.0019	0.043	0.1549	0.1325	0.1555	0.1943	0.2246	0.2639	0.1997	-0.0059	-0.1643	0.1134
-82.0312	-0.0837	0.1157	-0.0055	0.1971	0.5188	0.3708	0.4504	0.1964	0.0165	0.0201	0.0672	-0.0254	0.237	0.2458	-0.0468	0.0422	-0.0446	0.0386	0.0969	0.129	0.2257	0.2273	0.211	0.2578	0.2424	0.2701	0.2118	-0.05	-0.1599	0.1332
-78.125	0.0671	0.1946	0.0417	0.2481	0.6146	0.3346	0.4441	0.1692	-0.0283	0.0192	0.0877	-0.0453	0.2555	0.2867	-0.009	0.155	0.0853	0.0853	0.2138	0.2271	0.304	0.339	0.2822	0.3246	0.2664	0.2762	0.228	-0.0794	-0.1449	0.1489
-74.2188	0.2058	0.2784	0.0893	0.3023	0.6976	0.2821	0.4323	0.1369	-0.0716	0.032	0.1134	-0.0461	0.2723	0.3292	0.0506	0.2799	0.2405	0.168	0.3456	0.3274	0.3838	0.4581	0.3637	0.3852	0.2955	0.2843	0.2471	-0.0854	-0.1177	0.16
-70.3125	0.3161	0.3594	0.1367	0.3565	0.7611	0.2224	0.4194	0.1071	-0.1033	0.0602	0.1458	-0.0226	0.285	0.3685	0.1311	0.4064	0.4079	0.2812	0.4816	0.4189	0.4581	0.5731	0.4474	0.4301	0.3271	0.2962	0.2677	-0.0613	-0.0772	0.1665
-66.4062	0.3878	0.4298	0.1834	0.4064	0.7999	0.1635	0.4075	0.0864	-0.1151	0.102	0.1848	0.0262	0.2912	0.399	0.2266	0.523	0.5701	0.4104	0.6083	0.4919	0.5199	0.671	0.523	0.4523	0.3571	0.3119	0.2879	-0.005	-0.0246	0.1685
-62.5	0.4191	0.4826	0.2288	0.4469	0.8107	0.1113	0.396	0.0786	-0.1027	0.1508	0.2277	0.0964	0.2875	0.4158	0.3272	0.6179	0.7081	0.5351	0.7118	0.5393	0.563	0.7403	0.5801	0.448	0.38	0.3298	0.3052	0.0795	0.0373	0.1654
-58.5938	0.4161	0.5129	0.2719	0.4732	0.7936	0.0681	0.382	0.084	-0.0666	0.1966	0.2687	0.1788	0.2708	0.4145	0.4201	0.6818	0.805	0.6327	0.7803	0.5575	0.5829	0.7725	0.6097	0.4172	0.3897	0.3466	0.3168	0.1822	0.1031	0.1565
-54.6875	0.3906	0.5189	0.311	0.4819	0.7513	0.0335	0.3605	0.099	-0.0126	0.2271	0.2998	0.2603	0.2389	0.3933	0.4923	0.7089	0.8491	0.6841	0.8063	0.5471	0.5775	0.7641	0.607	0.364	0.3809	0.3579	0.3203	0.2886	0.1656	0.1409
-50.7812	0.3575	0.5025	0.3438	0.4722	0.6896	0.0052	0.3271	0.1174	0.049	0.2304	0.3124	0.3265	0.1918	0.3532	0.5331	0.6986	0.8369	0.678	0.7887	0.5127	0.5484	0.7177	0.5725	0.2963	0.3512	0.3601	0.3144	0.3828	0.2164	0.1189
-46.875	0.33	0.4693	0.3672	0.4466	0.6158	-0.0196	0.2798	0.1321	0.1057	0.1982	0.299	0.3649	0.1328	0.299	0.537	0.6556	0.7744	0.6143	0.7333	0.462	0.5008	0.642	0.5125	0.2241	0.3019	0.3516	0.2997	0.4513	0.2476	0.0914
-42.9688	0.3174	0.427	0.3782	0.4105	0.5379	-0.0425	0.2203	0.1363	0.145	0.1278	0.2555	0.3678	0.0687	0.2389	0.5048	0.59	0.676	0.504	0.6526	0.4051	0.4432	0.5506	0.4383	0.1585	0.2383	0.3333	0.2788	0.4854	0.253	0.0612
-39.0625	0.3227	0.3846	0.3743	0.371	0.4629	-0.0639	0.1541	0.1258	0.1567	0.0237	0.1824	0.334	0.0089	0.1832	0.4448	0.5156	0.5625	0.367	0.5631	0.3527	0.3863	0.4593	0.3636	0.1095	0.1684	0.3082	0.2558	0.483	0.2294	0.0316
-35.1562	0.3429	0.3508	0.3551	0.3362	0.3964	-0.0827	0.0892	0.0991	0.1355	-0.1033	0.0853	0.2686	-0.0364	0.1424	0.3712	0.4481	0.4571	0.2286	0.4829	0.3152	0.3414	0.3837	0.3019	0.0837	0.1012	0.2799	0.2349	0.4478	0.1778	0.0064
-31.25	0.3717	0.3326	0.3233	0.3132	0.3422	-0.0972	0.0346	0.0581	0.0814	-0.2379	-0.0262	0.1814	-0.058	0.1255	0.3014	0.4027	0.3809	0.1141	0.4278	0.3009	0.3186	0.3364	0.263	0.084	0.0442	0.2519	0.2195	0.3877	0.1032	-0.011
-27.3438	0.402	0.3348	0.2849	0.3076	0.3027	-0.1051	-0.0024	0.0076	0.0003	-0.363	-0.1397	0.0854	-0.0496	0.138	0.2524	0.3918	0.3494	0.0439	0.4089	0.3148	0.3247	0.3244	0.2521	0.1082	0.0022	0.226	0.2108	0.3123	0.0146	-0.0189
-23.4375	0.4298	0.3599	0.2489	0.3231	0.2797	-0.1041	-0.0178	-0.0458	-0.0971	-0.4631	-0.2419	-0.0065	-0.0095	0.1815	0.2372	0.4229	0.3698	0.0301	0.4308	0.3588	0.3626	0.3485	0.2684	0.1504	-0.0233	0.2024	0.208	0.2316	-0.0769	-0.017
-19.5312	0.4554	0.4079	0.2259	0.3606	0.2749	-0.0919	-0.012	-0.0945	-0.1969	-0.5265	-0.3205	-0.0825	0.0591	0.2527	0.263	0.4975	0.44	0.074	0.491	0.4307	0.4302	0.4038	0.3065	0.202	-0.0345	0.18	0.2079	0.1539	-0.1587	-0.0068
-15.625	0.4834	0.477	0.2252	0.4189	0.2897	-0.0667	0.011	-0.1312	-0.2846	-0.5475	-0.3663	-0.1342	0.1488	0.3446	0.3297	0.6109	0.5498	0.167	0.5808	0.5251	0.5214	0.4807	0.3576	0.2523	-0.0368	0.1567	0.206	0.0859	-0.2191	0.0096
-11.7188	0.5207	0.5635	0.2535	0.4942	0.325	-0.0275	0.0443	-0.1502	-0.3475	-0.5271	-0.3744	-0.1571	0.2484	0.4473	0.4309	0.7529	0.6831	0.2926	0.6877	0.6341	0.6263	0.5671	0.4117	0.2905	-0.0376	0.1292	0.1963	0.0311	-0.249	0.0299
-7.8125	0.5749	0.6621	0.313	0.581	0.3798	0.025	0.0799	-0.1488	-0.3771	-0.4733	-0.3459	-0.1522	0.3445	0.5494	0.5559	0.9098	0.8211	0.4301	0.7974	0.7487	0.7336	0.65	0.4587	0.306	-0.0464	0.0932	0.172	-0.0101	-0.2429	0.0523
-3.9062	0.6517	0.7666	0.401	0.6726	0.4509	0.0885	0.1105	-0.128	-0.3714	-0.4003	-0.2879	-0.1257	0.4233	0.6399	0.6916	1.0673	0.9464	0.559	0.8967	0.8599	0.8319	0.7179	0.4905	0.2901	-0.0726	0.043	0.1263	-0.0415	-0.2004	0.076
0	0.7536	0.8711	0.5112	0.7627	0.5332	0.1596	0.1307	-0.0925	-0.3351	-0.3254	-0.2128	-0.0881	0.4728	0.7096	0.8259	1.2128	1.046	0.6627	0.9761	0.9609	0.9127	0.7627	0.5022	0.2373	-0.1242	-0.0271	0.0538	-0.0695	-0.1257	0.1008
3.9062	0.8788	0.9711	0.6353	0.8473	0.6209	0.2349	0.1378	-0.0496	-0.2791	-0.2668	-0.1362	-0.0522	0.4852	0.753	0.9497	1.3388	1.1137	0.7314	1.0312	1.0485	0.9715	0.7812	0.4931	0.1472	-0.2053	-0.1214	-0.0478	-0.1022	-0.0266	0.1271
7.8125	1.023	1.0648	0.7652	0.9263	0.7098	0.3126	0.1319	-0.0076	-0.2176	-0.2394	-0.0739	-0.0305	0.4578	0.7692	1.0586	1.4436	1.1513	0.764	1.0641	1.1238	1.0091	0.7764	0.4677	0.0255	-0.3144	-0.2403	-0.1762	-0.1464	0.0865	0.156
11.7188	1.1803	1.1542	0.8953	1.0039	0.7984	0.3928	0.1157	0.0263	-0.1652	-0.2526	-0.0397	-0.0325	0.3943	0.7621	1.1529	1.5325	1.1676	0.7674	1.0829	1.1927	1.0317	0.7576	0.4357	-0.1155	-0.443	-0.3788	-0.323	-0.2061	0.2029	0.1889
15.625	1.3458	1.2448	1.0234	1.0878	0.8884	0.4776	0.0932	0.0475	-0.1339	-0.3085	-0.0426	-0.0628	0.3042	0.74	1.2369	1.6156	1.1769	0.7559	1.1004	1.2645	1.049	0.7396	0.4113	-0.2583	-0.5764	-0.5264	-0.4748	-0.2807	0.3124	0.2276
19.5312	1.5166	1.3452	1.1505	1.1875	0.9833	0.5697	0.0683	0.0545	-0.1309	-0.4018	-0.0853	-0.1205	0.2008	0.7141	1.317	1.7057	1.196	0.7478	1.1318	1.3499	1.0726	0.7402	0.4107	-0.3827	-0.6965	-0.6678	-0.6148	-0.3649	0.4073	0.2734
23.4375	1.6921	1.4653	1.2797	1.3116	1.0875	0.6713	0.0443	0.0487	-0.1568	-0.5215	-0.1645	-0.1992	0.1	0.6964	1.4	1.8157	1.2419	0.7633	1.1924	1.4593	1.1134	0.7771	0.45	-0.469	-0.7847	-0.7865	-0.7258	-0.45	0.4823	0.327
27.3438	1.8741	1.6151	1.4149	1.466	1.204	0.7823	0.0227	0.0346	-0.2063	-0.6525	-0.2702	-0.2887	0.0169	0.698	1.4923	1.9557	1.3294	0.8207	1.295	1.6001	1.1798	0.8649	0.5422	-0.5022	-0.8266	-0.8677	-0.7932	-0.5254	0.5348	0.3879
31.25	2.0647	1.8026	1.5593	1.6528	1.334	0.9007	0.0042	0.0179	-0.2698	-0.7786	-0.3884	-0.3762	-0.0359	0.7274	1.5991	2.1321	1.4697	0.9348	1.4485	1.7762	1.2769	1.012	0.6947	-0.4742	-0.8149	-0.9017	-0.8082	-0.5806	0.5648	0.4549
35.1562	2.2653	2.0324	1.715	1.8698	1.4768	1.0221	-0.0112	0.0042	-0.3362	-0.8848	-0.5025	-0.4491	-0.0505	0.7889	1.7244	2.3461	1.6692	1.1139	1.6562	1.9869	1.4055	1.2192	0.9075	-0.3865	-0.7517	-0.8861	-0.7693	-0.6073	0.5747	0.5262
39.0625	2.4742	2.3042	1.8826	2.1114	1.6299	1.1415	-0.023	-0.0019	-0.3954	-0.9593	-0.5964	-0.4966	-0.0246	0.8828	1.8708	2.5946	1.9278	1.3588	1.9155	2.2276	1.5627	1.4792	1.1732	-0.2494	-0.648	-0.8265	-0.6828	-0.6013	0.5686	0.6007
42.9688	2.6867	2.6121	2.0619	2.3692	1.7893	1.2538	-0.0295	0.0018	-0.4413	-0.9946	-0.6573	-0.5114	0.0382	1.0044	2.0396	2.8701	2.2382	1.6603	2.2177	2.4894	1.7424	1.7771	1.4772	-0.0808	-0.5213	-0.7352	-0.5613	-0.5625	0.5525	0.6779
46.875	2.8947	2.9444	2.2514	2.6323	1.9491	1.3549	-0.028	0.0153	-0.4717	-0.9884	-0.677	-0.4905	0.1294	1.1451	2.2289	3.1604	2.5853	1.9997	2.547	2.7598	1.9352	2.0922	1.799	0.0974	-0.3922	-0.6285	-0.4218	-0.495	0.5338	0.7577
50.7812	3.0881	3.2827	2.4476	2.8879	2.1013	1.4415	-0.0152	0.0365	-0.4886	-0.9431	-0.6536	-0.4351	0.2367	1.2925	2.4319	3.4488	2.9454	2.3491	2.882	3.0224	2.1285	2.3994	2.1144	0.2628	-0.2797	-0.5234	-0.282	-0.4064	0.5204	0.8386
54.6875	3.2561	3.6031	2.644	3.1206	2.235	1.5113	0.0112	0.0617	-0.496	-0.8657	-0.5913	-0.3506	0.3457	1.4317	2.6356	3.7138	3.2882	2.6752	3.1956	3.2571	2.3068	2.6721	2.397	0.3958	-0.1981	-0.4345	-0.1582	-0.306	0.5194	0.9171
58.5938	3.3882	3.878	2.8298	3.3133	2.3374	1.5624	0.0514	0.0863	-0.4987	-0.7665	-0.4996	-0.246	0.442	1.5465	2.821	3.9302	3.5799	2.944	3.458	3.4412	2.4523	2.8841	2.6212	0.4825	-0.1548	-0.3721	-0.0629	-0.2042	0.5358	0.9869
62.5	3.4746	4.0792	2.9906	3.4484	2.3949	1.5933	0.1033	0.1059	-0.5006	-0.6581	-0.3921	-0.133	0.513	1.6216	2.9646	4.0719	3.7873	3.1261	3.6405	3.5528	2.5475	3.0132	2.7651	0.5162	-0.1499	-0.3409	-0.0041	-0.111	0.5706	1.0391
66.4062	3.5073	4.1822	3.1091	3.5101	2.3959	1.6032	0.1626	0.117	-0.5038	-0.553	-0.2841	-0.0241	0.5501	1.6457	3.0437	4.1168	3.8843	3.2024	3.7196	3.5737	2.5777	3.0448	2.815	0.498	-0.177	-0.3405	0.0159	-0.0353	0.6202	1.0643
70.3125	3.4798	4.1714	3.1684	3.4881	2.334	1.5923	0.2244	0.118	-0.509	-0.462	-0.1903	0.0684	0.5502	1.6134	3.0404	4.0512	3.8563	3.1664	3.6824	3.4947	2.5349	2.9743	2.7676	0.4364	-0.2247	-0.3656	0.0004	0.0165	0.6765	1.0546
74.2188	3.3886	4.0432	3.1555	3.3804	2.2102	1.5625	0.2848	0.1091	-0.5157	-0.3928	-0.1229	0.1346	0.5161	1.5278	2.9472	3.8747	3.7041	3.0258	3.5297	3.3185	2.4204	2.809	2.6322	0.346	-0.2792	-0.4074	-0.0427	0.0414	0.7282	1.0063
78.125	3.2345	3.809	3.0644	3.1954	2.0347	1.5176	0.3421	0.0922	-0.5236	-0.3493	-0.0901	0.1675	0.4565	1.3997	2.7694	3.6019	3.4447	2.8008	3.277	3.0613	2.2462	2.5684	2.4298	0.2447	-0.3262	-0.4555	-0.1016	0.0392	0.7634	0.9208
82.0312	3.0244	3.4939	2.8989	2.9519	1.826	1.4631	0.3967	0.0698	-0.5338	-0.3321	-0.0962	0.1632	0.3835	1.2471	2.5251	3.2619	3.1091	2.5204	2.9532	2.7513	2.0335	2.2808	2.1899	0.1508	-0.3532	-0.4989	-0.1632	0.0124	0.7721	0.8047
85.9375	2.773	3.1337	2.673	2.677	1.609	1.4058	0.4507	0.0443	-0.5496	-0.3398	-0.1414	0.1206	0.3109	1.0911	2.2425	2.8937	2.7377	2.2181	2.5958	2.4243	1.8097	1.98	1.9457	0.08	-0.3517	-0.5286	-0.2155	-0.0352	0.7485	0.6687
89.8438	2.5022	2.7694	2.4098	2.4019	1.4114	1.3528	0.5066	0.0166	-0.5763	-0.3696	-0.2233	0.0405	0.2507	0.9527	1.9544	2.5404	2.3738	1.9263	2.2447	2.1186	1.6032	1.6995	1.7281	0.0426	-0.3184	-0.539	-0.25	-0.0992	0.6926	0.5255
93.75	2.239	2.4413	2.138	2.1569	1.2592	1.3102	0.5659	-0.0137	-0.62	-0.4184	-0.3372	-0.0744	0.2119	0.8494	1.6933	2.2419	2.0562	1.6718	1.9357	1.8683	1.4391	1.4673	1.5608	0.0428	-0.2556	-0.5287	-0.263	-0.1755	0.61	0.3881
97.6562	2.0109	2.1827	1.8869	1.9671	1.1725	1.282	0.6282	-0.0478	-0.6852	-0.4815	-0.4755	-0.2184	0.1991	0.7922	1.4854	2.0283	1.8143	1.4729	1.695	1.6981	1.3347	1.3023	1.4565	0.078	-0.1714	-0.5002	-0.2558	-0.2596	0.5107	0.2675
101.5625	1.8415	2.0155	1.6818	1.8479	1.1614	1.2692	0.6915	-0.0859	-0.7724	-0.5525	-0.6281	-0.3821	0.2132	0.7853	1.3472	1.9157	1.6637	1.3379	1.5357	1.62	1.298	1.2115	1.4158	0.1412	-0.0777	-0.4595	-0.2331	-0.3454	0.4066	0.1716
105.4688	1.7464	1.9475	1.5397	1.8036	1.2245	1.2694	0.7533	-0.1262	-0.8757	-0.6215	-0.7807	-0.5508	0.2529	0.8267	1.2833	1.9049	1.6053	1.2652	1.4578	1.6326	1.3272	1.1911	1.4283	0.2225	0.0119	-0.4131	-0.2006	-0.4248	0.3093	0.1042
109.375	1.7301	1.9721	1.4665	1.8268	1.3494	1.2773	0.8119	-0.1632	-0.9819	-0.6751	-0.9153	-0.7055	0.3162	0.91	1.287	1.982	1.6267	1.2448	1.4498	1.7226	1.4127	1.2291	1.4765	0.3125	0.0851	-0.3665	-0.1627	-0.4869	0.2275	0.0654
113.2812	1.7857	2.0696	1.457	1.9009	1.5151	1.2855	0.8679	-0.1877	-1.0715	-0.697	-1.0111	-0.8238	0.4018	1.0268	1.3422	2.1226	1.7047	1.2603	1.4926	1.8687	1.5399	1.3085	1.5396	0.4041	0.133	-0.3222	-0.1202	-0.5192	0.1655	0.0522
117.1875	1.8963	2.2112	1.4964	2.0025	1.6966	1.2853	0.9242	-0.1881	-1.1218	-0.6708	-1.0473	-0.8835	0.5097	1.168	1.427	2.2956	1.8102	1.2916	1.5637	2.0448	1.6921	1.4116	1.5985	0.4933	0.1518	-0.2798	-0.0704	-0.5099	0.1232	0.0601
121.0938	2.0374	2.3625	1.5622	2.1054	1.8683	1.2678	0.9854	-0.1536	-1.112	-0.584	-1.0072	-0.8674	0.6392	1.3243	1.5166	2.4681	1.9115	1.3174	1.6402	2.2242	1.8521	1.5222	1.6378	0.5786	0.1422	-0.2365	-0.008	-0.4509	0.0968	0.0836
125	2.1809	2.4879	1.6281	2.1828	2.0075	1.2242	1.0543	-0.0779	-1.0286	-0.4323	-0.883	-0.7673	0.7874	1.4855	1.5872	2.6083	1.979	1.3176	1.7017	2.3812	2.0027	1.6263	1.648	0.6596	0.1088	-0.1896	0.0713	-0.3406	0.0798	0.1171
128.9062	2.2984	2.5539	1.6673	2.2102	2.0957	1.1467	1.1295	0.0374	-0.8696	-0.2229	-0.6788	-0.5878	0.9464	1.6385	1.6178	2.6885	1.9878	1.2752	1.7306	2.4923	2.1265	1.7118	1.6242	0.7343	0.0575	-0.1385	0.1685	-0.1858	0.0655	0.1549
132.8125	2.3643	2.5328	1.6562	2.1676	2.1192	1.0288	1.203	0.1813	-0.647	0.0243	-0.4124	-0.3471	1.102	1.7672	1.5929	2.6863	1.9204	1.1773	1.713	2.537	2.2058	1.7673	1.5654	0.7973	-0.0059	-0.0861	0.2785	-0.0021	0.0483	0.1916
136.7188	2.3584	2.4056	1.578	2.0405	2.0694	0.867	1.2607	0.3342	-0.385	0.279	-0.1131	-0.0749	1.2345	1.8522	1.503	2.5865	1.7682	1.0172	1.6389	2.4987	2.2234	1.7818	1.4726	0.8397	-0.0775	-0.0394	0.3895	0.1881	0.0251	0.2227
140.625	2.2675	2.1636	1.4248	1.8223	1.943	0.6621	1.2847	0.4718	-0.1157	0.5063	0.1833	0.1932	1.3215	1.8736	1.3458	2.3824	1.5326	0.795	1.5026	2.3661	2.1644	1.7442	1.3477	0.8499	-0.1556	-0.0082	0.4848	0.3594	-0.0046	0.2452
144.5312	2.0868	1.8102	1.1982	1.5153	1.7422	0.4206	1.2584	0.5705	0.1275	0.6726	0.4405	0.4219	1.342	1.814	1.1256	2.0767	1.2243	0.5186	1.3033	2.1347	2.0189	1.6453	1.193	0.8158	-0.2407	-0.003	0.5463	0.4884	-0.039	0.2581
148.4375	1.821	1.3602	0.909	1.1311	1.4748	0.1552	1.1711	0.6122	0.3164	0.7536	0.6294	0.5835	1.2815	1.6635	0.8529	1.6819	0.8618	0.2027	1.0453	1.8086	1.7848	1.4795	1.0104	0.7283	-0.3335	-0.0316	0.5583	0.5583	-0.0748	0.2629
152.3438	1.4838	0.8383	0.5751	0.6903	1.1546	-0.1164	1.0221	0.5892	0.4337	0.7382	0.7321	0.6627	1.1359	1.4223	0.5424	1.2191	0.4681	-0.1329	0.738	1.4012	1.4695	1.2467	0.8028	0.5846	-0.4341	-0.0968	0.5122	0.562	-0.1087	0.2624
156.25	1.0972	0.2764	0.2189	0.2199	0.7997	-0.3737	0.822	0.5053	0.4753	0.6311	0.7451	0.6581	0.9132	1.1031	0.2112	0.7162	0.0676	-0.4663	0.3952	0.9349	1.0896	0.9533	0.5738	0.3891	-0.5407	-0.195	0.4082	0.5034	-0.1383	0.2596
160.1562	0.688	-0.2907	-0.1362	-0.2502	0.4313	-0.5972	0.5907	0.3747	0.4497	0.451	0.6779	0.5814	0.6329	0.7294	-0.1232	0.2045	-0.317	-0.777	0.0337	0.4386	0.6699	0.6128	0.329	0.1546	-0.6489	-0.316	0.2563	0.3958	-0.163	0.2564
164.0625	0.2841	-0.8297	-0.4689	-0.6914	0.0711	-0.7721	0.3535	0.218	0.3747	0.2263	0.55	0.4536	0.3224	0.3326	-0.444	-0.2853	-0.6672	-1.0486	-0.3278	-0.0553	0.2398	0.2446	0.0767	-0.1001	-0.7525	-0.4457	0.0743	0.2584	-0.1839	0.2532
167.9688	-0.0911	-1.3135	-0.763	-1.0806	-0.2614	-0.8914	0.135	0.0577	0.2727	-0.0105	0.3862	0.2995	0.0123	-0.0531	-0.7372	-0.7267	-0.9696	-1.2707	-0.6705	-0.5154	-0.1708	-0.1278	-0.1725	-0.3529	-0.8442	-0.5685	-0.1162	0.1123	-0.2042	0.2484
171.875	-0.4215	-1.7243	-1.0099	-1.4033	-0.5521	-0.9575	-0.0453	-0.0864	0.1654	-0.2291	0.2112	0.1431	-0.269	-0.3966	-0.9916	-1.1003	-1.2168	-1.4394	-0.977	-0.9155	-0.5359	-0.4798	-0.4057	-0.5818	-0.9174	-0.6708	-0.2931	-0.0238	-0.228	0.2398
175.7812	-0.7006	-2.0549	-1.209	-1.6546	-0.7943	-0.9814	-0.1768	-0.2012	0.0701	-0.4055	0.046	0.0028	-0.4994	-0.6744	-1.2002	-1.3959	-1.4059	-1.5566	-1.2329	-1.2375	-0.8363	-0.788	-0.609	-0.7688	-0.9668	-0.7433	-0.4383	-0.1364	-0.2598	0.2249
179.6875	-0.93	-2.3085	-1.3671	-1.8395	-0.9896	-0.9808	-0.2583	-0.2815	-0.0033	-0.5257	-0.0952	-0.1106	-0.6661	-0.874	-1.3595	-1.6128	-1.5383	-1.6286	-1.4275	-1.4734	-1.062	-1.0329	-0.7695	-0.9018	-0.9895	-0.7823	-0.5403	-0.2186	-0.303	0.2017
183.5938	-1.1169	-2.4964	-1.4957	-1.9703	-1.1467	-0.9762	-0.2959	-0.3299	-0.0522	-0.5856	-0.2055	-0.1945	-0.7664	-0.9939	-1.4704	-1.7577	-1.6179	-1.6643	-1.5549	-1.6248	-1.2125	-1.2015	-0.877	-0.9766	-0.9854	-0.79	-0.5949	-0.2707	-0.359	0.1697
187.5	-1.2699	-2.6349	-1.6081	-2.0634	-1.2784	-0.9867	-0.3001	-0.3542	-0.0803	-0.5904	-0.2844	-0.2521	-0.8061	-1.0426	-1.5375	-1.8433	-1.6506	-1.6733	-1.6141	-1.7014	-1.2949	-1.2883	-0.926	-0.996	-0.9573	-0.7731	-0.6055	-0.298	-0.4273	0.1296
191.4062	-1.3966	-2.7411	-1.7163	-2.1356	-1.3973	-1.0268	-0.2811	-0.3643	-0.0945	-0.5513	-0.3352	-0.2897	-0.7968	-1.0346	-1.5681	-1.8841	-1.6437	-1.6654	-1.6096	-1.7179	-1.3215	-1.296	-0.9175	-0.9689	-0.9104	-0.7408	-0.5803	-0.309	-0.5046	0.0834
195.3125	-1.5011	-2.8299	-1.8282	-2.2009	-1.5121	-1.1034	-0.2465	-0.3687	-0.1018	-0.4823	-0.363	-0.3138	-0.7521	-0.9867	-1.5712	-1.8942	-1.6055	-1.6492	-1.5505	-1.6908	-1.306	-1.2349	-0.8586	-0.9072	-0.8512	-0.7019	-0.5299	-0.3122	-0.5866	0.0338
199.2188	-1.5843	-2.9109	-1.9466	-2.2672	-1.6244	-1.2155	-0.1996	-0.3727	-0.1068	-0.3971	-0.3723	-0.3283	-0.6839	-0.9139	-1.5559	-1.8846	-1.5452	-1.6321	-1.449	-1.6353	-1.2608	-1.1206	-0.7621	-0.823	-0.7864	-0.6624	-0.4641	-0.3134	-0.6687	-0.0165
203.125	-1.6455	-2.9885	-2.069	-2.3367	-1.7287	-1.3552	-0.1395	-0.3764	-0.1102	-0.3063	-0.3656	-0.3339	-0.601	-0.8271	-1.5301	-1.8621	-1.4721	-1.6194	-1.3194	-1.5637	-1.1946	-0.9719	-0.6436	-0.7263	-0.7211	-0.6243	-0.3895	-0.3144	-0.7471	-0.0656
207.0312	-1.6842	-3.0617	-2.1889	-2.4057	-1.8148	-1.51	-0.0635	-0.3763	-0.109	-0.2168	-0.3433	-0.3286	-0.5076	-0.7321	-1.5002	-1.8303	-1.3947	-1.6141	-1.1763	-1.4845	-1.1132	-0.8073	-0.5194	-0.6231	-0.6582	-0.5852	-0.3084	-0.3127	-0.8199	-0.1123
210.9375	-1.7024	-3.1271	-2.2979	-2.4678	-1.871	-1.6656	0.0316	-0.3655	-0.0965	-0.1312	-0.3038	-0.3088	-0.4044	-0.6309	-1.4708	-1.7911	-1.3208	-1.617	-1.0328	-1.4034	-1.0199	-0.6433	-0.4036	-0.5157	-0.5983	-0.5402	-0.22	-0.3031	-0.8874	-0.1568
214.8438	-1.705	-3.181	-2.3875	-2.5158	-1.8887	-1.8089	0.1477	-0.3367	-0.0646	-0.0484	-0.244	-0.2702	-0.291	-0.5236	-1.4458	-1.7469	-1.2564	-1.6271	-0.9006	-1.3249	-0.9177	-0.4927	-0.3067	-0.4038	-0.5404	-0.4836	-0.1211	-0.2789	-0.9507	-0.2001
218.75	-1.6996	-3.2209	-2.4509	-2.5438	-1.8648	-1.9299	0.2843	-0.2834	-0.0053	0.0347	-0.1604	-0.2095	-0.1671	-0.4104	-1.4282	-1.7017	-1.2058	-1.6426	-0.7887	-1.2535	-0.8108	-0.3643	-0.235	-0.2862	-0.4833	-0.411	-0.0091	-0.2337	-1.0112	-0.2436
222.6562	-1.6938	-3.2461	-2.4834	-2.5489	-1.8029	-2.0225	0.4393	-0.2014	0.0877	0.1222	-0.05	-0.1245	-0.0348	-0.2936	-1.4201	-1.661	-1.1714	-1.6611	-0.7037	-1.1938	-0.7053	-0.2628	-0.1909	-0.1631	-0.4265	-0.3213	0.1167	-0.163	-1.0683	-0.2882
226.5625	-1.6932	-3.2575	-2.4826	-2.5313	-1.7125	-2.0848	0.6084	-0.0906	0.2163	0.2174	0.0882	-0.015	0.101	-0.1782	-1.4224	-1.6313	-1.1539	-1.6811	-0.649	-1.1505	-0.6086	-0.1899	-0.1738	-0.0378	-0.3711	-0.217	0.2536	-0.0655	-1.119	-0.3334
230.4688	-1.6998	-3.2566	-2.4483	-2.4944	-1.6072	-2.1184	0.7857	0.0447	0.3773	0.3212	0.2522	0.1162	0.2319	-0.0714	-1.4345	-1.618	-1.1522	-1.7013	-0.6256	-1.1273	-0.5291	-0.1453	-0.1813	0.083	-0.32	-0.1046	0.3951	0.0563	-1.1579	-0.3778
234.375	-1.7115	-3.2446	-2.3823	-2.4437	-1.5017	-2.1279	0.9632	0.1957	0.5616	0.431	0.4349	0.2632	0.3476	0.0178	-1.4541	-1.6236	-1.1643	-1.7219	-0.6319	-1.1266	-0.4742	-0.1282	-0.2105	0.1895	-0.278	0.0062	0.5312	0.1954	-1.1782	-0.4185
238.2812	-1.7225	-3.2218	-2.2889	-2.3861	-1.4096	-2.1194	1.131	0.3498	0.755	0.5413	0.6251	0.4166	0.4371	0.081	-1.4773	-1.6474	-1.1877	-1.7438	-0.6646	-1.1481	-0.4496	-0.1376	-0.2586	0.27	-0.2511	0.1042	0.6499	0.3411	-1.1738	-0.4529
242.1875	-1.7249	-3.1872	-2.1744	-2.3279	-1.3403	-2.0997	1.2774	0.4925	0.9398	0.6435	0.8073	0.5639	0.4908	0.1115	-1.4995	-1.685	-1.2203	-1.7696	-0.7195	-1.189	-0.4575	-0.1733	-0.3234	0.3135	-0.2455	0.1777	0.7392	0.48	-1.1408	-0.4789
246.0938	-1.7107	-3.139	-2.0467	-2.2743	-1.2983	-2.0744	1.3896	0.6092	1.0977	0.7282	0.9641	0.6909	0.5026	0.1062	-1.516	-1.7292	-1.2602	-1.8026	-0.792	-1.2443	-0.4965	-0.2349	-0.4029	0.3121	-0.2663	0.2167	0.7886	0.5978	-1.0787	-0.4959
250	-1.6743	-3.0751	-1.9142	-2.228	-1.282	-2.0472	1.4554	0.6881	1.2127	0.7864	1.0789	0.7839	0.4709	0.0657	-1.5232	-1.7721	-1.3059	-1.8463	-0.8777	-1.3069	-0.5615	-0.3219	-0.4952	0.2622	-0.3166	0.2141	0.7907	0.6816	-0.9912	-0.5043
253.9062	-1.6142	-2.9948	-1.785	-2.1896	-1.2851	-2.0193	1.4655	0.7213	1.273	0.811	1.1385	0.8313	0.399	-0.0052	-1.5189	-1.8068	-1.3555	-1.9024	-0.9726	-1.3698	-0.6446	-0.4324	-0.5975	0.1659	-0.396	0.167	0.7427	0.7212	-0.8849	-0.5058
257.8125	-1.5341	-2.9	-1.6658	-2.158	-1.2985	-1.9895	1.4161	0.7062	1.2731	0.7979	1.1354	0.8262	0.2947	-0.0991	-1.5029	-1.8287	-1.4068	-1.9691	-1.073	-1.4268	-0.7367	-0.5625	-0.7058	0.0302	-0.5006	0.0772	0.6463	0.7111	-0.7687	-0.5015
261.7188	-1.4432	-2.7953	-1.5613	-2.1313	-1.3126	-1.9549	1.3114	0.646	1.2142	0.7469	1.0694	0.7675	0.1688	-0.2071	-1.477	-1.8373	-1.4565	-2.0399	-1.1756	-1.4743	-0.8295	-0.7063	-0.8147	-0.1343	-0.6229	-0.049	0.5075	0.6509	-0.652	-0.492
265.625	-1.3534	-2.6879	-1.4738	-2.108	-1.3197	-1.9126	1.1634	0.5483	1.1042	0.6617	0.9478	0.6603	0.0327	-0.3209	-1.4444	-1.8355	-1.5007	-2.1035	-1.277	-1.5116	-0.9169	-0.8558	-0.9179	-0.315	-0.7533	-0.2013	0.336	0.5451	-0.5431	-0.4763
269.5312	-1.2774	-2.5867	-1.4031	-2.0875	-1.3159	-1.861	0.9901	0.4242	0.9558	0.549	0.7839	0.5146	-0.1033	-0.4345	-1.4087	-1.8283	-1.5355	-2.1462	-1.3736	-1.5409	-0.9962	-1.0021	-1.0089	-0.4997	-0.881	-0.3674	0.1433	0.4028	-0.4479	-0.4525
273.4375	-1.2254	-2.4997	-1.3466	-2.0707	-1.3017	-1.8009	0.8117	0.2854	0.784	0.4169	0.5942	0.3438	-0.2324	-0.5447	-1.3737	-1.8219	-1.5576	-2.1554	-1.4624	-1.5667	-1.0685	-1.1367	-1.0819	-0.6783	-0.9965	-0.5344	-0.0584	0.2354	-0.3693	-0.4183
277.3438	-1.2024	-2.4332	-1.2999	-2.0593	-1.2818	-1.7357	0.6458	0.1428	0.6042	0.2735	0.3952	0.1613	-0.3521	-0.6516	-1.3418	-1.8211	-1.5652	-2.1233	-1.5402	-1.5939	-1.1378	-1.2528	-1.1331	-0.8435	-1.0928	-0.6913	-0.258	0.0554	-0.307	-0.3722
281.25	-1.2078	-2.3895	-1.2579	-2.0551	-1.2632	-1.6712	0.5035	0.0047	0.4293	0.1252	0.2011	-0.0206	-0.464	-0.7574	-1.3142	-1.8282	-1.5577	-2.0494	-1.6046	-1.6266	-1.2094	-1.3463	-1.1612	-0.9914	-1.1662	-0.8299	-0.4464	-0.1255	-0.2579	-0.3142
285.1562	-1.2351	-2.367	-1.2146	-2.059	-1.2528	-1.6129	0.3884	-0.1237	0.2685	-0.0237	0.0221	-0.1927	-0.5718	-0.8645	-1.2901	-1.842	-1.5358	-1.9409	-1.6537	-1.666	-1.2874	-1.4158	-1.1673	-1.1203	-1.2164	-0.9459	-0.6171	-0.2973	-0.2172	-0.2466
289.0625	-1.2741	-2.36	-1.1651	-2.0696	-1.2549	-1.5649	0.2971	-0.2398	0.1271	-0.1707	-0.1359	-0.3487	-0.6795	-0.9737	-1.2669	-1.858	-1.5002	-1.8104	-1.6864	-1.7102	-1.3734	-1.4622	-1.1549	-1.23	-1.246	-1.0381	-0.7655	-0.4521	-0.1796	-0.1735
292.9688	-1.3128	-2.3607	-1.1058	-2.0833	-1.2693	-1.5281	0.222	-0.3431	0.0062	-0.3147	-0.271	-0.4853	-0.7892	-1.0833	-1.2411	-1.869	-1.4517	-1.6723	-1.702	-1.7541	-1.4649	-1.4876	-1.1289	-1.3204	-1.2592	-1.1083	-0.8895	-0.5843	-0.1408	-0.0998
296.875	-1.341	-2.3604	-1.0361	-2.0951	-1.2913	-1.5002	0.1541	-0.4342	-0.0963	-0.4551	-0.3842	-0.6019	-0.9005	-1.1889	-1.2092	-1.8671	-1.3902	-1.5398	-1.7006	-1.7913	-1.5562	-1.4948	-1.0942	-1.3917	-1.2605	-1.1599	-0.9886	-0.6909	-0.098	-0.0309
300.7812	-1.3519	-2.3518	-0.9591	-2.0998	-1.3131	-1.4771	0.0863	-0.5144	-0.1843	-0.5914	-0.4788	-0.7002	-1.0108	-1.2854	-1.1684	-1.8456	-1.3154	-1.422	-1.6833	-1.8157	-1.6397	-1.4873	-1.0555	-1.4446	-1.2545	-1.1978	-1.0646	-0.7721	-0.051	0.0289
304.6875	-1.3438	-2.3304	-0.8811	-2.0932	-1.3265	-1.4543	0.0142	-0.5849	-0.262	-0.7234	-0.5593	-0.784	-1.1168	-1.3681	-1.1176	-1.8008	-1.2277	-1.3227	-1.6523	-1.8237	-1.7087	-1.4689	-1.0167	-1.4809	-1.245	-1.2272	-1.1213	-0.8311	-0.0009	0.0764
308.5938	-1.3196	-2.2945	-0.8107	-2.0735	-1.3251	-1.4286	-0.0624	-0.6471	-0.3328	-0.851	-0.6299	-0.8576	-1.2158	-1.4352	-1.0576	-1.7328	-1.1281	-1.2409	-1.6105	-1.8146	-1.7589	-1.4443	-0.9801	-1.5042	-1.2348	-1.2531	-1.164	-0.874	0.0498	0.1106
312.5	-1.2854	-2.2449	-0.7564	-2.0412	-1.3062	-1.3988	-0.141	-0.7016	-0.3983	-0.9738	-0.694	-0.9252	-1.3061	-1.4874	-0.9906	-1.6454	-1.0188	-1.1719	-1.5607	-1.7908	-1.7896	-1.4181	-0.9467	-1.5194	-1.2254	-1.2791	-1.1988	-0.9079	0.0988	0.1324
316.4062	-1.2484	-2.1839	-0.7242	-1.9984	-1.271	-1.3663	-0.217	-0.7487	-0.4578	-1.0913	-0.7527	-0.9886	-1.3875	-1.5278	-0.9195	-1.5451	-0.9026	-1.1085	-1.5053	-1.756	-1.8031	-1.3942	-0.9161	-1.5315	-1.2168	-1.306	-1.2302	-0.9386	0.1442	0.1447
320.3125	-1.2162	-2.1146	-0.7162	-1.9485	-1.2244	-1.334	-0.2852	-0.788	-0.5095	-1.2023	-0.8051	-1.0475	-1.4599	-1.5599	-0.8471	-1.4392	-0.7823	-1.0433	-1.4457	-1.7146	-1.804	-1.3747	-0.8867	-1.5444	-1.2071	-1.3317	-1.2602	-0.9683	0.1846	0.1515
324.2188	-1.1945	-2.0401	-0.7301	-1.8953	-1.1734	-1.3053	-0.3414	-0.8191	-0.5504	-1.3042	-0.8483	-1.0985	-1.523	-1.5863	-0.7756	-1.3353	-0.661	-0.9704	-1.3822	-1.6699	-1.7971	-1.3597	-0.8562	-1.5592	-1.1932	-1.3511	-1.287	-0.9954	0.219	0.1575
328.125	-1.1876	-1.9637	-0.7597	-1.8424	-1.1255	-1.2827	-0.3826	-0.8405	-0.5774	-1.3933	-0.8781	-1.1371	-1.5752	-1.6078	-0.7065	-1.2393	-0.5415	-0.887	-1.3153	-1.6246	-1.7867	-1.3472	-0.8227	-1.5747	-1.1718	-1.3581	-1.3067	-1.0145	0.2468	0.1664
332.0312	-1.1971	-1.8893	-0.7965	-1.7934	-1.0874	-1.2666	-0.4071	-0.8506	-0.5878	-1.4647	-0.8903	-1.1589	-1.614	-1.6231	-0.6413	-1.1562	-0.4274	-0.7948	-1.2459	-1.5804	-1.7758	-1.3344	-0.7852	-1.5871	-1.1404	-1.3475	-1.314	-1.0191	0.2671	0.1803
335.9375	-1.2228	-1.8215	-0.8315	-1.7514	-1.0634	-1.2552	-0.4144	-0.8471	-0.5791	-1.5132	-0.8815	-1.1606	-1.6362	-1.6295	-0.5817	-1.0895	-0.3234	-0.6995	-1.1766	-1.5395	-1.7663	-1.3187	-0.7451	-1.5916	-1.0986	-1.3171	-1.3049	-1.0042	0.2789	0.1988
339.8438	-1.2627	-1.7654	-0.8573	-1.7198	-1.0556	-1.2449	-0.4049	-0.8279	-0.5499	-1.5342	-0.8499	-1.1415	-1.6392	-1.6244	-0.5304	-1.0419	-0.2347	-0.6098	-1.1115	-1.5045	-1.7594	-1.2988	-0.7053	-1.5842	-1.0486	-1.2682	-1.2779	-0.9676	0.2815	0.22
343.75	-1.3136	-1.7266	-0.8692	-1.7019	-1.064	-1.2321	-0.3799	-0.7921	-0.5003	-1.5255	-0.7964	-1.103	-1.6219	-1.6065	-0.4906	-1.0159	-0.1674	-0.5353	-1.0562	-1.4789	-1.7565	-1.2752	-0.6699	-1.5622	-0.9947	-1.2059	-1.2352	-0.911	0.2743	0.2405
347.6562	-1.3719	-1.7107	-0.8664	-1.7007	-1.0871	-1.2145	-0.3425	-0.7414	-0.4331	-1.4883	-0.7245	-1.0485	-1.5859	-1.5771	-0.4666	-1.0138	-0.1274	-0.4847	-1.0166	-1.4677	-1.7592	-1.25	-0.6429	-1.5258	-0.9425	-1.1376	-1.1822	-0.8397	0.2575	0.2574
351.5625	-1.4348	-1.7227	-0.8526	-1.7194	-1.1229	-1.1928	-0.2981	-0.6805	-0.3545	-1.4284	-0.641	-0.9833	-1.5359	-1.5401	-0.4626	-1.0383	-0.1191	-0.4635	-0.998	-1.4755	-1.7697	-1.2265	-0.6269	-1.4779	-0.8979	-1.0714	-1.1266	-0.7612	0.2318	0.2684
355.4688	-1.5007	-1.7662	-0.8345	-1.7597	-1.1696	-1.1707	-0.2544	-0.6179	-0.2742	-1.356	-0.5551	-0.9135	-1.4791	-1.5017	-0.4822	-1.0913	-0.1446	-0.4733	-1.0035	-1.5068	-1.7901	-1.2079	-0.6218	-1.4234	-0.8656	-1.0142	-1.0761	-0.6834	0.1982	0.2726
359.375	-1.5695	-1.842	-0.8207	-1.8221	-1.2258	-1.1549	-0.2214	-0.565	-0.2047	-1.2845	-0.4775	-0.8458	-1.4243	-1.4692	-0.5273	-1.1732	-0.2026	-0.5106	-1.0335	-1.5637	-1.8216	-1.1964	-0.6245	-1.3682	-0.8479	-0.9704	-1.0368	-0.6135	0.1579	0.2705
363.2812	-1.6421	-1.9472	-0.8187	-1.905	-1.2907	-1.1532	-0.2099	-0.5344	-0.1601	-1.2284	-0.4193	-0.787	-1.3801	-1.4493	-0.5972	-1.2821	-0.2878	-0.5682	-1.0854	-1.6457	-1.8641	-1.1925	-0.6298	-1.3178	-0.844	-0.941	-1.0121	-0.5563	0.1125	0.264
367.1875	-1.7192	-2.0748	-0.8333	-2.0047	-1.364	-1.1731	-0.2301	-0.538	-0.1537	-1.201	-0.39	-0.7434	-1.3537	-1.4472	-0.6888	-1.4129	-0.3927	-0.6365	-1.1543	-1.7494	-1.9158	-1.195	-0.6314	-1.2766	-0.8504	-0.9243	-1.0019	-0.5146	0.0641	0.2561
371.0938	-1.7995	-2.2144	-0.865	-2.1156	-1.4452	-1.2203	-0.2903	-0.5845	-0.1955	-1.2117	-0.397	-0.7205	-1.3498	-1.4657	-0.7966	-1.5575	-0.5084	-0.706	-1.234	-1.8692	-1.9736	-1.2022	-0.6244	-1.2478	-0.8618	-0.9169	-1.004	-0.4894	0.0157	0.2505
375	-1.8796	-2.3536	-0.9099	-2.2312	-1.5334	-1.2973	-0.3946	-0.6778	-0.2892	-1.2644	-0.4431	-0.7227	-1.3703	-1.505	-0.914	-1.7062	-0.627	-0.7697	-1.3189	-1.9976	-2.034	-1.2123	-0.607	-1.2333	-0.8728	-0.9158	-1.0155	-0.4808	-0.0289	0.2512
378.9062	-1.9548	-2.4805	-0.961	-2.3451	-1.6275	-1.4029	-0.5423	-0.8156	-0.4317	-1.3568	-0.5267	-0.7524	-1.414	-1.5632	-1.0335	-1.8491	-0.743	-0.8245	-1.4048	-2.1273	-2.0941	-1.2248	-0.5815	-1.2341	-0.8796	-0.9193	-1.0344	-0.4884	-0.0655	0.262
382.8125	-2.0208	-2.5859	-1.0105	-2.4517	-1.7259	-1.5327	-0.7271	-0.9894	-0.6124	-1.4814	-0.6413	-0.8091	-1.478	-1.6368	-1.1479	-1.978	-0.8538	-0.8712	-1.4895	-2.2519	-2.1526	-1.2409	-0.5542	-1.2507	-0.881	-0.9277	-1.0601	-0.5117	-0.0905	0.2856
386.7188	-2.0755	-2.666	-1.0524	-2.5481	-1.8269	-1.6801	-0.9373	-1.1859	-0.8155	-1.6266	-0.7766	-0.8893	-1.5575	-1.7217	-1.2515	-2.0881	-0.96	-0.9139	-1.5729	-2.3672	-2.2102	-1.2636	-0.5345	-1.2823	-0.8785	-0.9429	-1.0939	-0.55	-0.1015	0.3229
390.625	-2.1202	-2.7227	-1.0839	-2.6342	-1.9284	-1.8365	-1.1576	-1.3891	-1.0217	-1.7796	-0.92	-0.9864	-1.6475	-1.8139	-1.3401	-2.1788	-1.0645	-0.9589	-1.6568	-2.4716	-2.2692	-1.297	-0.5325	-1.3274	-0.8759	-0.9674	-1.1378	-0.602	-0.0983	0.3719
394.5312	-2.1591	-2.7624	-1.1062	-2.7126	-2.0288	-1.9932	-1.3705	-1.5824	-1.2123	-1.9282	-1.0588	-1.0918	-1.7434	-1.9098	-1.4123	-2.2532	-1.1711	-1.012	-1.7437	-2.5662	-2.333	-1.3454	-0.5568	-1.3838	-0.8778	-1.0034	-1.1942	-0.6661	-0.0826	0.4281
398.4375	-2.1976	-2.7938	-1.1226	-2.7874	-2.1263	-2.1416	-1.56	-1.7515	-1.3713	-2.0628	-1.1823	-1.1959	-1.8416	-2.0067	-1.4688	-2.3166	-1.2827	-1.0773	-1.8355	-2.653	-2.4042	-1.4114	-0.6122	-1.4482	-0.8887	-1.0516	-1.264	-0.7396	-0.0575	0.4849
402.3438	-2.2396	-2.8245	-1.1369	-2.8616	-2.2188	-2.2741	-1.7132	-1.8863	-1.4887	-2.1769	-1.2826	-1.2898	-1.9393	-2.1017	-1.5119	-2.3746	-1.3998	-1.1549	-1.932	-2.7341	-2.4833	-1.4947	-0.6984	-1.5166	-0.9108	-1.1108	-1.3461	-0.8193	-0.0267	0.5348
406.25	-2.2856	-2.8576	-1.1503	-2.9357	-2.3031	-2.3844	-1.823	-1.9821	-1.5613	-2.2672	-1.3557	-1.3662	-2.0338	-2.1915	-1.5441	-2.4302	-1.5186	-1.2401	-2.0299	-2.8094	-2.5667	-1.5904	-0.8088	-1.5839	-0.9438	-1.1775	-1.4366	-0.901	0.0068	0.5706
410.1562	-2.3304	-2.8902	-1.1605	-3.0057	-2.3748	-2.4676	-1.8883	-2.0393	-1.5927	-2.3327	-1.4011	-1.4203	-2.1216	-2.2721	-1.567	-2.4826	-1.6309	-1.3236	-2.1225	-2.8756	-2.6468	-1.6899	-0.9323	-1.6448	-0.9847	-1.2465	-1.5288	-0.9798	0.0412	0.5871
414.0625	-2.3639	-2.9137	-1.1614	-3.0638	-2.428	-2.5205	-1.9137	-2.0632	-1.5921	-2.3737	-1.4216	-1.45	-2.1984	-2.3385	-1.5799	-2.5262	-1.7247	-1.3929	-2.2006	-2.9264	-2.7132	-1.782	-1.0552	-1.6941	-1.0282	-1.3115	-1.6141	-1.0499	0.0763	0.5816
417.9688	-2.3729	-2.9162	-1.1447	-3.0995	-2.4564	-2.5422	-1.9075	-2.0618	-1.5717	-2.391	-1.4217	-1.4559	-2.2592	-2.3862	-1.5805	-2.5524	-1.7872	-1.4352	-2.2548	-2.9536	-2.755	-1.8555	-1.164	-1.7279	-1.0685	-1.3661	-1.6834	-1.1052	0.1135	0.5549
421.875	-2.3446	-2.8866	-1.102	-3.1035	-2.4545	-2.5344	-1.8797	-2.0445	-1.5439	-2.3853	-1.4067	-1.4401	-2.2992	-2.4117	-1.5656	-2.5521	-1.8084	-1.4412	-2.2784	-2.9502	-2.7638	-1.9028	-1.2489	-1.7446	-1.1002	-1.4049	-1.7285	-1.1402	0.1549	0.5109
425.7812	-2.2712	-2.8186	-1.0283	-3.07	-2.4198	-2.5019	-1.8393	-2.0193	-1.5186	-2.357	-1.3811	-1.4059	-2.3149	-2.4141	-1.533	-2.5191	-1.7843	-1.4072	-2.2698	-2.9128	-2.7369	-1.9214	-1.3053	-1.7451	-1.1198	-1.4247	-1.7439	-1.1507	0.2025	0.456
429.6875	-2.1525	-2.7135	-0.9242	-2.9997	-2.3534	-2.4519	-1.7932	-1.9925	-1.5014	-2.3061	-1.3479	-1.3568	-2.3051	-2.3956	-1.4832	-2.4522	-1.7186	-1.3371	-2.2331	-2.8431	-2.678	-1.9149	-1.3346	-1.7326	-1.1266	-1.425	-1.7279	-1.1348	0.2565	0.3986
433.5938	-1.9977	-2.5805	-0.797	-2.8997	-2.2604	-2.3934	-1.7448	-1.9668	-1.493	-2.2325	-1.3076	-1.2965	-2.2706	-2.3602	-1.4197	-2.3563	-1.6225	-1.2415	-2.1777	-2.7484	-2.5963	-1.8916	-1.3424	-1.7115	-1.1229	-1.4083	-1.683	-1.0948	0.3144	0.3472
437.5	-1.8222	-2.4345	-0.6599	-2.7813	-2.1479	-2.335	-1.6944	-1.9416	-1.4896	-2.1359	-1.2587	-1.2287	-2.2137	-2.3126	-1.3492	-2.2411	-1.512	-1.1359	-2.1154	-2.6393	-2.5034	-1.8619	-1.3367	-1.686	-1.1137	-1.3797	-1.6156	-1.0363	0.3707	0.3082
441.4062	-1.6443	-2.2915	-0.5287	-2.6567	-2.0233	-2.2825	-1.6392	-1.9132	-1.4842	-2.0163	-1.1982	-1.1573	-2.1365	-2.256	-1.2796	-2.1181	-1.4041	-1.0369	-2.0573	-2.5269	-2.4102	-1.8346	-1.3249	-1.6585	-1.105	-1.3457	-1.534	-0.9681	0.4175	0.2851
445.3125	-1.4795	-2.164	-0.4187	-2.5357	-1.8915	-2.238	-1.5739	-1.8756	-1.4684	-1.8742	-1.1225	-1.0857	-2.0402	-2.1909	-1.2178	-1.9969	-1.3121	-0.9583	-2.0103	-2.4193	-2.3226	-1.8146	-1.3116	-1.6287	-1.1021	-1.3121	-1.4463	-0.8996	0.4466	0.2772
449.2188	-1.3372	-2.0569	-0.3413	-2.4222	-1.7535	-2.1987	-1.4924	-1.8216	-1.4347	-1.7109	-1.0286	-1.0165	-1.9245	-2.1138	-1.1673	-1.8822	-1.2426	-0.9085	-1.9752	-2.3188	-2.2403	-1.8004	-1.2981	-1.593	-1.1083	-1.2828	-1.3586	-0.8385	0.4509	0.28
453.125	-1.2187	-1.9669	-0.3014	-2.314	-1.607	-2.1585	-1.3889	-1.7449	-1.3772	-1.5298	-0.9152	-0.9508	-1.7879	-2.0188	-1.1263	-1.7722	-1.1936	-0.8889	-1.9465	-2.2215	-2.1565	-1.7851	-1.2819	-1.5454	-1.1231	-1.2586	-1.2735	-0.7889	0.4275	0.2871
457.0312	-1.1186	-1.8836	-0.2969	-2.204	-1.4474	-2.1098	-1.2598	-1.6416	-1.294	-1.3366	-0.7835	-0.8879	-1.6289	-1.8989	-1.0877	-1.6586	-1.1555	-0.8938	-1.9133	-2.1179	-2.0605	-1.7572	-1.2579	-1.4794	-1.1429	-1.2372	-1.1903	-0.75	0.3782	0.2918
460.9375	-1.0273	-1.7926	-0.3188	-2.0821	-1.2708	-2.0457	-1.1046	-1.5111	-1.1866	-1.1398	-0.6378	-0.8261	-1.4478	-1.7488	-1.0401	-1.529	-1.1128	-0.9126	-1.8628	-1.9956	-1.941	-1.7043	-1.2205	-1.3896	-1.1609	-1.2138	-1.1063	-0.7178	0.3106	0.2895
464.8438	-0.9338	-1.679	-0.3524	-1.9385	-1.0755	-1.9611	-0.9273	-1.3573	-1.0604	-0.9502	-0.4855	-0.7643	-1.2481	-1.5669	-0.9699	-1.3707	-1.0478	-0.9315	-1.7826	-1.8427	-1.7899	-1.6158	-1.1648	-1.2743	-1.1696	-1.1836	-1.019	-0.6871	0.2366	0.2782
468.75	-0.8289	-1.5308	-0.3799	-1.7657	-0.8632	-1.8536	-0.7354	-1.1875	-0.9236	-0.7799	-0.3366	-0.7029	-1.0371	-1.3572	-0.8648	-1.1735	-0.9446	-0.9364	-1.6644	-1.6512	-1.6048	-1.4865	-1.0881	-1.137	-1.1629	-1.1434	-0.9284	-0.6544	0.1702	0.258
472.6562	-0.7069	-1.3412	-0.3837	-1.5606	-0.6393	-1.7231	-0.54	-1.0116	-0.7861	-0.6407	-0.2025	-0.6455	-0.8257	-1.1291	-0.7162	-0.9332	-0.7922	-0.9148	-1.5054	-1.4192	-1.3901	-1.3181	-0.9913	-0.9863	-1.1376	-1.0932	-0.8378	-0.6194	0.1252	0.2304
476.5625	-0.5669	-1.1094	-0.3494	-1.3249	-0.4117	-1.5716	-0.3536	-0.8409	-0.6575	-0.5417	-0.0943	-0.5979	-0.627	-0.8963	-0.5218	-0.6529	-0.5873	-0.8582	-1.3098	-1.152	-1.1561	-1.1189	-0.8784	-0.8344	-1.0946	-1.0361	-0.7534	-0.5855	0.1117	0.1971
480.4688	-0.4117	-0.8415	-0.2688	-1.0649	-0.1889	-1.4028	-0.1892	-0.6853	-0.546	-0.4872	-0.0205	-0.5665	-0.4536	-0.6739	-0.2865	-0.3431	-0.3352	-0.7625	-1.087	-0.8609	-0.9167	-0.9026	-0.756	-0.6945	-1.0381	-0.9776	-0.6825	-0.5579	0.1345	0.1592
484.375	-0.2462	-0.5486	-0.1412	-0.7903	0.0216	-1.2218	-0.057	-0.553	-0.4574	-0.4759	0.0149	-0.556	-0.3145	-0.4752	-0.0223	-0.0196	-0.0485	-0.6288	-0.85	-0.5614	-0.6857	-0.6841	-0.6316	-0.5773	-0.9741	-0.9231	-0.6309	-0.5412	0.1917	0.1184
488.2812	-0.0752	-0.2458	0.0267	-0.5131	0.2141	-1.035	0.0369	-0.449	-0.395	-0.5004	0.013	-0.5671	-0.2133	-0.3089	0.2527	0.2988	0.2547	-0.4623	-0.6124	-0.2696	-0.4744	-0.4764	-0.5116	-0.4877	-0.9082	-0.8763	-0.6001	-0.537	0.275	0.0766
492.1875	0.0982	0.0501	0.2221	-0.246	0.3855	-0.8502	0.0917	-0.3752	-0.36	-0.5486	-0.02	-0.5961	-0.1468	-0.1777	0.5175	0.5942	0.5546	-0.2715	-0.3857	0.0001	-0.2888	-0.288	-0.4002	-0.4233	-0.8437	-0.8374	-0.5861	-0.5428	0.3713	0.037
496.0938	0.2724	0.3229	0.4283	-0.0013	0.5343	-0.6766	0.112	-0.3312	-0.3521	-0.606	-0.0745	-0.6346	-0.1062	-0.0782	0.7517	0.8519	0.8325	-0.0675	-0.1776	0.2377	-0.1301	-0.1215	-0.2985	-0.3751	-0.7809	-0.8029	-0.5796	-0.5519	0.4652	0.0035
500	0.4466	0.5589	0.6273	0.2108	0.6594	-0.5243	0.1053	-0.3147	-0.3699	-0.6593	-0.1395	-0.6721	-0.0796	-0.0035	0.9388	1.0626	1.0737	0.1374	0.0081	0.438	0.0047	0.0253	-0.2051	-0.3299	-0.7181	-0.7675	-0.5683	-0.5554	0.5416	-0.0203
503.9062	0.618	0.7488	0.8022	0.3829	0.7593	-0.4031	0.0801	-0.3225	-0.4113	-0.6988	-0.205	-0.6985	-0.0552	0.0545	1.0702	1.2233	1.2691	0.3305	0.171	0.6005	0.1206	0.1575	-0.1171	-0.2743	-0.6531	-0.7253	-0.5398	-0.5447	0.5889	-0.0311
507.8125	0.7802	0.8889	0.94	0.5113	0.8308	-0.321	0.0429	-0.3515	-0.4738	-0.7208	-0.2637	-0.7065	-0.0247	0.1023	1.1465	1.3369	1.4159	0.5006	0.3129	0.7279	0.222	0.2802	-0.0309	-0.199	-0.5845	-0.6727	-0.4856	-0.5138	0.6013	-0.028
511.7188	0.923	0.9809	1.0333	0.5962	0.8701	-0.283	-0.0028	-0.3986	-0.5537	-0.728	-0.3116	-0.6935	0.0152	0.1432	1.1773	1.4109	1.5172	0.6397	0.4359	0.8246	0.3115	0.397	0.0563	-0.1017	-0.5135	-0.61	-0.4036	-0.4612	0.5796	-0.0116
515.625	1.0343	1.0317	1.0818	0.6416	0.8739	-0.2891	-0.0561	-0.4604	-0.6459	-0.7277	-0.348	-0.662	0.0625	0.177	1.1791	1.4555	1.5805	0.7452	0.542	0.8952	0.3888	0.508	0.1458	0.0118	-0.4437	-0.5411	-0.2992	-0.3908	0.5307	0.015
519.5312	1.1035	1.0518	1.0916	0.6545	0.8418	-0.3339	-0.1171	-0.5328	-0.7441	-0.729	-0.3742	-0.619	0.1117	0.201	1.1711	1.4815	1.6163	0.8195	0.6324	0.9438	0.4518	0.6111	0.2368	0.1297	-0.38	-0.4736	-0.1841	-0.3111	0.4669	0.0471
523.4375	1.1254	1.0534	1.0741	0.6441	0.7772	-0.4069	-0.1845	-0.6104	-0.8404	-0.7399	-0.3922	-0.5733	0.1559	0.2123	1.1704	1.4979	1.635	0.8696	0.7071	0.973	0.4971	0.7018	0.3263	0.2368	-0.3279	-0.416	-0.0733	-0.2333	0.4024	0.0788
527.3438	1.1026	1.0481	1.0433	0.6198	0.6881	-0.4939	-0.2543	-0.6866	-0.9263	-0.7643	-0.4037	-0.5337	0.1897	0.2097	1.1884	1.511	1.6454	0.9037	0.7654	0.9847	0.5222	0.7757	0.4096	0.319	-0.2913	-0.3758	0.0183	-0.1686	0.3511	0.1039
531.25	1.046	1.0447	1.0128	0.5901	0.5862	-0.5797	-0.3196	-0.7543	-0.9945	-0.8013	-0.4092	-0.5065	0.2103	0.1941	1.2279	1.5233	1.6527	0.9289	0.806	0.9802	0.5263	0.8294	0.4815	0.3664	-0.2723	-0.3579	0.0792	-0.1262	0.3231	0.1174
535.1562	0.9719	1.0475	0.9929	0.561	0.4852	-0.6507	-0.3716	-0.807	-1.0402	-0.8457	-0.4087	-0.4955	0.2182	0.169	1.2839	1.5338	1.6585	0.9488	0.8279	0.9604	0.5109	0.861	0.5369	0.3753	-0.2708	-0.3638	0.1031	-0.1117	0.3233	0.1167
539.0625	0.8974	1.0558	0.9893	0.5354	0.3978	-0.6976	-0.4016	-0.8408	-1.0623	-0.8901	-0.4025	-0.501	0.2156	0.1392	1.3457	1.5391	1.661	0.9629	0.831	0.9268	0.4791	0.8711	0.5724	0.3479	-0.2853	-0.3915	0.0895	-0.1263	0.3505	0.1025
542.9688	0.8362	1.0645	1.0022	0.5127	0.3339	-0.7167	-0.4042	-0.8549	-1.064	-0.927	-0.3913	-0.5214	0.2062	0.1094	1.4004	1.5348	1.657	0.9679	0.816	0.8811	0.4355	0.8617	0.5871	0.2915	-0.3131	-0.4364	0.0431	-0.1671	0.3976	0.0789
546.875	0.7959	1.0661	1.0278	0.4906	0.2987	-0.7099	-0.3783	-0.8517	-1.0518	-0.9508	-0.3771	-0.5532	0.1935	0.0832	1.4364	1.5171	1.6431	0.959	0.7854	0.8263	0.3852	0.8364	0.5823	0.2167	-0.3505	-0.4918	-0.0276	-0.2275	0.4542	0.0526
550.7812	0.7772	1.0533	1.06	0.4663	0.2922	-0.6838	-0.3284	-0.8367	-1.0339	-0.9588	-0.3629	-0.5919	0.1807	0.0633	1.4465	1.4846	1.6168	0.9319	0.7433	0.7661	0.3336	0.8	0.562	0.1351	-0.393	-0.5499	-0.1112	-0.2983	0.5084	0.0312
554.6875	0.776	1.0219	1.0927	0.4388	0.3101	-0.647	-0.2637	-0.8162	-1.0184	-0.9514	-0.3518	-0.6326	0.1709	0.0511	1.4291	1.4389	1.5778	0.8846	0.6954	0.7055	0.2864	0.758	0.5324	0.0584	-0.4355	-0.6025	-0.1957	-0.3698	0.55	0.0208
558.5938	0.7856	0.9726	1.1215	0.4098	0.3454	-0.6074	-0.1955	-0.7962	-1.0115	-0.9312	-0.3463	-0.671	0.167	0.0481	1.3882	1.3849	1.528	0.8182	0.6484	0.6508	0.2494	0.7163	0.5012	-0.0037	-0.4724	-0.6429	-0.2704	-0.4332	0.5714	0.0248
562.5	0.8001	0.9119	1.1444	0.3846	0.3905	-0.5704	-0.1354	-0.7809	-1.0162	-0.9023	-0.3482	-0.7043	0.1722	0.0558	1.3326	1.3306	1.4719	0.7373	0.61	0.6091	0.2285	0.6814	0.4768	-0.0438	-0.4988	-0.6667	-0.3272	-0.483	0.5697	0.0429
566.4062	0.8164	0.8512	1.1623	0.3714	0.44	-0.5375	-0.0919	-0.7716	-1.0317	-0.8687	-0.3573	-0.731	0.1896	0.0762	1.2739	1.2859	1.4163	0.6505	0.5877	0.5881	0.2295	0.6596	0.4675	-0.0576	-0.5109	-0.6728	-0.3621	-0.5175	0.546	0.0719
570.3125	0.8351	0.8048	1.1778	0.3798	0.492	-0.5059	-0.0683	-0.7658	-1.0535	-0.8329	-0.3712	-0.7509	0.2226	0.1122	1.2247	1.2616	1.3703	0.5689	0.5885	0.5952	0.2575	0.6569	0.4805	-0.0439	-0.5064	-0.6632	-0.3749	-0.5385	0.505	0.1065
574.2188	0.8601	0.7871	1.1951	0.4196	0.5494	-0.4691	-0.0617	-0.7579	-1.074	-0.795	-0.3851	-0.764	0.2742	0.1669	1.1967	1.2677	1.344	0.5051	0.618	0.6369	0.3166	0.679	0.5211	-0.0038	-0.4852	-0.6418	-0.3677	-0.5491	0.4542	0.1405
578.125	0.8972	0.8095	1.2189	0.4977	0.6187	-0.4193	-0.064	-0.74	-1.0836	-0.7528	-0.3924	-0.7694	0.3464	0.2431	1.1989	1.3117	1.3467	0.4709	0.6797	0.7171	0.4088	0.7304	0.5919	0.0598	-0.4486	-0.6128	-0.3439	-0.5521	0.4017	0.1685
582.0312	0.9514	0.8778	1.2535	0.6169	0.7065	-0.3496	-0.0638	-0.7042	-1.0731	-0.7022	-0.3858	-0.7657	0.439	0.3419	1.236	1.3968	1.3849	0.4747	0.7738	0.836	0.5331	0.8134	0.6918	0.1425	-0.3993	-0.58	-0.3061	-0.5489	0.3554	0.1871
585.9375	1.0249	0.9899	1.3016	0.7732	0.8168	-0.2571	-0.0512	-0.6454	-1.0366	-0.6395	-0.3598	-0.7513	0.5487	0.4611	1.307	1.5204	1.4601	0.519	0.8962	0.9883	0.6841	0.9271	0.8157	0.2387	-0.3416	-0.546	-0.2569	-0.5395	0.3211	0.1947
589.8438	1.1161	1.1355	1.3639	0.9564	0.9471	-0.1448	-0.0209	-0.5637	-0.9733	-0.5633	-0.3124	-0.7258	0.6678	0.5941	1.4048	1.673	1.5664	0.5987	1.038	1.1626	0.8513	1.0664	0.9545	0.3412	-0.28	-0.5126	-0.1984	-0.5232	0.3031	0.1925
593.75	1.22	1.2982	1.4388	1.1503	1.0885	-0.022	0.0255	-0.4652	-0.8885	-0.4758	-0.2462	-0.6909	0.7854	0.73	1.5171	1.8394	1.6919	0.7024	1.1862	1.3428	1.0204	1.2218	1.0965	0.4413	-0.2197	-0.4813	-0.1338	-0.5002	0.3033	0.1836
597.6562	1.3296	1.4593	1.5229	1.3366	1.2266	0.0978	0.0802	-0.3612	-0.7924	-0.3828	-0.1678	-0.6499	0.8889	0.8555	1.6288	2.0014	1.82	0.8144	1.3256	1.5104	1.1752	1.3804	1.2292	0.5294	-0.1655	-0.4533	-0.0672	-0.4716	0.3221	0.1726
601.5625	1.4381	1.6022	1.6122	1.4985	1.3463	0.1999	0.1319	-0.2652	-0.6974	-0.2926	-0.0858	-0.607	0.9669	0.9574	1.7254	2.1417	1.9334	0.9187	1.442	1.6489	1.3013	1.5284	1.3415	0.5968	-0.1211	-0.4297	-0.0041	-0.4394	0.359	0.1645
605.4688	1.5406	1.7171	1.7034	1.6247	1.4361	0.2737	0.1701	-0.1891	-0.6154	-0.214	-0.0092	-0.5659	1.012	1.0263	1.7969	2.2477	2.0184	1.0031	1.5253	1.7467	1.3894	1.6531	1.426	0.6363	-0.089	-0.4116	0.0497	-0.4059	0.4127	0.1631
609.375	1.6358	1.8027	1.7944	1.7124	1.4919	0.3151	0.1879	-0.1407	-0.5551	-0.1545	0.0546	-0.5296	1.0226	1.0587	1.8398	2.3144	2.0674	1.0614	1.5716	1.8004	1.4375	1.7455	1.4802	0.6442	-0.0701	-0.3998	0.0886	-0.3737	0.481	0.1701
613.2812	1.7253	1.8663	1.8841	1.7667	1.5185	0.3287	0.1845	-0.1218	-0.521	-0.1187	0.1013	-0.5	1.0037	1.0583	1.8576	2.3452	2.081	1.0944	1.5843	1.8147	1.4515	1.8021	1.5067	0.6213	-0.0638	-0.3945	0.1086	-0.3448	0.5605	0.1843
617.1875	1.8124	1.9201	1.9715	1.7996	1.528	0.3266	0.1656	-0.1287	-0.5138	-0.1079	0.1292	-0.4775	0.965	1.0346	1.8593	2.3502	2.0672	1.1084	1.5731	1.8011	1.4431	1.8249	1.5128	0.5731	-0.0681	-0.3953	0.1083	-0.3209	0.6462	0.2018
621.0938	1.8992	1.977	2.0546	1.8258	1.5361	0.3243	0.1411	-0.1533	-0.5306	-0.1201	0.1397	-0.4609	0.919	1.0009	1.8561	2.343	2.039	1.1129	1.5513	1.7744	1.4267	1.8208	1.5085	0.5094	-0.08	-0.4004	0.0894	-0.3027	0.7312	0.2178
625	1.9839	2.0459	2.1299	1.8579	1.5576	0.337	0.1233	-0.1859	-0.567	-0.1506	0.1364	-0.4476	0.8784	0.9708	1.8583	2.3369	2.011	1.1174	1.5327	1.7491	1.4161	1.7999	1.5049	0.4436	-0.0953	-0.4065	0.0576	-0.2895	0.807	0.2275
628.9062	2.0598	2.1287	2.1918	1.9039	1.6015	0.3748	0.1231	-0.2175	-0.6183	-0.1932	0.1244	-0.4339	0.8535	0.9562	1.8721	2.3411	1.9961	1.13	1.5284	1.736	1.4213	1.7735	1.5118	0.3901	-0.1092	-0.4093	0.0214	-0.2796	0.8639	0.2273
632.8125	2.1166	2.2197	2.2345	1.9647	1.6694	0.4403	0.1473	-0.2421	-0.68	-0.2413	0.1085	-0.4164	0.851	0.9647	1.8987	2.3595	2.0025	1.1555	1.5451	1.741	1.4473	1.7522	1.5363	0.3625	-0.1171	-0.4043	-0.0088	-0.2707	0.8929	0.2159
636.7188	2.1439	2.3082	2.2531	2.0349	1.7552	0.5291	0.1971	-0.2572	-0.7492	-0.2891	0.0922	-0.3931	0.8735	0.9994	1.9344	2.3907	2.0328	1.1954	1.5845	1.7649	1.4941	1.7452	1.5818	0.3715	-0.1144	-0.3872	-0.0222	-0.2605	0.887	0.1934
640.625	2.1351	2.3819	2.2462	2.1055	1.8473	0.631	0.2672	-0.2645	-0.8245	-0.3329	0.0765	-0.3643	0.9198	1.0591	1.9724	2.4298	2.0845	1.2479	1.6438	1.8048	1.5581	1.7591	1.6483	0.423	-0.0977	-0.3553	-0.0098	-0.2473	0.843	0.1608
644.5312	2.0911	2.4313	2.2163	2.1664	1.9324	0.7341	0.3476	-0.2683	-0.9057	-0.3713	0.0598	-0.3335	0.9859	1.1396	2.0054	2.4707	2.1515	1.309	1.7176	1.8562	1.634	1.7981	1.7329	0.5177	-0.0648	-0.3074	0.0339	-0.2307	0.7625	0.1192
648.4375	2.021	2.4525	2.1701	2.2101	1.9991	0.8279	0.426	-0.2738	-0.9932	-0.4044	0.0384	-0.3062	1.066	1.2347	2.0272	2.5081	2.2259	1.3727	1.7996	1.914	1.716	1.8635	1.8311	0.6505	-0.0158	-0.2448	0.1104	-0.2108	0.6521	0.0691
652.3438	1.94	2.4478	2.1166	2.2327	2.0403	0.9057	0.491	-0.2854	-1.0863	-0.433	0.0081	-0.289	1.1539	1.338	2.0347	2.539	2.3001	1.4327	1.8837	1.9741	1.7995	1.9539	1.937	0.8114	0.0473	-0.1714	0.2155	-0.1892	0.5219	0.0102
656.25	1.8654	2.4248	2.0654	2.2355	2.0554	0.9655	0.5344	-0.3047	-1.1827	-0.4575	-0.0342	-0.2882	1.2434	1.4433	2.0284	2.5625	2.3679	1.4823	1.9654	2.0339	1.8813	2.065	2.045	0.9876	0.12	-0.093	0.3404	-0.1682	0.3845	-0.0576
660.1562	1.811	2.3945	2.024	2.2242	2.0495	1.0096	0.5539	-0.3304	-1.2781	-0.4766	-0.089	-0.3082	1.3295	1.5461	2.0126	2.5805	2.4252	1.5161	2.042	2.0923	1.96	2.1908	2.1502	1.1648	0.1961	-0.0172	0.4726	-0.1516	0.2521	-0.1342
664.0625	1.7846	2.3681	1.9973	2.2073	2.0331	1.0433	0.5526	-0.3578	-1.3661	-0.4872	-0.1531	-0.3503	1.4089	1.6431	1.9949	2.5964	2.471	1.5303	2.1128	2.1497	2.0361	2.3237	2.2488	1.3296	0.2687	0.0481	0.5979	-0.1431	0.1353	-0.2175
667.9688	1.7866	2.3548	1.9866	2.1949	2.0188	1.0727	0.5392	-0.3803	-1.4398	-0.4847	-0.2195	-0.4119	1.48	1.7335	1.9842	2.6153	2.5068	1.5235	2.1791	2.208	2.1115	2.4562	2.3382	1.4712	0.331	0.0965	0.7027	-0.1457	0.0415	-0.3037
671.875	1.8125	2.3606	1.9905	2.196	2.0194	1.1033	0.5257	-0.3908	-1.4923	-0.4642	-0.2784	-0.4862	1.5434	1.8176	1.9892	2.6428	2.5368	1.498	2.2433	2.2703	2.1888	2.5819	2.4172	1.5822	0.3778	0.1239	0.777	-0.1606	-0.0249	-0.3868
675.7812	1.8551	2.3869	2.0054	2.2168	2.0451	1.1389	0.5243	-0.3835	-1.5186	-0.4215	-0.3186	-0.5629	1.6007	1.897	2.0163	2.684	2.5666	1.4604	2.3089	2.3396	2.271	2.696	2.4851	1.6592	0.4059	0.1298	0.8161	-0.1854	-0.063	-0.4595
679.6875	1.9073	2.4311	2.0264	2.2595	2.1013	1.1803	0.5451	-0.355	-1.5161	-0.3549	-0.33	-0.6299	1.6543	1.9736	2.0683	2.7425	2.603	1.4215	2.3793	2.4187	2.3603	2.7962	2.5416	1.7026	0.4149	0.1167	0.8207	-0.2149	-0.0751	-0.5139
683.5938	1.9634	2.4865	2.0477	2.3215	2.1873	1.226	0.5936	-0.3055	-1.4849	-0.2657	-0.3061	-0.6753	1.7064	2.0482	2.1437	2.8189	2.6527	1.3948	2.4577	2.5083	2.457	2.8825	2.5866	1.716	0.4068	0.0903	0.7974	-0.241	-0.066	-0.5434
687.5	2.0189	2.5439	2.0627	2.396	2.2969	1.2723	0.6696	-0.238	-1.4281	-0.1586	-0.2448	-0.6894	1.7579	2.1207	2.2368	2.91	2.7203	1.394	2.5456	2.607	2.5593	2.9565	2.6206	1.7059	0.3852	0.0575	0.7569	-0.2548	-0.043	-0.5444
691.4062	2.0692	2.5921	2.064	2.4727	2.4193	1.3144	0.7672	-0.1581	-1.3509	-0.041	-0.1502	-0.6668	1.809	2.1892	2.3384	3.0085	2.8074	1.4296	2.6425	2.7104	2.6629	3.0212	2.6447	1.6805	0.3554	0.0263	0.7125	-0.2478	-0.0148	-0.5166
695.3125	2.1086	2.6191	2.0436	2.5397	2.5412	1.3472	0.8758	-0.0733	-1.2606	0.0777	-0.0311	-0.6066	1.8584	2.251	2.4367	3.1034	2.9101	1.5052	2.7449	2.8113	2.7614	3.0793	2.6606	1.6496	0.3236	0.0043	0.6781	-0.2136	0.0089	-0.4642
699.2188	2.13	2.6138	1.9939	2.5854	2.6491	1.3659	0.9814	0.009	-1.1647	0.1879	0.1003	-0.513	1.9046	2.3025	2.519	3.1811	3.0194	1.6159	2.846	2.9	2.8468	3.1322	2.67	1.6228	0.2959	-0.0017	0.6662	-0.149	0.0186	-0.3952
703.125	2.1259	2.5671	1.9086	2.6002	2.7314	1.3678	1.0695	0.0818	-1.0709	0.281	0.2307	-0.394	1.9458	2.3407	2.573	3.2279	3.1213	1.7481	2.9365	2.9665	2.9113	3.1795	2.6744	1.6088	0.278	0.0132	0.6859	-0.0544	0.0067	-0.3204
707.0312	2.0906	2.4743	1.7854	2.5784	2.7806	1.352	1.1279	0.1405	-0.9849	0.3508	0.348	-0.26	1.9805	2.364	2.5885	3.2323	3.1998	1.8816	3.0061	3.0016	2.9489	3.219	2.6745	1.6141	0.2737	0.0519	0.7414	0.0663	-0.0316	-0.2518
710.9375	2.0226	2.3362	1.6265	2.5194	2.794	1.3203	1.1494	0.1836	-0.9097	0.3946	0.4439	-0.1222	2.0081	2.3726	2.5596	3.1877	3.2404	1.9931	3.0457	2.9999	2.9569	3.2474	2.6702	1.6413	0.2848	0.114	0.831	0.2057	-0.0966	-0.2007
714.8438	1.9271	2.1603	1.4397	2.4282	2.7749	1.2771	1.1332	0.2129	-0.8455	0.4132	0.5139	0.0088	2.0285	2.3688	2.4858	3.0944	3.2329	2.0606	3.05	2.9609	2.9372	3.2622	2.6609	1.689	0.3101	0.1956	0.9467	0.3542	-0.1835	-0.1757
718.75	1.8154	1.9594	1.2372	2.3142	2.7313	1.2286	1.085	0.2327	-0.7898	0.4106	0.5578	0.1239	2.0418	2.3568	2.3727	2.9602	3.1747	2.0682	3.0187	2.8899	2.8958	3.2621	2.6459	1.7515	0.3456	0.2894	1.075	0.5	-0.2831	-0.1808
722.6562	1.7026	1.7508	1.033	2.1899	2.675	1.182	1.0156	0.2485	-0.7395	0.3928	0.578	0.2154	2.0481	2.3413	2.2315	2.7989	3.0716	2.0091	2.9576	2.7972	2.8416	3.2485	2.6249	1.819	0.3846	0.3842	1.1984	0.6293	-0.3835	-0.2152
726.5625	1.6038	1.5523	0.8403	2.0681	2.6187	1.1439	0.9389	0.2654	-0.6913	0.3662	0.5781	0.2762	2.047	2.3263	2.0773	2.628	2.9371	1.8886	2.8771	2.6958	2.7849	3.2247	2.5987	1.8796	0.4183	0.4663	1.2974	0.7269	-0.473	-0.2726
730.4688	1.5289	1.3796	0.6688	1.9596	2.5741	1.1192	0.8693	0.2869	-0.6438	0.3365	0.5614	0.3002	2.0377	2.3146	1.9265	2.4648	2.7896	1.7228	2.79	2.5986	2.7348	3.1956	2.5691	1.9201	0.4375	0.5212	1.3539	0.7774	-0.5427	-0.3431
734.375	1.4801	1.2426	0.5226	1.8712	2.5495	1.11	0.82	0.3144	-0.5971	0.3085	0.5306	0.2828	2.0194	2.3065	1.7931	2.3231	2.6483	1.5356	2.7085	2.5153	2.6975	3.1656	2.5383	1.9288	0.4341	0.5364	1.354	0.7673	-0.5883	-0.415
738.2812	1.451	1.1445	0.4008	1.805	2.5476	1.1155	0.8013	0.347	-0.5529	0.2856	0.488	0.2222	1.9916	2.3006	1.6871	2.2108	2.5284	1.3534	2.6414	2.4508	2.6749	3.1375	2.5087	1.8983	0.4035	0.505	1.2917	0.6891	-0.6109	-0.4774
742.1875	1.4295	1.0818	0.2983	1.7587	2.5662	1.1321	0.8201	0.3829	-0.5133	0.2706	0.4366	0.1218	1.9557	2.2945	1.6119	2.1292	2.4385	1.1994	2.5922	2.4047	2.6656	3.1116	2.4816	1.8276	0.3467	0.4283	1.1708	0.5441	-0.6162	-0.5227
746.0938	1.4021	1.0459	0.208	1.7274	2.5977	1.1542	0.8787	0.4196	-0.48	0.2658	0.381	-0.0093	1.9145	2.2859	1.5651	2.0744	2.3787	1.0886	2.5589	2.3723	2.665	3.0861	2.4573	1.7233	0.2703	0.3164	1.0056	0.3449	-0.6121	-0.5486
750	1.3591	1.0258	0.123	1.7045	2.6319	1.1757	0.9743	0.4546	-0.4541	0.2726	0.3273	-0.1566	1.8724	2.2733	1.5394	2.0388	2.3424	1.0254	2.5355	2.3471	2.6676	3.0577	2.4344	1.5985	0.186	0.1868	0.8182	0.1135	-0.6064	-0.5586
753.9062	1.2973	1.0104	0.0383	1.6837	2.657	1.1904	1.0987	0.4858	-0.4353	0.2911	0.2823	-0.3031	1.8343	2.2562	1.5248	2.014	2.3187	1.0037	2.5137	2.322	2.6676	3.0229	2.4104	1.4703	0.1077	0.0599	0.6341	-0.1219	-0.6046	-0.5606
757.8125	1.22	0.9892	-0.0494	1.6588	2.6622	1.1937	1.2379	0.5112	-0.4229	0.3189	0.2519	-0.4324	1.8031	2.2344	1.5107	1.9915	2.2954	1.0093	2.4849	2.2908	2.6596	2.9782	2.382	1.3551	0.0475	-0.0461	0.4765	-0.3335	-0.6086	-0.5649
761.7188	1.1349	0.9534	-0.1413	1.6236	2.6385	1.1818	1.3738	0.5282	-0.4157	0.3512	0.2389	-0.5325	1.7787	2.2065	1.4873	1.9637	2.2622	1.0241	2.4416	2.2483	2.638	2.9205	2.3447	1.2645	0.0131	-0.1197	0.3607	-0.4994	-0.6172	-0.5802
765.625	1.0495	0.895	-0.2386	1.5715	2.58	1.1527	1.4859	0.5342	-0.4129	0.3812	0.2423	-0.5973	1.7568	2.1691	1.4475	1.9232	2.2118	1.0301	2.3782	2.1899	2.5975	2.8468	2.2937	1.2023	0.0051	-0.1587	0.2918	-0.6076	-0.627	-0.6111
769.5312	0.967	0.8066	-0.3427	1.4953	2.4845	1.1053	1.5551	0.5263	-0.4138	0.402	0.2577	-0.6272	1.7297	2.1168	1.3873	1.8632	2.141	1.0133	2.2913	2.1118	2.5325	2.7535	2.2237	1.1634	0.017	-0.1697	0.2639	-0.657	-0.6338	-0.6561
773.4375	0.8832	0.6818	-0.4566	1.3876	2.3535	1.0397	1.566	0.5025	-0.4175	0.4085	0.2784	-0.6273	1.6879	2.0426	1.3069	1.7777	2.0495	0.9653	2.179	2.0108	2.4379	2.6369	2.129	1.1359	0.0372	-0.1656	0.263	-0.6561	-0.6344	-0.7081
777.3438	0.7877	0.5152	-0.5846	1.2423	2.1918	0.9573	1.5102	0.4623	-0.4228	0.3987	0.2975	-0.6051	1.6223	1.9397	1.2094	1.6618	1.9395	0.8838	2.0411	1.8847	2.3101	2.4928	2.0043	1.1037	0.0513	-0.1615	0.2711	-0.619	-0.6268	-0.7569
781.25	0.6671	0.3042	-0.732	1.0559	2.0061	0.8597	1.3867	0.4069	-0.4281	0.3744	0.31	-0.5687	1.5264	1.8031	1.1003	1.5127	1.8142	0.7712	1.8781	1.7325	2.1474	2.3181	1.8456	1.0516	0.0463	-0.1709	0.2714	-0.5616	-0.6108	-0.7928
785.1562	0.5101	0.0494	-0.9027	0.8285	1.8037	0.7493	1.2025	0.339	-0.4317	0.34	0.313	-0.5249	1.398	1.6309	0.9854	1.3306	1.6771	0.633	1.6921	1.5553	1.951	2.1116	1.6514	0.9687	0.0133	-0.2027	0.2513	-0.4979	-0.5876	-0.8095
789.0625	0.3123	-0.244	-1.0978	0.5647	1.5913	0.6288	0.9703	0.262	-0.4323	0.3007	0.3063	-0.4787	1.2396	1.426	0.8692	1.1194	1.5319	0.4761	1.4866	1.3564	1.7255	1.8756	1.4245	0.8509	-0.0504	-0.2597	0.2054	-0.4381	-0.5591	-0.8055
792.9688	0.0785	-0.5663	-1.314	0.2738	1.3743	0.5013	0.7071	0.1796	-0.4301	0.2603	0.2916	-0.4342	1.0579	1.1957	0.7543	0.8865	1.3817	0.3084	1.267	1.1412	1.4787	1.6166	1.1722	0.7022	-0.1406	-0.3393	0.1346	-0.388	-0.5273	-0.7839
796.875	-0.178	-0.9035	-1.5433	-0.0316	1.1568	0.3706	0.4314	0.0951	-0.4259	0.221	0.2715	-0.394	0.8631	0.9514	0.6418	0.6425	1.2303	0.1376	1.0406	0.9176	1.221	1.3448	0.9062	0.5328	-0.2478	-0.4346	0.0454	-0.3497	-0.4941	-0.7511
