time	FP1	F3	F7	FC3	C3	C5	P3	P7	PO7	PO3	O1	Oz	Pz	CPz	FP2	Fz	F4	F8	FC4	FCz	Cz	C4	C6	P4	P8	PO8	PO4	O2	HEOG_left	HEOG_right
-199.2188	0.1558	-1.644	-2.1414	-1.5267	-1.4916	-2.102	-1.132	-0.1977	-0.3226	-0.7739	-0.341	-0.2762	-0.6496	-0.8589	-1.3706	-1.3068	-0.6969	-0.8973	-0.8864	-1.4751	-1.3142	-0.9975	-0.4942	-0.7279	-0.1904	-0.3278	-1.2515	-0.6166	-1.3522	-0.4907
-195.3125	-0.1695	-1.6231	-1.9923	-1.5047	-1.4443	-1.7816	-1.0731	-0.2074	-0.3464	-0.7441	-0.3679	-0.2974	-0.7476	-0.9747	-1.0126	-1.4644	-1.0565	-0.9691	-1.2079	-1.6225	-1.4098	-1.1816	-0.7461	-0.8129	-0.2672	-0.3672	-1.1369	-0.5902	-1.2357	-0.6184
-191.4062	-0.4586	-1.59	-1.8477	-1.4662	-1.3951	-1.481	-1.02	-0.2123	-0.3641	-0.7171	-0.395	-0.3201	-0.8359	-1.0715	-0.6874	-1.5889	-1.362	-1.0203	-1.4753	-1.7411	-1.4837	-1.3293	-0.9514	-0.8821	-0.3264	-0.4009	-1.031	-0.5694	-1.1157	-0.7192
-187.5	-0.6795	-1.5319	-1.7051	-1.3966	-1.3394	-1.2123	-0.9743	-0.2091	-0.3714	-0.6941	-0.4231	-0.3468	-0.9054	-1.1332	-0.4243	-1.6522	-1.5678	-1.0364	-1.6468	-1.8052	-1.5172	-1.4128	-1.077	-0.924	-0.3585	-0.4268	-0.941	-0.5602	-0.9905	-0.7704
-183.5938	-0.8101	-1.4436	-1.5621	-1.2897	-1.2747	-0.9833	-0.9344	-0.196	-0.3654	-0.6747	-0.4508	-0.3784	-0.9485	-1.1492	-0.2407	-1.6391	-1.6494	-1.0108	-1.6998	-1.7994	-1.4991	-1.417	-1.1061	-0.9316	-0.3588	-0.444	-0.87	-0.5654	-0.8597	-0.7628
-179.6875	-0.8414	-1.3283	-1.4174	-1.1494	-1.201	-0.7968	-0.8956	-0.1737	-0.3446	-0.6569	-0.4754	-0.4143	-0.9604	-1.1164	-0.1403	-1.5496	-1.6063	-0.945	-1.6345	-1.7208	-1.4272	-1.3411	-1.0402	-0.903	-0.3279	-0.4529	-0.8171	-0.5846	-0.7257	-0.7019
-175.7812	-0.7778	-1.1957	-1.2715	-0.9879	-1.1198	-0.6508	-0.8514	-0.1447	-0.3097	-0.6375	-0.4932	-0.4522	-0.9394	-1.0385	-0.1139	-1.3973	-1.46	-0.8485	-1.4712	-1.5782	-1.3083	-1.1982	-0.8973	-0.842	-0.2721	-0.4552	-0.7782	-0.6141	-0.5932	-0.6051
-171.875	-0.6358	-1.0577	-1.1269	-0.8217	-1.0326	-0.5386	-0.7942	-0.1134	-0.2638	-0.6137	-0.501	-0.4889	-0.8873	-0.9255	-0.1429	-1.2052	-1.2464	-0.7348	-1.2438	-1.3899	-1.1555	-1.0109	-0.7066	-0.7566	-0.2015	-0.4535	-0.7464	-0.648	-0.469	-0.4951
-167.9688	-0.4412	-0.9239	-0.9861	-0.6667	-0.9394	-0.4498	-0.7179	-0.0845	-0.2111	-0.5831	-0.4965	-0.5209	-0.8081	-0.7899	-0.2039	-0.998	-1.0052	-0.6177	-0.991	-1.1775	-0.9848	-0.8051	-0.5001	-0.657	-0.1273	-0.4504	-0.7131	-0.6793	-0.3593	-0.3926
-164.0625	-0.2253	-0.7978	-0.8507	-0.5327	-0.8372	-0.3717	-0.6185	-0.0616	-0.157	-0.5439	-0.4783	-0.5443	-0.7071	-0.6441	-0.2733	-0.7956	-0.7697	-0.5075	-0.7471	-0.9609	-0.8102	-0.6037	-0.3055	-0.5525	-0.0593	-0.4469	-0.6687	-0.7003	-0.2677	-0.309
-160.1562	-0.0204	-0.6753	-0.7193	-0.4208	-0.7211	-0.2914	-0.495	-0.0458	-0.1057	-0.4945	-0.4458	-0.5547	-0.5896	-0.4973	-0.3318	-0.6087	-0.5589	-0.4078	-0.5351	-0.7543	-0.6413	-0.4215	-0.1403	-0.449	-0.0023	-0.4418	-0.6034	-0.7036	-0.1931	-0.2441
-156.25	0.1448	-0.5469	-0.5884	-0.3245	-0.5862	-0.1991	-0.3492	-0.0354	-0.0599	-0.4332	-0.3987	-0.548	-0.4608	-0.3546	-0.3665	-0.4379	-0.3766	-0.3161	-0.3649	-0.564	-0.4821	-0.2638	-0.0101	-0.348	0.0439	-0.4309	-0.5093	-0.6828	-0.1295	-0.1868
-152.3438	0.2485	-0.4025	-0.4548	-0.2332	-0.4308	-0.0909	-0.1865	-0.0264	-0.0207	-0.3584	-0.337	-0.5203	-0.3254	-0.2175	-0.3707	-0.2774	-0.2151	-0.2251	-0.2342	-0.3911	-0.3326	-0.1278	0.0903	-0.2474	0.0849	-0.4086	-0.3822	-0.6333	-0.0677	-0.1207
-148.4375	0.2786	-0.2366	-0.3181	-0.1376	-0.2586	0.0296	-0.0151	-0.0141	0.0123	-0.2692	-0.2622	-0.4696	-0.1887	-0.0866	-0.3422	-0.121	-0.0635	-0.1271	-0.1335	-0.2342	-0.1914	-0.0071	0.1718	-0.1438	0.1284	-0.3685	-0.2231	-0.553	0.0013	-0.0312
-144.5312	0.2346	-0.0526	-0.183	-0.0342	-0.0806	0.1518	0.1538	0.0043	0.0396	-0.1665	-0.1777	-0.3965	-0.0569	0.0368	-0.2825	0.033	0.0842	-0.0174	-0.0515	-0.0937	-0.0589	0.1034	0.2453	-0.0351	0.1812	-0.3063	-0.0399	-0.4435	0.0825	0.0882
-140.625	0.1279	0.1357	-0.0583	0.0723	0.0866	0.26	0.3069	0.0286	0.0611	-0.0545	-0.0895	-0.305	0.0627	0.1479	-0.1961	0.1783	0.2245	0.1016	0.0198	0.0265	0.0608	0.2036	0.3158	0.0762	0.2452	-0.2214	0.1529	-0.31	0.1749	0.2315
-136.7188	-0.0194	0.3055	0.0452	0.1697	0.2237	0.3382	0.4305	0.0551	0.0757	0.0591	-0.0058	-0.2027	0.1619	0.2391	-0.0919	0.301	0.3442	0.2199	0.0828	0.1183	0.1599	0.2868	0.38	0.1829	0.3161	-0.1183	0.3368	-0.1618	0.2706	0.3803
-132.8125	-0.178	0.4303	0.1191	0.2415	0.3136	0.374	0.5125	0.0778	0.0818	0.1634	0.0642	-0.0997	0.2329	0.3008	0.0168	0.3834	0.4243	0.3207	0.1341	0.1721	0.2287	0.3414	0.4266	0.2734	0.3828	-0.0064	0.492	-0.011	0.3568	0.5073
-128.9062	-0.3172	0.4867	0.1605	0.272	0.3459	0.3628	0.5451	0.0906	0.0777	0.2463	0.1126	-0.0067	0.2694	0.3241	0.1143	0.4089	0.4463	0.3846	0.1659	0.1801	0.2582	0.3544	0.4392	0.3338	0.431	0.1014	0.6017	0.1291	0.4193	0.5832
-125	-0.4119	0.461	0.1725	0.2514	0.3201	0.3094	0.5261	0.0894	0.0633	0.296	0.1343	0.0666	0.2678	0.304	0.1867	0.3679	0.397	0.3949	0.169	0.1394	0.2435	0.3157	0.4022	0.3517	0.4462	0.1913	0.6551	0.2461	0.446	0.584
-121.0938	-0.4481	0.3542	0.1634	0.179	0.2464	0.2274	0.4602	0.073	0.0399	0.3045	0.1285	0.1137	0.2286	0.2404	0.2259	0.2617	0.2729	0.3428	0.1354	0.0541	0.1848	0.2225	0.3063	0.3191	0.4187	0.2513	0.6487	0.3304	0.4303	0.498
-117.1875	-0.4259	0.1824	0.1436	0.0643	0.1432	0.1353	0.3574	0.0439	0.0106	0.2692	0.0988	0.1321	0.1561	0.1399	0.2322	0.1034	0.0823	0.2305	0.0622	-0.0645	0.0892	0.0809	0.1529	0.235	0.3459	0.2737	0.5872	0.3767	0.3732	0.3299
-113.2812	-0.3584	-0.0252	0.1223	-0.0747	0.0331	0.0514	0.2315	0.0073	-0.0204	0.1942	0.0522	0.1236	0.0588	0.0145	0.2123	-0.0832	-0.1534	0.0726	-0.0458	-0.1987	-0.0306	-0.0928	-0.0434	0.1067	0.2338	0.2562	0.4817	0.3845	0.283	0.1018
-109.375	-0.2666	-0.2332	0.1058	-0.2157	-0.0625	-0.0106	0.0973	-0.0303	-0.0489	0.0899	-0.003	0.0934	-0.0525	-0.1198	0.1761	-0.2673	-0.4012	-0.1067	-0.1737	-0.3272	-0.1577	-0.2749	-0.2568	-0.051	0.0962	0.203	0.3482	0.3578	0.1748	-0.15
-105.4688	-0.1732	-0.4074	0.0969	-0.3368	-0.1276	-0.0454	-0.0316	-0.0618	-0.0718	-0.0292	-0.0586	0.0482	-0.1659	-0.246	0.1323	-0.4179	-0.6208	-0.2779	-0.2983	-0.429	-0.2738	-0.4372	-0.4539	-0.2175	-0.0483	0.1231	0.2044	0.3038	0.0673	-0.382
-101.5625	-0.0966	-0.5215	0.0959	-0.4215	-0.1542	-0.0555	-0.1446	-0.0821	-0.0876	-0.1476	-0.1082	-0.0045	-0.2704	-0.3486	0.0859	-0.5095	-0.7726	-0.413	-0.3925	-0.4862	-0.3619	-0.5531	-0.6017	-0.3703	-0.18	0.0291	0.067	0.2318	-0.02	-0.552
-97.6562	-0.0463	-0.5616	0.1033	-0.4609	-0.1424	-0.0496	-0.2345	-0.0884	-0.0969	-0.2518	-0.1474	-0.0576	-0.3575	-0.4159	0.0379	-0.5273	-0.8256	-0.4908	-0.4315	-0.4881	-0.4092	-0.6029	-0.6744	-0.4888	-0.2822	-0.0649	-0.0507	0.1516	-0.0707	-0.6285
-93.75	-0.0217	-0.5268	0.1218	-0.454	-0.0983	-0.0374	-0.2976	-0.082	-0.102	-0.3326	-0.1736	-0.1048	-0.4219	-0.4416	-0.0131	-0.4699	-0.7657	-0.5018	-0.4006	-0.432	-0.4091	-0.5782	-0.6606	-0.5578	-0.3437	-0.1454	-0.1399	0.0728	-0.0746	-0.5972
-89.8438	-0.013	-0.4266	0.1574	-0.4057	-0.0307	-0.0255	-0.3324	-0.0671	-0.106	-0.3855	-0.1852	-0.1407	-0.4613	-0.4251	-0.0678	-0.3493	-0.6006	-0.4501	-0.2999	-0.3241	-0.3617	-0.4843	-0.5659	-0.5702	-0.361	-0.201	-0.1969	0.0043	-0.0294	-0.4637
-85.9375	-0.0047	-0.278	0.2172	-0.3247	0.0511	-0.0147	-0.3401	-0.0507	-0.1113	-0.4097	-0.1811	-0.1608	-0.4755	-0.3712	-0.1235	-0.1878	-0.3588	-0.3512	-0.1451	-0.1781	-0.2741	-0.3391	-0.4121	-0.5276	-0.3376	-0.2241	-0.2223	-0.047	0.0588	-0.2525
-82.0312	0.0187	-0.1013	0.3064	-0.2211	0.1396	-0.0005	-0.3234	-0.0397	-0.1191	-0.4064	-0.1599	-0.1621	-0.4658	-0.2887	-0.1734	-0.0131	-0.0847	-0.2282	0.0359	-0.0126	-0.1584	-0.1687	-0.2316	-0.4394	-0.2833	-0.2119	-0.2207	-0.0759	0.1767	-0.0008
-78.125	0.0683	0.0819	0.4252	-0.1055	0.2291	0.0247	-0.2864	-0.0392	-0.1283	-0.377	-0.121	-0.143	-0.4333	-0.1886	-0.2069	0.147	0.1721	-0.1052	0.2107	0.1525	-0.0294	-0.0015	-0.0595	-0.3209	-0.2116	-0.1669	-0.1985	-0.08	0.3062	0.2494
-74.2188	0.1468	0.2513	0.5663	0.0123	0.3157	0.068	-0.2335	-0.0503	-0.1352	-0.3215	-0.0644	-0.1037	-0.3783	-0.0819	-0.2129	0.2708	0.3688	-0.0019	0.3509	0.2994	0.0986	0.139	0.0757	-0.1888	-0.1367	-0.0961	-0.1628	-0.0592	0.4291	0.4607
-70.3125	0.2485	0.3904	0.7168	0.1238	0.3964	0.1327	-0.1682	-0.07	-0.1344	-0.2386	0.0081	-0.0455	-0.2999	0.0233	-0.1839	0.3471	0.4801	0.0715	0.4395	0.4164	0.2148	0.2397	0.1583	-0.0582	-0.0707	-0.0091	-0.1189	-0.0154	0.5308	0.6073
-66.4062	0.3598	0.4889	0.8598	0.2232	0.4693	0.2167	-0.0924	-0.0915	-0.1199	-0.1272	0.0928	0.0291	-0.1966	0.1226	-0.1191	0.3773	0.5036	0.1149	0.4747	0.4999	0.314	0.2997	0.1879	0.0607	-0.021	0.0838	-0.0692	0.0481	0.6027	0.679
-62.5	0.4631	0.5445	0.9786	0.3081	0.5321	0.3128	-0.0065	-0.1066	-0.0869	0.012	0.1836	0.1167	-0.0682	0.2152	-0.025	0.3737	0.4589	0.1376	0.4689	0.5544	0.3963	0.329	0.1774	0.1631	0.0098	0.1736	-0.0136	0.1267	0.6427	0.681
-58.5938	0.5401	0.5636	1.0597	0.3805	0.5829	0.4098	0.0895	-0.1079	-0.0337	0.1737	0.2732	0.2128	0.0833	0.3033	0.086	0.3563	0.3806	0.154	0.4446	0.5903	0.466	0.3443	0.1481	0.2496	0.0242	0.2535	0.0499	0.215	0.6536	0.6295
-54.6875	0.5755	0.5602	1.0962	0.4456	0.6201	0.4951	0.1947	-0.0909	0.038	0.3475	0.3536	0.3117	0.2515	0.3897	0.1989	0.3473	0.3087	0.1794	0.427	0.6214	0.5296	0.3635	0.1234	0.324	0.0271	0.3194	0.1226	0.3063	0.6403	0.5464
-50.7812	0.5609	0.5521	1.0876	0.5104	0.6431	0.5571	0.3058	-0.055	0.1226	0.5183	0.4179	0.4069	0.4267	0.4765	0.2994	0.3656	0.2781	0.2259	0.4371	0.6607	0.593	0.4011	0.1227	0.3912	0.0246	0.3694	0.2043	0.3936	0.6077	0.4529
-46.875	0.4976	0.5565	1.04	0.5813	0.6528	0.5882	0.4174	-0.0039	0.2121	0.6688	0.4621	0.4917	0.597	0.5641	0.3763	0.423	0.3118	0.2992	0.4875	0.7182	0.6607	0.4648	0.158	0.456	0.0218	0.4036	0.2921	0.4699	0.5586	0.3653
-42.9688	0.3981	0.586	0.9638	0.6623	0.6524	0.5863	0.5225	0.056	0.2976	0.7831	0.4855	0.5601	0.7503	0.651	0.4229	0.5221	0.4168	0.398	0.58	0.7992	0.7349	0.5555	0.2327	0.5216	0.0219	0.4235	0.3806	0.5294	0.4939	0.2928
-39.0625	0.2834	0.6465	0.872	0.7543	0.6477	0.5568	0.6143	0.1164	0.3706	0.8507	0.4911	0.6075	0.8773	0.7345	0.4385	0.6573	0.5851	0.5154	0.7073	0.9044	0.8165	0.668	0.3421	0.5898	0.0263	0.4314	0.4629	0.5683	0.4141	0.2385
-35.1562	0.1803	0.7368	0.7783	0.8551	0.646	0.5116	0.6877	0.1695	0.4244	0.8693	0.4842	0.6317	0.9732	0.8117	0.4287	0.8171	0.7963	0.6407	0.8563	1.0304	0.9049	0.7936	0.4755	0.6609	0.0355	0.4305	0.532	0.5854	0.3207	0.2012
-31.25	0.1146	0.8499	0.6956	0.9602	0.6547	0.467	0.7403	0.2091	0.4544	0.845	0.4706	0.633	1.0383	0.8803	0.4044	0.9869	1.0224	0.7629	1.0114	1.1704	0.9991	0.9218	0.6197	0.7343	0.0502	0.4244	0.5828	0.5823	0.2174	0.1786
-27.3438	0.1066	0.9745	0.6334	1.0631	0.6794	0.4392	0.772	0.232	0.4589	0.7907	0.4546	0.6137	1.077	0.9382	0.3795	1.152	1.2339	0.8721	1.1584	1.3158	1.097	1.0429	0.7608	0.8086	0.0716	0.4167	0.6127	0.5627	0.1106	0.1687
-23.4375	0.1661	1.098	0.5963	1.1561	0.7215	0.4391	0.7846	0.2375	0.438	0.7225	0.4368	0.5777	1.0962	0.983	0.3663	1.2997	1.4056	0.9611	1.2865	1.4561	1.1945	1.1484	0.8867	0.8809	0.101	0.4102	0.621	0.5317	0.0076	0.1712
-19.5312	0.2888	1.2073	0.5818	1.2305	0.777	0.468	0.7793	0.2278	0.394	0.6542	0.4138	0.529	1.1021	1.0117	0.3712	1.4198	1.5213	1.0254	1.3892	1.5798	1.285	1.2316	0.9882	0.947	0.1381	0.4055	0.6086	0.4938	-0.0848	0.1871
-15.625	0.4553	1.2908	0.5803	1.2775	0.8363	0.5159	0.756	0.2064	0.3303	0.5945	0.3789	0.4712	1.0979	1.0198	0.3928	1.5055	1.5769	1.0629	1.4634	1.6751	1.3594	1.2873	1.0588	1.0006	0.1791	0.4003	0.5761	0.4519	-0.1623	0.2175
-11.7188	0.6324	1.3395	0.5771	1.2894	0.8864	0.5634	0.7134	0.1779	0.2518	0.5451	0.3243	0.4068	1.0824	1.0025	0.4222	1.5532	1.58	1.0742	1.5089	1.7316	1.4072	1.3123	1.0955	1.0344	0.2165	0.3895	0.5233	0.4065	-0.2246	0.2619
-7.8125	0.7795	1.3477	0.5552	1.2612	0.9139	0.5872	0.6499	0.147	0.1644	0.5012	0.2446	0.3375	1.0515	0.9558	0.448	1.5627	1.5468	1.0623	1.5271	1.7418	1.4189	1.3058	1.0989	1.0412	0.2402	0.366	0.4496	0.3555	-0.275	0.3162
-3.9062	0.8576	1.3132	0.5001	1.1922	0.9081	0.5674	0.5654	0.1183	0.0749	0.4546	0.1391	0.2647	0.9993	0.8787	0.4604	1.5368	1.4961	1.0325	1.52	1.7033	1.3886	1.2696	1.0731	1.0164	0.2398	0.3231	0.3545	0.2955	-0.3196	0.3714
0	0.8407	1.2378	0.4038	1.0876	0.8652	0.4949	0.4638	0.0959	-0.0096	0.3971	0.0132	0.1906	0.9218	0.7749	0.4559	1.4811	1.443	0.9913	1.4904	1.6199	1.3169	1.209	1.0253	0.9594	0.2085	0.257	0.2395	0.2234	-0.3649	0.4146
3.9062	0.7253	1.1267	0.2677	0.9586	0.7899	0.3757	0.3537	0.0835	-0.082	0.324	-0.1217	0.1181	0.8198	0.6537	0.4397	1.4041	1.3954	0.9455	1.4421	1.5027	1.2125	1.1325	0.9651	0.8752	0.1461	0.1683	0.1089	0.1377	-0.4144	0.4316
7.8125	0.5346	0.988	0.1047	0.8222	0.6969	0.232	0.249	0.0838	-0.136	0.2366	-0.2503	0.0519	0.7008	0.5306	0.425	1.3168	1.352	0.902	1.381	1.3701	1.0924	1.052	0.9035	0.7746	0.0601	0.0635	-0.0294	0.0403	-0.4673	0.4115
11.7188	0.3148	0.8337	-0.0614	0.6995	0.6091	0.0992	0.1682	0.0995	-0.1659	0.1434	-0.3563	-0.0013	0.5795	0.4256	0.4305	1.233	1.3055	0.8672	1.3161	1.2457	0.9803	0.9816	0.8519	0.6733	-0.0352	-0.0457	-0.164	-0.0632	-0.517	0.3505
15.625	0.1245	0.6798	-0.1991	0.6141	0.5553	0.019	0.1318	0.133	-0.1673	0.0589	-0.4245	-0.0339	0.4762	0.3603	0.4757	1.1687	1.2478	0.8477	1.2602	1.1566	0.904	0.9373	0.8206	0.5896	-0.1215	-0.1441	-0.2804	-0.1634	-0.5527	0.2551
19.5312	0.0201	0.5468	-0.2738	0.5889	0.5645	0.0298	0.1587	0.187	-0.1369	0.0005	-0.4445	-0.0383	0.4131	0.3553	0.5751	1.1404	1.1766	0.8499	1.2293	1.1285	0.8902	0.9346	0.8182	0.5413	-0.1806	-0.2159	-0.3632	-0.2492	-0.563	0.1406
23.4375	0.0389	0.4592	-0.2544	0.6426	0.6601	0.1574	0.262	0.2633	-0.0738	-0.016	-0.4117	-0.0086	0.4099	0.4252	0.7323	1.1638	1.1007	0.8803	1.241	1.1821	0.9593	0.9866	0.8505	0.5428	-0.1989	-0.2482	-0.398	-0.3094	-0.5403	0.0272
27.3438	0.1889	0.4422	-0.1206	0.7862	0.8543	0.4081	0.4458	0.3621	0.0209	0.0201	-0.3281	0.0576	0.4785	0.576	0.9369	1.2508	1.0416	0.9444	1.3124	1.3279	1.1211	1.1024	0.9202	0.6017	-0.1706	-0.2334	-0.3749	-0.3353	-0.4841	-0.0658
31.25	0.4451	0.5175	0.1312	1.0205	1.144	0.7649	0.7026	0.4804	0.1426	0.1114	-0.2022	0.1583	0.6204	0.8027	1.1639	1.4073	1.031	1.0462	1.4567	1.5639	1.3716	1.2844	1.027	0.7177	-0.0988	-0.1709	-0.2905	-0.3221	-0.4028	-0.126
35.1562	0.7559	0.6982	0.4846	1.3343	1.5099	1.1902	1.0138	0.6118	0.2839	0.2519	-0.0472	0.2866	0.8251	1.0896	1.3774	1.6313	1.1035	1.1863	1.6802	1.8751	1.6929	1.5274	1.1678	0.8822	0.005	-0.0674	-0.1498	-0.2703	-0.3122	-0.151
39.0625	1.0573	0.9837	0.9041	1.7049	1.9199	1.6326	1.3517	0.7456	0.4345	0.4281	0.1211	0.4322	1.072	1.4126	1.5395	1.9117	1.2866	1.3613	1.9791	2.2355	2.056	1.8182	1.3371	1.0804	0.1241	0.0651	0.0337	-0.1849	-0.231	-0.1481
42.9688	1.2896	1.3572	1.3407	2.1002	2.3339	2.0368	1.6836	0.8689	0.5816	0.622	0.2864	0.5822	1.334	1.7426	1.6203	2.229	1.5893	1.5625	2.337	2.6122	2.4258	2.136	1.5262	1.2933	0.2402	0.2116	0.2396	-0.0748	-0.1762	-0.1303
46.875	1.4127	1.7846	1.7401	2.4825	2.7112	2.3541	1.9764	0.968	0.7114	0.8133	0.4337	0.7234	1.582	2.0502	1.6076	2.5563	1.9948	1.7765	2.7252	2.9697	2.7668	2.4542	1.7238	1.5011	0.3385	0.3575	0.444	0.0495	-0.1583	-0.1113
50.7812	1.4137	2.2181	2.0521	2.813	3.0164	2.551	2.201	1.0305	0.8103	0.9834	0.5509	0.8436	1.7891	2.3089	1.5108	2.8622	2.4599	1.9862	3.1056	3.2747	3.0474	2.7439	1.916	1.6857	0.4106	0.4911	0.624	0.1768	-0.1794	-0.0995
54.6875	1.308	2.604	2.2397	3.0574	3.2244	2.6146	2.3364	1.0476	0.8665	1.1168	0.6296	0.933	1.9346	2.4986	1.3577	3.1149	2.9227	2.173	3.437	3.5	3.2445	2.9776	2.088	1.8334	0.4567	0.6048	0.7622	0.2967	-0.2324	-0.0951
58.5938	1.1324	2.8928	2.2857	3.1916	3.3232	2.5535	2.3717	1.0158	0.8727	1.2033	0.6656	0.9856	2.0055	2.6072	1.1853	3.2871	3.3161	2.3193	3.6825	3.6268	3.3448	3.1335	2.2269	1.9357	0.4842	0.6959	0.8499	0.4008	-0.3032	-0.0897
62.5	0.9333	3.0499	2.1956	3.2055	3.3138	2.3943	2.3072	0.938	0.8276	1.238	0.6594	0.9994	1.9976	2.6307	1.0277	3.3598	3.5831	2.4112	3.8165	3.6464	3.3452	3.1992	2.323	1.9894	0.505	0.7653	0.8885	0.4826	-0.3743	-0.0696
66.4062	0.7542	3.0618	1.9953	3.1047	3.2071	2.1742	2.1531	0.8232	0.7362	1.2212	0.6149	0.9763	1.9148	2.5726	0.9081	3.3256	3.6881	2.4402	3.8282	3.5596	3.2515	3.1724	2.3712	1.9959	0.5317	0.8158	0.8881	0.538	-0.4287	-0.0222
70.3125	0.6238	2.9383	1.7244	2.9077	3.0201	1.9315	1.9268	0.6849	0.6092	1.1564	0.539	0.9215	1.7666	2.4417	0.8342	3.188	3.6226	2.4036	3.7216	3.3757	3.0759	3.0601	2.3702	1.9587	0.5741	0.8504	0.863	0.5646	-0.4546	0.0579
74.2188	0.5497	2.7077	1.4277	2.6414	2.7713	1.6982	1.6494	0.5388	0.4611	1.0499	0.4397	0.8422	1.5665	2.2507	0.8007	2.9602	3.403	2.3049	3.5124	3.1098	2.8345	2.8762	2.322	1.8829	0.6361	0.8714	0.8287	0.5615	-0.448	0.1654
78.125	0.52	2.4092	1.1458	2.3355	2.4779	1.494	1.343	0.3995	0.3068	0.9089	0.3252	0.7464	1.3304	2.0145	0.7935	2.6621	3.0654	2.1533	3.2245	2.781	2.5457	2.6396	2.2309	1.7742	0.7154	0.88	0.7982	0.5299	-0.4131	0.284
82.0312	0.5101	2.083	0.9069	2.0167	2.1546	1.3258	1.028	0.2781	0.1594	0.7418	0.2026	0.6421	1.075	1.7504	0.7958	2.3174	2.6569	1.9628	2.8854	2.4112	2.2292	2.3708	2.1039	1.6392	0.8039	0.8769	0.7804	0.4727	-0.3603	0.3904
85.9375	0.4933	1.7628	0.7233	1.7063	1.8146	1.1897	0.7222	0.1805	0.0279	0.5582	0.0779	0.537	0.8181	1.4772	0.7935	1.9511	2.2268	1.7503	2.5242	2.0239	1.9055	2.0911	1.9505	1.486	0.8903	0.8631	0.7802	0.3953	-0.3034	0.4616
89.8438	0.4514	1.4712	0.5911	1.4186	1.4711	1.0753	0.441	0.1073	-0.0825	0.3692	-0.0432	0.4379	0.5774	1.2151	0.7778	1.5879	1.8193	1.5345	2.1683	1.6439	1.596	1.8198	1.7823	1.3245	0.9622	0.8404	0.7989	0.3049	-0.2552	0.4814
93.75	0.3799	1.2196	0.4955	1.1627	1.1389	0.9707	0.1981	0.0553	-0.1698	0.1879	-0.155	0.3509	0.3697	0.9839	0.7467	1.2507	1.4683	1.3328	1.842	1.2958	1.3214	1.573	1.6111	1.1656	1.0087	0.8111	0.8344	0.2105	-0.2248	0.4453
97.6562	0.2896	1.0109	0.4173	0.9445	0.8354	0.8674	0.0062	0.0196	-0.2337	0.0283	-0.2508	0.2812	0.2093	0.8016	0.7034	0.96	1.1948	1.1591	1.5642	1.0022	1.1004	1.362	1.4469	1.0202	1.0222	0.7781	0.8827	0.1222	-0.2156	0.3622
101.5625	0.202	0.8439	0.3411	0.7682	0.5792	0.7628	-0.1235	-0.0042	-0.2739	-0.0966	-0.3237	0.2333	0.1062	0.681	0.6534	0.7323	1.0064	1.0219	1.3468	0.781	0.947	1.1924	1.2961	0.8978	1.0001	0.7444	0.9382	0.0498	-0.2245	0.2515
105.4688	0.1426	0.7165	0.2607	0.6367	0.3879	0.6607	-0.1832	-0.0186	-0.2906	-0.1774	-0.3679	0.2092	0.0637	0.6279	0.6026	0.5782	0.8988	0.9228	1.1931	0.6427	0.8681	1.0636	1.1603	0.8042	0.9443	0.7118	0.9942	0.001	-0.2431	0.1381
109.375	0.1325	0.6272	0.1806	0.5513	0.2744	0.5703	-0.1706	-0.0239	-0.2844	-0.2114	-0.3807	0.2085	0.0778	0.6395	0.5563	0.5011	0.8574	0.8568	1.0975	0.5884	0.8617	0.9694	1.0369	0.7408	0.8605	0.6808	1.0431	-0.02	-0.2603	0.0454
113.2812	0.1819	0.5755	0.114	0.51	0.2432	0.5028	-0.0913	-0.019	-0.2577	-0.2039	-0.3648	0.2268	0.1372	0.7034	0.5181	0.4954	0.8613	0.8141	1.0469	0.6091	0.9165	0.8992	0.9202	0.7042	0.757	0.6497	1.0773	-0.0144	-0.2644	-0.0103
117.1875	0.2871	0.5613	0.078	0.5072	0.2885	0.4686	0.0408	-0.0031	-0.2155	-0.1676	-0.328	0.2561	0.2248	0.8004	0.4913	0.5482	0.8869	0.7829	1.024	0.6872	1.0136	0.841	0.8038	0.6868	0.6427	0.615	1.0897	0.0114	-0.2464	-0.0229
121.0938	0.4311	0.5841	0.088	0.5337	0.3945	0.4736	0.2042	0.0228	-0.1654	-0.12	-0.2826	0.2859	0.3207	0.907	0.4781	0.6406	0.9127	0.7521	1.0114	0.8	1.1301	0.7835	0.6831	0.679	0.5268	0.5726	1.0747	0.0468	-0.2014	0.0039
125	0.5877	0.6423	0.1523	0.5787	0.5372	0.5172	0.373	0.0545	-0.1165	-0.0798	-0.2425	0.305	0.4059	1.0002	0.4804	0.7515	0.923	0.7144	0.995	0.924	1.2425	0.7187	0.5576	0.671	0.4178	0.5187	1.0289	0.0796	-0.1295	0.0599
128.9062	0.7271	0.7318	0.2684	0.63	0.6879	0.5912	0.5212	0.0853	-0.0783	-0.0622	-0.2208	0.3041	0.4648	1.0613	0.4985	0.8604	0.91	0.6676	0.9665	1.0377	1.3307	0.6432	0.4308	0.6547	0.3225	0.4514	0.9513	0.0983	-0.0363	0.1319
132.8125	0.8216	0.844	0.4214	0.6755	0.818	0.6809	0.6268	0.1071	-0.0587	-0.0768	-0.2264	0.2772	0.4869	1.0776	0.5308	0.9494	0.8734	0.6135	0.9239	1.1238	1.38	0.5579	0.3095	0.6243	0.246	0.3717	0.8434	0.0949	0.0682	0.2072
136.7188	0.8509	0.965	0.5864	0.7037	0.9024	0.7666	0.6753	0.1129	-0.0624	-0.1263	-0.2635	0.223	0.467	1.0438	0.5732	1.0049	0.818	0.5563	0.8701	1.1701	1.3814	0.4659	0.2004	0.5765	0.1902	0.2827	0.7086	0.0654	0.1703	0.2752
140.625	0.8061	1.0757	0.7323	0.7038	0.9229	0.8267	0.6615	0.0984	-0.0902	-0.2066	-0.3312	0.1444	0.4045	0.9608	0.6185	1.0172	0.7508	0.5003	0.8108	1.1689	1.3317	0.3712	0.1087	0.5102	0.1547	0.19	0.5516	0.011	0.2548	0.3286
144.5312	0.6915	1.1543	0.8301	0.6667	0.8705	0.8404	0.589	0.0631	-0.1394	-0.3088	-0.4241	0.0482	0.3027	0.8347	0.6567	0.9819	0.6786	0.4479	0.7524	1.1171	1.2326	0.2776	0.0365	0.4263	0.1367	0.1005	0.378	-0.0631	0.3072	0.3641
148.4375	0.525	1.18	0.8592	0.586	0.7464	0.7913	0.4687	0.0101	-0.2047	-0.4209	-0.5348	-0.0568	0.1679	0.6757	0.6774	0.8997	0.6063	0.399	0.7003	1.0162	1.0909	0.1881	-0.0165	0.3284	0.1332	0.0222	0.1947	-0.1488	0.3171	0.3825
152.3438	0.3343	1.138	0.8133	0.4601	0.5613	0.6712	0.3162	-0.0556	-0.2797	-0.5305	-0.655	-0.161	0.0088	0.4974	0.6716	0.7769	0.5365	0.3522	0.6587	0.8727	0.9175	0.1063	-0.0518	0.2227	0.1424	-0.0371	0.0105	-0.2361	0.2803	0.3892
156.25	0.1504	1.0245	0.702	0.294	0.3343	0.4837	0.149	-0.1282	-0.358	-0.6267	-0.7776	-0.2554	-0.164	0.3151	0.6359	0.625	0.4705	0.3063	0.6308	0.6982	0.7269	0.0365	-0.0707	0.118	0.1641	-0.0702	-0.1636	-0.3153	0.2018	0.393
160.1562	-0.0002	0.8494	0.548	0.1003	0.0902	0.246	-0.016	-0.2026	-0.4346	-0.7029	-0.8976	-0.3337	-0.3391	0.1448	0.574	0.4599	0.4094	0.2621	0.6193	0.5089	0.5362	-0.0159	-0.0733	0.0243	0.1999	-0.072	-0.3146	-0.3782	0.0952	0.4054
164.0625	-0.1012	0.6357	0.3821	-0.1008	-0.1439	-0.0123	-0.1648	-0.275	-0.5064	-0.7574	-1.0124	-0.3926	-0.5049	0.0008	0.4978	0.2995	0.3545	0.2236	0.6257	0.3232	0.3624	-0.0449	-0.0577	-0.0481	0.2519	-0.0411	-0.4291	-0.4195	-0.0193	0.437
167.9688	-0.1492	0.4166	0.2359	-0.285	-0.3423	-0.2542	-0.2875	-0.3427	-0.5716	-0.7938	-1.1213	-0.4331	-0.6508	-0.1061	0.4242	0.1609	0.3082	0.1968	0.6502	0.1601	0.2206	-0.0454	-0.0215	-0.0912	0.3205	0.0197	-0.496	-0.4372	-0.119	0.4951
171.875	-0.1516	0.2279	0.1355	-0.4284	-0.4855	-0.4433	-0.3794	-0.4034	-0.6296	-0.8196	-1.2239	-0.4593	-0.7682	-0.1706	0.3705	0.0578	0.2735	0.1881	0.6911	0.0352	0.1215	-0.0145	0.0376	-0.1003	0.4035	0.1024	-0.5093	-0.4328	-0.184	0.5804
175.7812	-0.1218	0.1002	0.0975	-0.5131	-0.5627	-0.5518	-0.4404	-0.4551	-0.6804	-0.8437	-1.3197	-0.4772	-0.8509	-0.193	0.3488	-0.0014	0.2539	0.2016	0.7445	-0.0408	0.0703	0.048	0.1206	-0.0753	0.495	0.1956	-0.4698	-0.4106	-0.2016	0.6867
179.6875	-0.0731	0.0517	0.1271	-0.5306	-0.5736	-0.5665	-0.4747	-0.4959	-0.7237	-0.8736	-1.4069	-0.4927	-0.8959	-0.1789	0.3622	-0.0149	0.2526	0.2376	0.8053	-0.0638	0.0665	0.1388	0.2255	-0.0203	0.5855	0.2856	-0.3853	-0.3764	-0.1681	0.8013
183.5938	-0.0141	0.0838	0.2185	-0.4842	-0.5277	-0.491	-0.4891	-0.5239	-0.7592	-0.9129	-1.4832	-0.5106	-0.9038	-0.1376	0.4037	0.0136	0.2717	0.2915	0.8681	-0.0364	0.1043	0.2515	0.3471	0.0567	0.6632	0.3592	-0.27	-0.3368	-0.0897	0.9075
187.5	0.0525	0.1803	0.3565	-0.3881	-0.4419	-0.344	-0.4913	-0.5379	-0.7863	-0.961	-1.5458	-0.5332	-0.8791	-0.0807	0.458	0.0744	0.311	0.3548	0.9287	0.0324	0.1741	0.3778	0.4774	0.1442	0.7153	0.4048	-0.142	-0.2993	0.0201	0.9882
191.4062	0.1296	0.3108	0.5187	-0.2644	-0.3375	-0.1555	-0.489	-0.5382	-0.8042	-1.0137	-1.5927	-0.5608	-0.8302	-0.0204	0.5061	0.1539	0.3665	0.4161	0.984	0.1286	0.2632	0.5074	0.6059	0.2287	0.7304	0.4138	-0.0214	-0.2709	0.1431	1.0289
195.3125	0.2217	0.4373	0.6795	-0.1392	-0.2367	0.0392	-0.4888	-0.5262	-0.8118	-1.0648	-1.6231	-0.5914	-0.7694	0.0315	0.5308	0.2352	0.4291	0.4631	1.0311	0.2345	0.3574	0.6282	0.7201	0.2961	0.7002	0.3819	0.0733	-0.2583	0.2596	1.0204
199.2188	0.33	0.5229	0.813	-0.0381	-0.1596	0.2049	-0.4961	-0.5053	-0.8084	-1.1088	-1.6367	-0.622	-0.7115	0.0643	0.521	0.3007	0.4853	0.4846	1.0657	0.3305	0.4413	0.7273	0.8063	0.333	0.6213	0.3088	0.1272	-0.2666	0.3525	0.9606
203.125	0.4477	0.5394	0.8974	0.0183	-0.1213	0.3118	-0.5151	-0.4803	-0.794	-1.1421	-1.6342	-0.6489	-0.6729	0.0689	0.4749	0.3344	0.5186	0.4721	1.0805	0.3979	0.5002	0.7911	0.8511	0.3294	0.497	0.1986	0.1312	-0.2987	0.4092	0.8548
207.0312	0.5576	0.4743	0.9179	0.0177	-0.1307	0.3401	-0.5484	-0.4575	-0.7702	-1.1634	-1.6163	-0.6688	-0.6678	0.039	0.4	0.3246	0.5137	0.4219	1.0664	0.421	0.5208	0.8077	0.8434	0.2802	0.3364	0.0602	0.0835	-0.3536	0.4236	0.7139
210.9375	0.6345	0.3328	0.8686	-0.0418	-0.1889	0.2839	-0.5963	-0.4432	-0.7398	-1.1736	-1.5838	-0.679	-0.7059	-0.0279	0.3114	0.2664	0.4599	0.3369	1.0156	0.3903	0.4945	0.7695	0.7777	0.1869	0.1549	-0.0939	-0.0098	-0.4264	0.397	0.5529
214.8438	0.652	0.1363	0.7541	-0.1515	-0.2897	0.1525	-0.6564	-0.4426	-0.7066	-1.1743	-1.5378	-0.6776	-0.789	-0.1286	0.2276	0.1634	0.3553	0.2262	0.9252	0.3045	0.4187	0.6763	0.6571	0.058	-0.0286	-0.2483	-0.1351	-0.5077	0.3373	0.3885
218.75	0.5911	-0.0834	0.5891	-0.2948	-0.4202	-0.0307	-0.7227	-0.4587	-0.6747	-1.1669	-1.4797	-0.6637	-0.9101	-0.2544	0.1648	0.0264	0.2083	0.1042	0.8004	0.1711	0.2987	0.537	0.4954	-0.0915	-0.1944	-0.387	-0.2733	-0.5854	0.2579	0.2374
222.6562	0.449	-0.2918	0.3971	-0.4511	-0.5632	-0.2331	-0.7861	-0.4906	-0.6481	-1.1524	-1.4127	-0.6378	-1.0541	-0.3917	0.1316	-0.1283	0.0363	-0.0125	0.6539	0.0051	0.1463	0.3688	0.3157	-0.2428	-0.3249	-0.4957	-0.4032	-0.6472	0.1751	0.1141
226.5625	0.2417	-0.4601	0.2066	-0.6006	-0.7009	-0.42	-0.8364	-0.5338	-0.6299	-1.1314	-1.3417	-0.6025	-1.2014	-0.5247	0.126	-0.2831	-0.1367	-0.1096	0.5034	-0.1743	-0.0218	0.1946	0.1458	-0.377	-0.4079	-0.5646	-0.5068	-0.6831	0.105	0.03
230.4688	0.001	-0.5705	0.0461	-0.7286	-0.8182	-0.562	-0.8648	-0.5813	-0.6227	-1.105	-1.2742	-0.5628	-1.3323	-0.6393	0.1355	-0.4229	-0.2866	-0.1782	0.3665	-0.348	-0.1888	0.0371	0.0123	-0.4793	-0.4386	-0.5901	-0.5733	-0.6889	0.0612	-0.0084
234.375	-0.2347	-0.6195	-0.0613	-0.8288	-0.9057	-0.6416	-0.8658	-0.6249	-0.6281	-1.0759	-1.2189	-0.5261	-1.4319	-0.726	0.1424	-0.5388	-0.3941	-0.2168	0.2557	-0.5017	-0.3408	-0.0861	-0.0671	-0.5417	-0.4207	-0.576	-0.6026	-0.6673	0.0514	-0.001
238.2812	-0.4307	-0.6177	-0.1038	-0.9042	-0.9622	-0.6555	-0.8399	-0.6574	-0.647	-1.0484	-1.1847	-0.501	-1.4932	-0.7824	0.1298	-0.6301	-0.4513	-0.2318	0.1746	-0.6288	-0.4705	-0.1668	-0.0875	-0.5655	-0.3642	-0.5319	-0.6049	-0.6274	0.0763	0.0448
242.1875	-0.5646	-0.587	-0.0836	-0.966	-0.9945	-0.6147	-0.7938	-0.6749	-0.6796	-1.0283	-1.1786	-0.4959	-1.5183	-0.8136	0.0877	-0.7047	-0.4638	-0.2349	0.1177	-0.7316	-0.5781	-0.2082	-0.0581	-0.5598	-0.2834	-0.4711	-0.5988	-0.5828	0.1292	0.1144
246.0938	-0.6287	-0.5553	-0.0156	-1.0308	-1.0156	-0.5405	-0.7393	-0.677	-0.7252	-1.0216	-1.2041	-0.5167	-1.5171	-0.8305	0.0162	-0.7764	-0.45	-0.2407	0.0717	-0.82	-0.6703	-0.2232	0.0004	-0.5393	-0.1934	-0.4073	-0.6065	-0.5481	0.1973	0.1883
250	-0.6295	-0.5499	0.0769	-1.1145	-1.0407	-0.4579	-0.6909	-0.6671	-0.7818	-1.0335	-1.2603	-0.5656	-1.5037	-0.8464	-0.076	-0.8604	-0.4352	-0.263	0.021	-0.9075	-0.7572	-0.2302	0.0618	-0.5201	-0.1071	-0.3519	-0.648	-0.5358	0.2655	0.2462
253.9062	-0.5824	-0.5901	0.1699	-1.2277	-1.083	-0.3896	-0.662	-0.6502	-0.846	-1.0668	-1.3417	-0.6404	-1.4931	-0.8732	-0.1764	-0.9679	-0.4436	-0.3115	-0.0478	-1.0064	-0.8484	-0.2476	0.1013	-0.5161	-0.0337	-0.3121	-0.7363	-0.5536	0.3198	0.2716
257.8125	-0.5072	-0.6824	0.2443	-1.3714	-1.1494	-0.3499	-0.6614	-0.632	-0.9127	-1.1208	-1.4387	-0.7345	-1.4974	-0.9177	-0.2733	-1.1018	-0.4899	-0.3895	-0.1407	-1.123	-0.949	-0.2884	0.1023	-0.5351	0.0221	-0.2906	-0.8735	-0.6032	0.3508	0.2557
261.7188	-0.4231	-0.8185	0.2889	-1.536	-1.2384	-0.3429	-0.6906	-0.6159	-0.9752	-1.1913	-1.5394	-0.8384	-1.5239	-0.9802	-0.3593	-1.2551	-0.5752	-0.4927	-0.2552	-1.2559	-1.0583	-0.357	0.0595	-0.5783	0.0594	-0.2865	-1.0503	-0.6803	0.3544	0.1983
265.625	-0.3464	-0.9784	0.3003	-1.7042	-1.3413	-0.3631	-0.7439	-0.6031	-1.0262	-1.27	-1.6303	-0.9414	-1.574	-1.0549	-0.4324	-1.4129	-0.6867	-0.6106	-0.381	-1.3961	-1.1692	-0.4481	-0.0204	-0.6408	0.0793	-0.2967	-1.2476	-0.7759	0.3319	0.1068
269.5312	-0.2894	-1.1352	0.28	-1.8558	-1.4446	-0.3994	-0.8102	-0.5918	-1.0584	-1.3465	-1.6993	-1.033	-1.6444	-1.1317	-0.4937	-1.5563	-0.8039	-0.7283	-0.5035	-1.5299	-1.2714	-0.5499	-0.1217	-0.7135	0.0843	-0.3173	-1.4406	-0.8782	0.2887	-0.0062
273.4375	-0.2611	-1.263	0.2325	-1.9735	-1.5349	-0.4405	-0.877	-0.5794	-1.0668	-1.409	-1.7371	-1.105	-1.7285	-1.2004	-0.5442	-1.6682	-0.9056	-0.8305	-0.609	-1.6434	-1.3543	-0.6477	-0.2258	-0.7867	0.0766	-0.3443	-1.6042	-0.9745	0.2324	-0.1262
277.3438	-0.2685	-1.3429	0.1631	-2.0469	-1.6022	-0.4795	-0.9345	-0.5634	-1.05	-1.4476	-1.7392	-1.1524	-1.8187	-1.2534	-0.5812	-1.7373	-0.9774	-0.9047	-0.688	-1.7263	-1.411	-0.7292	-0.3164	-0.8522	0.0582	-0.3746	-1.7186	-1.0531	0.1712	-0.2393
281.25	-0.3164	-1.3672	0.0762	-2.075	-1.6431	-0.5158	-0.979	-0.543	-1.0112	-1.4561	-1.7065	-1.1739	-1.9075	-1.2881	-0.5985	-1.7608	-1.0154	-0.9438	-0.7382	-1.7746	-1.4401	-0.7878	-0.384	-0.9057	0.0304	-0.4054	-1.7727	-1.105	0.1118	-0.3349
285.1562	-0.4058	-1.3408	-0.0249	-2.0659	-1.6612	-0.5546	-1.0138	-0.5204	-0.9581	-1.4347	-1.6459	-1.1723	-1.99	-1.3081	-0.5901	-1.7447	-1.0265	-0.9487	-0.7641	-1.7913	-1.4466	-0.8246	-0.4283	-0.9477	-0.007	-0.4348	-1.7666	-1.1251	0.0581	-0.4071
289.0625	-0.5309	-1.2799	-0.1386	-2.0346	-1.6664	-0.6045	-1.0484	-0.5005	-0.9021	-1.3899	-1.5692	-1.1535	-2.0642	-1.3218	-0.5545	-1.7014	-1.0252	-0.9282	-0.7761	-1.7859	-1.4414	-0.8479	-0.4572	-0.9832	-0.0552	-0.462	-1.7118	-1.1135	0.0103	-0.4551
292.9688	-0.6772	-1.2076	-0.2641	-1.9995	-1.6719	-0.6744	-1.0956	-0.4903	-0.856	-1.3345	-1.4915	-1.126	-2.1318	-1.3411	-0.4998	-1.6473	-1.0289	-0.8982	-0.7875	-1.7722	-1.4386	-0.8711	-0.4843	-1.0204	-0.1166	-0.4874	-1.6275	-1.0756	-0.0347	-0.4833
296.875	-0.8225	-1.1486	-0.3994	-1.9785	-1.6918	-0.7704	-1.1676	-0.4973	-0.8315	-1.284	-1.4284	-1.099	-2.1969	-1.3777	-0.4434	-1.5991	-1.0528	-0.8779	-0.8111	-1.7648	-1.4527	-0.9088	-0.5242	-1.068	-0.1929	-0.5126	-1.5369	-1.0217	-0.082	-0.4998
300.7812	-0.9416	-1.1238	-0.5397	-1.985	-1.7364	-0.8936	-1.272	-0.5277	-0.8362	-1.2524	-1.3926	-1.0803	-2.2639	-1.4399	-0.4075	-1.5707	-1.1061	-0.8848	-0.8561	-1.7762	-1.4941	-0.972	-0.5882	-1.1322	-0.2833	-0.5392	-1.4612	-0.9645	-0.1359	-0.514
304.6875	-1.012	-1.1455	-0.676	-2.0252	-1.8096	-1.038	-1.4086	-0.5836	-0.872	-1.2482	-1.3906	-1.0744	-2.3358	-1.5295	-0.4101	-1.5713	-1.191	-0.9303	-0.926	-1.8133	-1.5669	-1.065	-0.6804	-1.2146	-0.3831	-0.5681	-1.4159	-0.917	-0.1977	-0.5346
308.5938	-1.0212	-1.2152	-0.7957	-2.0962	-1.9064	-1.1908	-1.5687	-0.6627	-0.9336	-1.2711	-1.4212	-1.0814	-2.411	-1.6403	-0.4572	-1.6035	-1.3035	-1.015	-1.0177	-1.8759	-1.6665	-1.1836	-0.7971	-1.3103	-0.4842	-0.599	-1.4073	-0.8895	-0.2643	-0.5663
312.5	-0.9698	-1.3226	-0.884	-2.1861	-2.0127	-1.3327	-1.7358	-0.757	-1.01	-1.3112	-1.4754	-1.097	-2.4835	-1.7587	-0.5375	-1.6638	-1.4354	-1.1285	-1.1224	-1.956	-1.78	-1.3156	-0.9263	-1.4093	-0.5757	-0.6301	-1.4318	-0.8877	-0.3279	-0.609
316.4062	-0.8708	-1.4485	-0.9273	-2.2767	-2.1082	-1.4424	-1.8893	-0.8543	-1.0862	-1.3523	-1.5383	-1.1138	-2.5433	-1.8664	-0.6254	-1.7428	-1.5758	-1.2513	-1.2274	-2.0402	-1.8895	-1.4433	-1.0508	-1.4979	-0.6472	-0.6585	-1.4773	-0.9117	-0.3772	-0.6572
320.3125	-0.745	-1.5688	-0.9165	-2.3472	-2.1714	-1.5011	-2.0093	-0.9408	-1.1465	-1.3759	-1.593	-1.1238	-2.5795	-1.9452	-0.6891	-1.8272	-1.7134	-1.3601	-1.319	-2.1121	-1.9759	-1.5478	-1.1517	-1.5632	-0.6908	-0.6812	-1.5266	-0.957	-0.4013	-0.7016
324.2188	-0.6154	-1.6614	-0.8508	-2.3798	-2.1859	-1.4988	-2.0814	-1.0036	-1.1781	-1.3677	-1.6246	-1.1205	-2.5843	-1.9818	-0.7015	-1.9027	-1.8366	-1.4342	-1.385	-2.157	-2.0242	-1.6137	-1.2126	-1.5961	-0.7041	-0.6963	-1.5615	-1.0157	-0.3924	-0.732
328.125	-0.5022	-1.7109	-0.7401	-2.3648	-2.146	-1.4375	-2.1004	-1.0337	-1.1731	-1.322	-1.6239	-1.1013	-2.5554	-1.9719	-0.6505	-1.9569	-1.9353	-1.4605	-1.4181	-2.1659	-2.0276	-1.6327	-1.2235	-1.5949	-0.6914	-0.7042	-1.5684	-1.0789	-0.3493	-0.7414
332.0312	-0.4196	-1.7138	-0.6048	-2.3037	-2.0597	-1.3328	-2.0713	-1.0273	-1.1307	-1.2436	-1.5891	-1.0681	-2.4982	-1.9217	-0.5435	-1.9826	-2.0019	-1.438	-1.4176	-2.1378	-1.9898	-1.6068	-1.1845	-1.5661	-0.663	-0.7073	-1.5416	-1.1384	-0.2789	-0.7289
335.9375	-0.3736	-1.6788	-0.4729	-2.2104	-1.9476	-1.2103	-2.0091	-0.987	-1.0567	-1.1468	-1.5262	-1.0269	-2.4252	-1.8473	-0.4061	-1.9799	-2.0332	-1.3779	-1.3909	-2.0817	-1.9246	-1.5479	-1.1066	-1.5235	-0.6329	-0.7102	-1.4849	-1.1886	-0.1948	-0.7012
339.8438	-0.3626	-1.626	-0.3747	-2.1084	-1.8391	-1.0997	-1.9352	-0.9213	-0.9629	-1.0521	-1.4476	-0.9863	-2.353	-1.7713	-0.2752	-1.9569	-2.0327	-1.3012	-1.352	-2.0147	-1.8528	-1.4766	-1.0102	-1.4848	-0.6162	-0.7179	-1.4107	-1.226	-0.1148	-0.6715
343.75	-0.379	-1.5819	-0.3363	-2.0264	-1.7649	-1.0279	-1.8736	-0.8434	-0.8653	-0.9806	-1.3699	-0.9554	-2.2994	-1.7177	-0.1884	-1.9281	-2.0104	-1.234	-1.3193	-1.9585	-1.7981	-1.4176	-0.9215	-1.4681	-0.6247	-0.7346	-1.3366	-1.2498	-0.0567	-0.656
347.6562	-0.4121	-1.5736	-0.3728	-1.9915	-1.7501	-1.0127	-1.8454	-0.7686	-0.7808	-0.9496	-1.3099	-0.9418	-2.2785	-1.707	-0.1735	-1.9116	-1.982	-1.2005	-1.3109	-1.9351	-1.7815	-1.3945	-0.866	-1.4871	-0.665	-0.762	-1.2805	-1.2605	-0.0332	-0.6685
351.5625	-0.4516	-1.6224	-0.4851	-2.0227	-1.808	-1.0601	-1.8646	-0.7113	-0.7232	-0.9675	-1.2814	-0.9493	-2.2984	-1.7509	-0.241	-1.9241	-1.9643	-1.2174	-1.34	-1.9609	-1.8163	-1.4247	-0.863	-1.5479	-0.7363	-0.7992	-1.2553	-1.2597	-0.049	-0.7161
355.4688	-0.49	-1.7367	-0.6582	-2.1261	-1.9365	-1.163	-1.9343	-0.6818	-0.7003	-1.0326	-1.2918	-0.9779	-2.3588	-1.8504	-0.3829	-1.9764	-1.9705	-1.2892	-1.4111	-2.042	-1.9052	-1.5146	-0.9201	-1.6479	-0.8307	-0.842	-1.2658	-1.2489	-0.0994	-0.7963
359.375	-0.5234	-1.9087	-0.8648	-2.292	-2.118	-1.3037	-2.0455	-0.6835	-0.7118	-1.1335	-1.3408	-1.0233	-2.4516	-1.9946	-0.5759	-2.0689	-2.0054	-1.4074	-1.5187	-2.172	-2.0389	-1.6585	-1.0319	-1.7767	-0.9352	-0.8842	-1.3067	-1.2295	-0.1715	-0.8971
363.2812	-0.5516	-2.1137	-1.0705	-2.4962	-2.3236	-1.4572	-2.1792	-0.7127	-0.75	-1.252	-1.4202	-1.0788	-2.5627	-2.1639	-0.7878	-2.191	-2.0637	-1.5529	-1.6484	-2.3323	-2.1983	-1.8395	-1.1813	-1.9186	-1.0351	-0.9195	-1.3648	-1.2028	-0.247	-1.0007
367.1875	-0.5772	-2.3142	-1.2413	-2.7041	-2.5181	-1.596	-2.3104	-0.7591	-0.8016	-1.3676	-1.516	-1.1363	-2.6755	-2.3336	-0.9854	-2.3222	-2.1318	-1.7009	-1.7807	-2.496	-2.3585	-2.0338	-1.3445	-2.0574	-1.1176	-0.9432	-1.4217	-1.1712	-0.307	-1.0878
371.0938	-0.604	-2.468	-1.3516	-2.8782	-2.668	-1.695	-2.4139	-0.8091	-0.8513	-1.4617	-1.611	-1.1887	-2.7741	-2.4796	-1.1402	-2.4378	-2.1929	-1.8266	-1.8961	-2.6343	-2.4944	-2.2163	-1.4964	-2.1794	-1.1753	-0.9541	-1.4597	-1.1378	-0.3363	-1.1432
375	-0.6366	-2.5384	-1.3895	-2.9861	-2.748	-1.7363	-2.4701	-0.8491	-0.8853	-1.5214	-1.689	-1.2304	-2.8466	-2.5833	-1.2327	-2.5147	-2.2327	-1.911	-1.9798	-2.7231	-2.5866	-2.3662	-1.6175	-2.2768	-1.2074	-0.9551	-1.4657	-1.107	-0.3275	-1.1601
378.9062	-0.6791	-2.5044	-1.36	-3.0084	-2.7462	-1.7136	-2.4695	-0.8694	-0.8942	-1.5414	-1.7377	-1.2584	-2.8872	-2.6351	-1.2552	-2.5374	-2.2442	-1.9444	-2.0247	-2.7489	-2.625	-2.471	-1.6968	-2.348	-1.2193	-0.9524	-1.4351	-1.0832	-0.2819	-1.1411
382.8125	-0.7345	-2.3676	-1.2831	-2.9434	-2.6664	-1.633	-2.4141	-0.8665	-0.8744	-1.5243	-1.751	-1.2721	-2.8963	-2.6361	-1.2119	-2.5025	-2.2288	-1.928	-2.0322	-2.7122	-2.6111	-2.5282	-1.7338	-2.3966	-1.221	-0.954	-1.3725	-1.0701	-0.2097	-1.098
386.7188	-0.8036	-2.1528	-1.1883	-2.8077	-2.5265	-1.513	-2.3164	-0.844	-0.829	-1.4792	-1.7302	-1.273	-2.88	-2.5967	-1.1188	-2.4189	-2.1948	-1.8727	-2.0106	-2.6267	-2.5568	-2.5444	-1.7363	-2.4299	-1.2241	-0.9676	-1.2907	-1.07	-0.1267	-1.0478
390.625	-0.8833	-1.903	-1.1066	-2.6327	-2.3545	-1.3799	-2.1963	-0.8108	-0.7665	-1.4196	-1.6827	-1.264	-2.8485	-2.5341	-1.0008	-2.3053	-2.1531	-1.7957	-1.9715	-2.5155	-2.4807	-2.5312	-1.7165	-2.4554	-1.2386	-0.9979	-1.2079	-1.0831	-0.0512	-1.0074
394.5312	-0.9657	-1.6686	-1.0626	-2.456	-2.1815	-1.2621	-2.0755	-0.7786	-0.699	-1.3598	-1.6201	-1.2487	-2.8125	-2.4668	-0.8872	-2.185	-2.1135	-1.7161	-1.9256	-2.4046	-2.403	-2.5021	-1.6871	-2.4792	-1.2704	-1.0461	-1.1428	-1.1074	0.0005	-0.9889
398.4375	-1.038	-1.4946	-1.0682	-2.3124	-2.0342	-1.1829	-1.9727	-0.7582	-0.6399	-1.3122	-1.5557	-1.2306	-2.7809	-2.4105	-0.8056	-2.0793	-2.0805	-1.6503	-1.881	-2.3162	-2.3401	-2.4678	-1.6571	-2.5038	-1.3194	-1.1082	-1.1106	-1.1394	0.0174	-0.9952
402.3438	-1.0858	-1.4092	-1.121	-2.2247	-1.9294	-1.1553	-1.8998	-0.7565	-0.6015	-1.2849	-1.5021	-1.2127	-2.7582	-2.3739	-0.7755	-2.0027	-2.0525	-1.6085	-1.8413	-2.2627	-2.3006	-2.4344	-1.6303	-2.528	-1.3799	-1.1769	-1.1187	-1.175	-0.0038	-1.0191
406.25	-1.0966	-1.4173	-1.2064	-2.1993	-1.871	-1.179	-1.8604	-0.7749	-0.593	-1.28	-1.4688	-1.1975	-2.7435	-2.3573	-0.8028	-1.9592	-2.0231	-1.5921	-1.8067	-2.2451	-2.2836	-2.4021	-1.6054	-2.5473	-1.4421	-1.2425	-1.1649	-1.2103	-0.0583	-1.0454
410.1562	-1.0649	-1.5008	-1.3022	-2.2253	-1.8504	-1.2416	-1.8504	-0.8089	-0.6188	-1.2941	-1.4617	-1.187	-2.7319	-2.3533	-0.8778	-1.9426	-1.9834	-1.5943	-1.775	-2.2529	-2.2799	-2.367	-1.5773	-2.5557	-1.4951	-1.296	-1.2382	-1.2425	-0.134	-1.0547
414.0625	-0.9958	-1.6246	-1.3856	-2.2794	-1.8505	-1.322	-1.8604	-0.8504	-0.678	-1.3196	-1.4823	-1.1829	-2.7154	-2.3498	-0.9769	-1.9384	-1.9252	-1.6023	-1.7433	-2.2685	-2.2748	-2.3228	-1.5399	-2.5474	-1.5293	-1.3306	-1.3218	-1.2703	-0.2144	-1.0299
417.9688	-0.905	-1.7474	-1.4387	-2.3331	-1.8521	-1.3976	-1.8797	-0.8892	-0.7643	-1.3471	-1.5281	-1.1858	-2.6866	-2.3338	-1.068	-1.929	-1.844	-1.6003	-1.7085	-2.2721	-2.2536	-2.2639	-1.4883	-2.5193	-1.5389	-1.3437	-1.3978	-1.2939	-0.2823	-0.9616
421.875	-0.8163	-1.8339	-1.4521	-2.3619	-1.8393	-1.4507	-1.8996	-0.9169	-0.8677	-1.3684	-1.5936	-1.1961	-2.6411	-2.2959	-1.1185	-1.8993	-1.741	-1.5752	-1.6684	-2.2474	-2.2054	-2.1877	-1.4219	-2.4721	-1.5234	-1.3369	-1.4517	-1.3144	-0.3237	-0.8515
425.7812	-0.7542	-1.8638	-1.426	-2.3521	-1.8046	-1.4732	-1.9157	-0.9287	-0.9759	-1.3788	-1.671	-1.2133	-2.5794	-2.2335	-1.1042	-1.8411	-1.6239	-1.52	-1.6222	-2.1867	-2.127	-2.0966	-1.3451	-2.4112	-1.4873	-1.3159	-1.4755	-1.3336	-0.3313	-0.7136
429.6875	-0.736	-1.8361	-1.3682	-2.3031	-1.749	-1.4665	-1.9281	-0.9238	-1.0764	-1.3776	-1.7516	-1.2365	-2.5068	-2.1512	-1.0169	-1.7555	-1.5052	-1.4367	-1.5705	-2.0917	-2.0236	-1.9981	-1.2673	-2.3458	-1.4392	-1.2888	-1.4688	-1.3533	-0.305	-0.5705
433.5938	-0.7647	-1.7661	-1.2903	-2.2262	-1.6801	-1.4382	-1.9389	-0.9052	-1.1576	-1.3676	-1.8259	-1.2639	-2.4323	-2.0595	-0.8671	-1.652	-1.3996	-1.3362	-1.5152	-1.973	-1.9068	-1.9028	-1.1999	-2.2868	-1.3901	-1.2637	-1.4362	-1.3741	-0.2517	-0.4475
437.5	-0.8272	-1.6774	-1.2033	-2.1383	-1.6076	-1.397	-1.9492	-0.8773	-1.2102	-1.3536	-1.8847	-1.2926	-2.3655	-1.9708	-0.6828	-1.5441	-1.3186	-1.2346	-1.4572	-1.8453	-1.7913	-1.8209	-1.1527	-2.2433	-1.3496	-1.2462	-1.3848	-1.3944	-0.1823	-0.3666
441.4062	-0.8978	-1.5921	-1.1152	-2.0549	-1.5393	-1.3485	-1.9563	-0.844	-1.2279	-1.3398	-1.9201	-1.3186	-2.3137	-1.8958	-0.5021	-1.4452	-1.2671	-1.1483	-1.3959	-1.7231	-1.6897	-1.7592	-1.1302	-2.2199	-1.3246	-1.2384	-1.3218	-1.4108	-0.1086	-0.3403
445.3125	-0.947	-1.5233	-1.0298	-1.9855	-1.4789	-1.294	-1.9535	-0.8081	-1.2079	-1.3291	-1.9264	-1.3374	-2.2803	-1.8408	-0.3637	-1.3636	-1.2411	-1.0896	-1.3277	-1.6162	-1.6099	-1.719	-1.1302	-2.2163	-1.3173	-1.2387	-1.2531	-1.4186	-0.0406	-0.3698
449.2188	-0.9518	-1.4723	-0.9485	-1.9317	-1.426	-1.232	-1.9314	-0.7709	-1.1526	-1.322	-1.9022	-1.3457	-2.2646	-1.807	-0.2968	-1.3013	-1.2295	-1.0628	-1.2477	-1.5282	-1.5539	-1.6963	-1.1455	-2.2277	-1.3257	-1.2433	-1.1834	-1.4138	0.0148	-0.4459
453.125	-0.9035	-1.4304	-0.8721	-1.8891	-1.3777	-1.1616	-1.8823	-0.7332	-1.0689	-1.3171	-1.8509	-1.3419	-2.2629	-1.791	-0.3132	-1.2544	-1.2174	-1.0647	-1.1523	-1.4573	-1.5186	-1.6843	-1.1665	-2.2475	-1.3452	-1.2484	-1.1178	-1.3951	0.0546	-0.5516
457.0312	-0.811	-1.3842	-0.8022	-1.8504	-1.3312	-1.0845	-1.8022	-0.6956	-0.9677	-1.312	-1.7802	-1.3266	-2.2695	-1.7874	-0.4045	-1.2158	-1.1922	-1.0855	-1.0411	-1.3984	-1.4979	-1.6756	-1.1848	-2.2688	-1.3699	-1.251	-1.0615	-1.3635	0.0792	-0.6677
460.9375	-0.6972	-1.3211	-0.7413	-1.8097	-1.2841	-1.0059	-1.6936	-0.6584	-0.8619	-1.3044	-1.701	-1.3021	-2.2782	-1.7899	-0.5444	-1.1777	-1.1479	-1.1128	-0.9195	-1.3455	-1.4847	-1.6643	-1.1953	-2.286	-1.394	-1.2501	-1.0197	-1.3226	0.0917	-0.7757
464.8438	-0.5901	-1.235	-0.6921	-1.7639	-1.2359	-0.9329	-1.5648	-0.622	-0.7638	-1.2931	-1.6244	-1.2713	-2.2827	-1.7924	-0.6966	-1.1341	-1.087	-1.1347	-0.7971	-1.2941	-1.4729	-1.6468	-1.197	-2.2948	-1.412	-1.2452	-0.9954	-1.2766	0.097	-0.8615
468.75	-0.5132	-1.1289	-0.6557	-1.7146	-1.1866	-0.8719	-1.4288	-0.5869	-0.6839	-1.2788	-1.5603	-1.2365	-2.2773	-1.7901	-0.8246	-1.0824	-1.0189	-1.1431	-0.6861	-1.242	-1.4581	-1.6218	-1.1914	-2.2914	-1.4196	-1.2361	-0.9876	-1.2291	0.1001	-0.9166
472.6562	-0.4781	-1.014	-0.6308	-1.6658	-1.1363	-0.8272	-1.3009	-0.5546	-0.6293	-1.2645	-1.5148	-1.1992	-2.2577	-1.7794	-0.9022	-1.0232	-0.9555	-1.135	-0.5978	-1.1891	-1.4377	-1.5891	-1.181	-2.2726	-1.4137	-1.2216	-0.9906	-1.1817	0.1051	-0.9386
476.5625	-0.4808	-0.9063	-0.6123	-1.6226	-1.0845	-0.7992	-1.1957	-0.5275	-0.604	-1.2539	-1.4908	-1.1597	-2.2215	-1.758	-0.9198	-0.9589	-0.9065	-1.112	-0.5395	-1.1359	-1.4101	-1.5484	-1.1675	-2.2353	-1.3926	-1.1995	-0.9951	-1.1351	0.1139	-0.9304
480.4688	-0.5042	-0.8203	-0.592	-1.5875	-1.0287	-0.7834	-1.1243	-0.5089	-0.6089	-1.2501	-1.4866	-1.1183	-2.1679	-1.7238	-0.8848	-0.8916	-0.8742	-1.0789	-0.5113	-1.0824	-1.3739	-1.4982	-1.1504	-2.1766	-1.3558	-1.1668	-0.9908	-1.0887	0.126	-0.8987
484.375	-0.5255	-0.7635	-0.5592	-1.5586	-0.9645	-0.771	-1.0914	-0.5007	-0.6412	-1.253	-1.4973	-1.0746	-2.0976	-1.6747	-0.8172	-0.8213	-0.8519	-1.0399	-0.5058	-1.026	-1.3267	-1.4357	-1.1261	-2.0942	-1.3041	-1.1206	-0.9696	-1.0422	0.1401	-0.8524
488.2812	-0.5242	-0.7331	-0.5037	-1.5291	-0.8856	-0.7497	-1.0936	-0.5025	-0.6947	-1.2587	-1.515	-1.0285	-2.0116	-1.6078	-0.7408	-0.7452	-0.8256	-0.9971	-0.5092	-0.9621	-1.2647	-1.3567	-1.0887	-1.9875	-1.2393	-1.0595	-0.9283	-0.9958	0.155	-0.7999
492.1875	-0.4897	-0.7169	-0.4181	-1.4884	-0.7861	-0.7067	-1.1198	-0.5098	-0.7593	-1.2595	-1.5304	-0.9803	-1.9115	-1.5202	-0.675	-0.6584	-0.7779	-0.9485	-0.5047	-0.8844	-1.1835	-1.2579	-1.0315	-1.8587	-1.1643	-0.9841	-0.8703	-0.9513	0.1717	-0.7479
496.0938	-0.4241	-0.6965	-0.2996	-1.4253	-0.6623	-0.6331	-1.1537	-0.5154	-0.8228	-1.2464	-1.5343	-0.9315	-1.7991	-1.4099	-0.6289	-0.556	-0.6945	-0.8897	-0.4774	-0.7877	-1.0799	-1.1386	-0.9497	-1.7139	-1.0835	-0.8991	-0.8044	-0.9124	0.1933	-0.7
500	-0.3407	-0.6529	-0.1502	-1.3316	-0.5148	-0.5266	-1.1775	-0.5106	-0.8722	-1.2124	-1.5203	-0.8855	-1.678	-1.2781	-0.5993	-0.4352	-0.5705	-0.8162	-0.4183	-0.6696	-0.9538	-1.0027	-0.8428	-1.5635	-1.0025	-0.8125	-0.7435	-0.8847	0.2245	-0.6573
503.9062	-0.258	-0.5721	0.0233	-1.2043	-0.3494	-0.3934	-1.1773	-0.4885	-0.897	-1.1554	-1.4859	-0.8477	-1.5531	-1.1299	-0.573	-0.2976	-0.4135	-0.7264	-0.3277	-0.532	-0.8094	-0.8595	-0.7165	-1.4216	-0.9288	-0.7358	-0.7008	-0.8753	0.2702	-0.6194
507.8125	-0.1925	-0.4489	0.2112	-1.0476	-0.1759	-0.2466	-1.1459	-0.4464	-0.8915	-1.0803	-1.4344	-0.8249	-1.4314	-0.9744	-0.5326	-0.1488	-0.2432	-0.6239	-0.2149	-0.3814	-0.6556	-0.722	-0.5824	-1.3039	-0.8703	-0.6816	-0.687	-0.8917	0.333	-0.5857
511.7188	-0.1518	-0.2881	0.402	-0.8714	-0.0069	-0.1033	-1.0847	-0.3866	-0.8564	-0.9981	-1.3737	-0.8239	-1.3202	-0.8232	-0.4638	0.0016	-0.0864	-0.5171	-0.095	-0.227	-0.5038	-0.6041	-0.4551	-1.2241	-0.8343	-0.6612	-0.7074	-0.9391	0.4126	-0.5572
515.625	-0.132	-0.1033	0.5828	-0.6898	0.1456	0.02	-1.0029	-0.3164	-0.7988	-0.9234	-1.316	-0.8498	-1.2262	-0.6886	-0.3613	0.1428	0.0306	-0.4179	0.0151	-0.0791	-0.3662	-0.517	-0.3491	-1.1911	-0.8255	-0.6811	-0.7611	-1.0194	0.5048	-0.5363
519.5312	-0.119	0.0868	0.741	-0.5176	0.272	0.1104	-0.9145	-0.2465	-0.7311	-0.8704	-1.2751	-0.9047	-1.1546	-0.5803	-0.2313	0.2647	0.0899	-0.3384	0.1016	0.0528	-0.2526	-0.4664	-0.2748	-1.2062	-0.8447	-0.7418	-0.8421	-1.1289	0.6027	-0.5265
523.4375	-0.0953	0.263	0.8655	-0.3679	0.3665	0.1613	-0.8351	-0.1885	-0.6692	-0.8498	-1.264	-0.9866	-1.1078	-0.5044	-0.0906	0.3605	0.0871	-0.2876	0.1572	0.1626	-0.169	-0.4507	-0.2361	-1.2627	-0.8882	-0.8364	-0.9412	-1.2588	0.6977	-0.5309
527.3438	-0.0469	0.4105	0.9497	-0.249	0.4286	0.1742	-0.7784	-0.1527	-0.629	-0.8664	-1.2922	-1.0894	-1.0855	-0.462	0.039	0.4278	0.0337	-0.2684	0.1821	0.2478	-0.1161	-0.4622	-0.2299	-1.3478	-0.9486	-0.952	-1.0479	-1.3959	0.7812	-0.5506
531.25	0.0309	0.5212	0.9926	-0.1639	0.4627	0.1583	-0.7528	-0.1457	-0.6237	-0.9183	-1.3637	-1.2041	-1.0848	-0.4492	0.1369	0.4692	-0.0467	-0.2772	0.1831	0.3102	-0.0895	-0.4886	-0.247	-1.4449	-1.0159	-1.0721	-1.1517	-1.5255	0.846	-0.5829
535.1562	0.1315	0.5939	0.9991	-0.1107	0.477	0.1285	-0.7608	-0.1694	-0.6608	-0.9982	-1.4756	-1.3198	-1.1007	-0.4588	0.189	0.4903	-0.1244	-0.3046	0.1704	0.3539	-0.0819	-0.5169	-0.2755	-1.5376	-1.0797	-1.1799	-1.2428	-1.6336	0.887	-0.6219
539.0625	0.2394	0.632	0.9783	-0.085	0.4807	0.1007	-0.799	-0.2206	-0.7402	-1.0951	-1.6182	-1.4257	-1.128	-0.4823	0.1913	0.4978	-0.1727	-0.3388	0.1539	0.384	-0.0846	-0.5369	-0.3038	-1.6133	-1.1311	-1.2613	-1.3122	-1.7102	0.9015	-0.6596
542.9688	0.335	0.6411	0.941	-0.0817	0.4816	0.0871	-0.8593	-0.2923	-0.8541	-1.1968	-1.7766	-1.5125	-1.1621	-0.5123	0.1498	0.4969	-0.1748	-0.3689	0.1402	0.4046	-0.0907	-0.5434	-0.324	-1.6656	-1.1644	-1.3082	-1.353	-1.7508	0.89	-0.6873
546.875	0.4004	0.628	0.8977	-0.0958	0.4848	0.0927	-0.9307	-0.3748	-0.9879	-1.2915	-1.9329	-1.5735	-1.1993	-0.5432	0.0786	0.4911	-0.1269	-0.3869	0.1314	0.4181	-0.095	-0.5365	-0.3327	-1.6937	-1.1778	-1.3185	-1.3597	-1.7567	0.8558	-0.6977
550.7812	0.4245	0.6002	0.8575	-0.1222	0.4922	0.1145	-1	-0.4571	-1.1227	-1.3686	-2.0682	-1.6047	-1.2359	-0.5706	-0.0032	0.4826	-0.0371	-0.3883	0.1268	0.4268	-0.0939	-0.519	-0.3301	-1.7007	-1.1721	-1.2965	-1.3287	-1.733	0.8054	-0.6862
554.6875	0.4066	0.5673	0.8285	-0.1543	0.5046	0.1451	-1.0532	-0.5276	-1.238	-1.4185	-2.1652	-1.6038	-1.2667	-0.5896	-0.0764	0.475	0.079	-0.3714	0.1257	0.434	-0.0832	-0.4936	-0.3173	-1.6899	-1.1491	-1.2491	-1.2576	-1.6862	0.7484	-0.6511
558.5938	0.357	0.5411	0.8185	-0.1827	0.5235	0.1762	-1.0767	-0.5753	-1.3156	-1.433	-2.2106	-1.5706	-1.2841	-0.593	-0.1241	0.4737	0.2043	-0.3354	0.1296	0.4459	-0.0574	-0.4594	-0.2935	-1.6622	-1.11	-1.1839	-1.1461	-1.6213	0.6955	-0.5942
562.5	0.2958	0.5358	0.8345	-0.1957	0.553	0.2031	-1.059	-0.5907	-1.3426	-1.4056	-2.197	-1.5062	-1.278	-0.572	-0.1346	0.4868	0.3241	-0.2802	0.1432	0.471	-0.0091	-0.4116	-0.2551	-1.6151	-1.0552	-1.1065	-0.9964	-1.5408	0.6573	-0.5203
566.4062	0.2483	0.5654	0.882	-0.1807	0.5993	0.2271	-0.993	-0.5679	-1.3143	-1.3336	-2.1252	-1.4139	-1.2373	-0.5165	-0.1021	0.523	0.429	-0.2053	0.1729	0.5193	0.0697	-0.342	-0.1961	-1.5434	-0.9843	-1.0199	-0.8142	-1.4452	0.6424	-0.4359
570.3125	0.2395	0.6406	0.9625	-0.1277	0.6696	0.2551	-0.8784	-0.5058	-1.2355	-1.2192	-2.0045	-1.2996	-1.1531	-0.4185	-0.027	0.5899	0.5155	-0.1111	0.2255	0.5998	0.1853	-0.2421	-0.1101	-1.4421	-0.8977	-0.9255	-0.6081	-1.3349	0.6559	-0.3489
574.2188	0.2876	0.7654	1.0725	-0.0313	0.7693	0.2968	-0.7224	-0.4095	-1.1195	-1.0706	-1.8518	-1.1721	-1.0212	-0.2742	0.0858	0.691	0.5855	0.0014	0.3055	0.7179	0.3402	-0.1062	0.0065	-1.3085	-0.7974	-0.825	-0.3896	-1.2118	0.6985	-0.2662
578.125	0.4004	0.934	1.2038	0.1064	0.8999	0.3615	-0.5389	-0.2897	-0.9858	-0.9011	-1.6891	-1.0426	-0.8443	-0.0858	0.2269	0.8249	0.6444	0.1291	0.4149	0.8742	0.5321	0.0662	0.1523	-1.1446	-0.6876	-0.721	-0.171	-1.081	0.7662	-0.1941
582.0312	0.5734	1.131	1.3446	0.2766	1.0575	0.4547	-0.3462	-0.1612	-0.8559	-0.7275	-1.539	-0.9225	-0.632	0.1382	0.3849	0.9847	0.699	0.267	0.5526	1.0634	0.7533	0.2687	0.3196	-0.9577	-0.5749	-0.6188	0.0355	-0.9506	0.8519	-0.137
585.9375	0.792	1.3344	1.4833	0.4654	1.2334	0.5767	-0.1626	-0.0402	-0.7487	-0.5672	-1.4204	-0.8212	-0.3998	0.3843	0.5465	1.1595	0.7564	0.4081	0.7149	1.2754	0.9923	0.4893	0.4954	-0.7594	-0.4668	-0.5251	0.2193	-0.83	0.9466	-0.0975
589.8438	1.0342	1.521	1.6121	0.6573	1.4165	0.7227	-0.0026	0.0589	-0.6772	-0.434	-1.3437	-0.7441	-0.1653	0.6364	0.6983	1.3377	0.8228	0.5449	0.8964	1.4981	1.2355	0.7126	0.6641	-0.5634	-0.371	-0.447	0.3729	-0.7279	1.0415	-0.0768
593.75	1.2743	1.6738	1.7284	0.8394	1.5958	0.8839	0.1255	0.1262	-0.6456	-0.3358	-1.3093	-0.6906	0.0546	0.8786	0.8277	1.5093	0.9037	0.6708	1.0909	1.7193	1.47	0.9232	0.8116	-0.3828	-0.2933	-0.39	0.4933	-0.6497	1.129	-0.0746
597.6562	1.4857	1.7872	1.8348	1.0038	1.7628	1.0489	0.2206	0.1582	-0.6493	-0.2731	-1.3078	-0.6545	0.2466	1.0973	0.925	1.6689	1.0041	0.7818	1.2913	1.9293	1.6848	1.1088	0.9288	-0.2281	-0.2369	-0.3563	0.5829	-0.5963	1.2039	-0.0891
601.5625	1.6437	1.869	1.9359	1.1485	1.9125	1.2056	0.2874	0.1581	-0.676	-0.2391	-1.3227	-0.626	0.4026	1.2824	0.9845	1.8155	1.1277	0.8772	1.4894	2.1215	1.8722	1.2615	1.0128	-0.1058	-0.202	-0.3444	0.6483	-0.564	1.2628	-0.1169
605.4688	1.7284	1.9373	2.0349	1.2759	2.0435	1.3427	0.3338	0.1345	-0.7097	-0.2227	-1.3349	-0.5943	0.519	1.4276	1.0057	1.9517	1.276	0.9596	1.6762	2.2919	2.0271	1.3782	1.0673	-0.0185	-0.1864	-0.3497	0.6985	-0.5462	1.3038	-0.1532
609.375	1.7278	2.0145	2.1305	1.3902	2.157	1.4519	0.3676	0.0995	-0.7338	-0.2121	-1.3272	-0.5509	0.596	1.5301	0.9934	2.08	1.4461	1.0331	1.8425	2.4381	2.1466	1.4599	1.1008	0.0346	-0.186	-0.3656	0.7414	-0.5358	1.3263	-0.192
613.2812	1.6402	2.1179	2.2171	1.4937	2.2546	1.529	0.3944	0.0648	-0.735	-0.1979	-1.2886	-0.4924	0.6357	1.5894	0.9571	2.2009	1.6301	1.1017	1.9798	2.5579	2.2293	1.51	1.1233	0.0561	-0.1964	-0.3855	0.7814	-0.5278	1.3301	-0.2269
617.1875	1.4752	2.2528	2.2868	1.5849	2.3374	1.574	0.4161	0.0393	-0.7057	-0.1755	-1.2167	-0.4215	0.6411	1.6073	0.9093	2.3106	1.8148	1.1675	2.0823	2.6487	2.2744	1.533	1.1443	0.0497	-0.213	-0.4045	0.8172	-0.5212	1.3156	-0.2514
621.0938	1.2535	2.409	2.3332	1.6576	2.4048	1.59	0.4302	0.0272	-0.6448	-0.1456	-1.118	-0.3463	0.6149	1.5868	0.863	2.4021	1.9841	1.2302	2.1478	2.708	2.2824	1.5337	1.17	0.019	-0.2319	-0.4203	0.8422	-0.5193	1.2834	-0.2605
625	1.0048	2.5625	2.3542	1.7025	2.4541	1.5807	0.4315	0.0274	-0.5577	-0.1132	-1.0064	-0.2786	0.56	1.5324	0.8282	2.4666	2.1219	1.2864	2.1791	2.7342	2.2556	1.5164	1.2029	-0.0325	-0.2501	-0.4329	0.8474	-0.529	1.2349	-0.2511
628.9062	0.7644	2.6827	2.3522	1.7103	2.4818	1.5488	0.414	0.0348	-0.455	-0.0851	-0.9002	-0.2308	0.4803	1.4501	0.81	2.4974	2.216	1.3308	2.1839	2.728	2.1983	1.4855	1.2416	-0.1013	-0.2661	-0.444	0.8244	-0.5579	1.1722	-0.2226
632.8125	0.5689	2.742	2.3339	1.6759	2.4848	1.4959	0.3739	0.0421	-0.3508	-0.068	-0.8179	-0.2132	0.3811	1.3478	0.8064	2.4929	2.2606	1.3584	2.1743	2.6943	2.1181	1.4455	1.2825	-0.1834	-0.2791	-0.4553	0.7704	-0.6115	1.0979	-0.1774
636.7188	0.4507	2.7257	2.307	1.6021	2.4628	1.4239	0.3124	0.0418	-0.2596	-0.0656	-0.7743	-0.231	0.2702	1.2361	0.8093	2.4587	2.2593	1.3659	2.1648	2.6425	2.0263	1.4023	1.3216	-0.2728	-0.289	-0.4672	0.6899	-0.6906	1.015	-0.12
640.625	0.4323	2.6375	2.2796	1.5017	2.4197	1.3383	0.2366	0.0286	-0.1943	-0.0775	-0.7774	-0.2835	0.1581	1.1272	0.8076	2.4085	2.225	1.3544	2.1696	2.5865	1.9369	1.3634	1.3571	-0.3609	-0.2947	-0.4772	0.5959	-0.7892	0.9275	-0.0557
644.5312	0.5204	2.4995	2.2585	1.3963	2.3643	1.2494	0.1592	0.0002	-0.1634	-0.0988	-0.8265	-0.3634	0.057	1.035	0.7912	2.3609	2.1782	1.3298	2.2005	2.5427	1.8654	1.3377	1.3898	-0.4368	-0.2931	-0.4801	0.5066	-0.8952	0.8406	0.0114
648.4375	0.703	2.3463	2.2493	1.312	2.3094	1.1728	0.096	-0.0417	-0.1691	-0.1215	-0.9127	-0.4587	-0.0205	0.9727	0.7563	2.3359	2.1419	1.3031	2.2634	2.5271	1.8268	1.3347	1.4242	-0.4881	-0.2794	-0.469	0.442	-0.9923	0.7617	0.0801
652.3438	0.95	2.2151	2.256	1.2727	2.2689	1.1261	0.0623	-0.0917	-0.2071	-0.137	-1.0207	-0.5545	-0.0637	0.9505	0.7086	2.3495	2.1366	1.2879	2.3574	2.551	1.832	1.3624	1.467	-0.5033	-0.2479	-0.437	0.418	-1.0634	0.7002	0.1532
656.25	1.2182	2.1354	2.2808	1.2936	2.2549	1.1235	0.0688	-0.1418	-0.2672	-0.1381	-1.1318	-0.6356	-0.0653	0.9739	0.6634	2.4087	2.1741	1.2977	2.4749	2.6187	1.8855	1.4251	1.5249	-0.4744	-0.194	-0.3793	0.4424	-1.0942	0.6666	0.2361
660.1562	1.4596	2.1214	2.3228	1.3765	2.2742	1.1719	0.1186	-0.1832	-0.3355	-0.1212	-1.2278	-0.6898	-0.0238	1.0416	0.6425	2.5097	2.2546	1.3418	2.6033	2.7251	1.9839	1.5223	1.6022	-0.3982	-0.1165	-0.2944	0.5124	-1.0763	0.6697	0.3342
664.0625	1.6313	2.1697	2.3784	1.5092	2.327	1.2672	0.2061	-0.208	-0.3975	-0.0862	-1.294	-0.709	0.0565	1.1459	0.6669	2.638	2.3659	1.4231	2.7276	2.8564	2.1155	1.6478	1.6987	-0.2781	-0.0185	-0.1854	0.6162	-1.0089	0.7137	0.4495
667.9688	1.7047	2.261	2.4409	1.668	2.406	1.3948	0.318	-0.2108	-0.4408	-0.0367	-1.3213	-0.6905	0.1655	1.2734	0.7507	2.7712	2.4871	1.5362	2.8333	2.9927	2.2625	1.7904	1.8087	-0.1238	0.0925	-0.0588	0.7365	-0.8987	0.7952	0.577
671.875	1.6704	2.3668	2.5014	1.8233	2.4983	1.5335	0.4357	-0.1906	-0.4572	0.022	-1.3076	-0.6366	0.2896	1.4071	0.8947	2.8846	2.5926	1.6678	2.9085	3.1115	2.4034	1.9353	1.9212	0.0503	0.2057	0.076	0.8561	-0.7586	0.9024	0.7036
675.7812	1.5397	2.4564	2.5493	1.9461	2.5878	1.6593	0.5396	-0.1503	-0.4441	0.0832	-1.2567	-0.5541	0.4134	1.5293	1.0852	2.9553	2.6584	1.7992	2.9442	3.192	2.5171	2.0666	2.022	0.2267	0.3094	0.2083	0.9621	-0.605	1.0163	0.81
679.6875	1.3402	2.5044	2.5735	2.0138	2.6583	1.7512	0.6123	-0.0961	-0.4035	0.1403	-1.1776	-0.4521	0.5225	1.6243	1.2947	2.9676	2.6677	1.9095	2.935	3.219	2.5865	2.1698	2.0962	0.3871	0.3922	0.3274	1.0479	-0.4552	1.1148	0.8747
683.5938	1.1098	2.4963	2.564	2.0147	2.6968	1.7952	0.6429	-0.0358	-0.3412	0.1871	-1.0813	-0.3408	0.6061	1.6814	1.4882	2.916	2.6151	1.9803	2.88	3.1859	2.6016	2.2349	2.1323	0.5159	0.4456	0.424	1.1128	-0.3239	1.1779	0.8799
687.5	0.8887	2.4304	2.5137	1.9498	2.696	1.7867	0.6289	0.0235	-0.2647	0.2188	-0.9797	-0.2302	0.6582	1.6964	1.6296	2.806	2.508	1.9997	2.7836	3.0961	2.5615	2.2585	2.1251	0.6022	0.4652	0.4917	1.1599	-0.2217	1.1926	0.8169
691.4062	0.712	2.3172	2.4209	1.8315	2.6556	1.7318	0.5763	0.0767	-0.182	0.2315	-0.8831	-0.1286	0.6789	1.6725	1.6899	2.6532	2.366	1.965	2.657	2.9627	2.4748	2.2442	2.0778	0.6415	0.4518	0.5281	1.1931	-0.1532	1.1564	0.6892
695.3125	0.6039	2.1754	2.2908	1.6809	2.582	1.6448	0.4988	0.1215	-0.1003	0.2229	-0.7995	-0.0427	0.6736	1.6193	1.6537	2.4798	2.2163	1.883	2.5165	2.8056	2.3575	2.2019	2.0014	0.6366	0.4117	0.535	1.2156	-0.1175	1.078	0.5134
699.2188	0.5752	2.0272	2.1368	1.5232	2.4875	1.5459	0.4147	0.1575	-0.0252	0.1924	-0.7348	0.0226	0.6519	1.5508	1.5236	2.3108	2.0877	1.7693	2.3812	2.6487	2.2307	2.1458	1.9123	0.5964	0.3559	0.518	1.229	-0.1089	0.9752	0.316
703.125	0.623	1.8943	1.9797	1.3834	2.388	1.4577	0.3438	0.187	0.0396	0.1427	-0.6921	0.0646	0.6257	1.4839	1.3205	2.1691	2.0041	1.6443	2.2691	2.5161	2.1168	2.0912	1.8286	0.5346	0.2985	0.4859	1.2346	-0.1189	0.8701	0.129
707.0312	0.7331	1.7947	1.8443	1.2822	2.3009	1.4007	0.3041	0.2137	0.0926	0.0804	-0.6723	0.0824	0.6071	1.435	1.0804	2.0727	1.9806	1.5303	2.1935	2.4281	2.0367	2.0516	1.7666	0.4667	0.2535	0.4477	1.2343	-0.1385	0.7848	-0.0166
710.9375	0.8832	1.7403	1.7542	1.2332	2.2425	1.39	0.309	0.2424	0.134	0.0159	-0.6742	0.0768	0.6059	1.4179	0.8475	2.0319	2.0203	1.4467	2.1598	2.3983	2.0058	2.037	1.7369	0.4071	0.2318	0.4113	1.2317	-0.1609	0.7361	-0.0971
714.8438	1.0474	1.7355	1.7257	1.2409	2.2246	1.4315	0.3647	0.2779	0.1653	-0.0379	-0.6948	0.0504	0.6274	1.4414	0.666	2.0484	2.1148	1.4076	2.1657	2.4317	2.0325	2.0516	1.7434	0.3661	0.2379	0.3808	1.2319	-0.1823	0.7325	-0.1007
718.75	1.1999	1.777	1.7622	1.2998	2.2522	1.5202	0.4691	0.3237	0.1884	-0.0683	-0.7292	0.007	0.6717	1.5077	0.5709	2.1154	2.2463	1.419	2.2019	2.5239	2.116	2.0945	1.7832	0.3485	0.2694	0.3564	1.2408	-0.2025	0.7733	-0.0304
722.6562	1.3198	1.8541	1.8522	1.3968	2.3226	1.6408	0.6111	0.3807	0.2051	-0.0659	-0.7706	-0.0482	0.733	1.6121	0.5813	2.2189	2.3918	1.479	2.2556	2.6615	2.2471	2.1599	1.8479	0.3536	0.3175	0.3349	1.2634	-0.224	0.8495	0.0972
726.5625	1.3943	1.9515	1.9704	1.5138	2.425	1.7712	0.7722	0.4473	0.2171	-0.027	-0.8113	-0.1092	0.8018	1.7438	0.6965	2.3409	2.5273	1.5776	2.3137	2.8251	2.409	2.2392	1.9262	0.376	0.3692	0.3114	1.3022	-0.2495	0.9463	0.2561
730.4688	1.4205	2.0516	2.0841	1.6322	2.5431	1.887	0.9292	0.5187	0.2256	0.0448	-0.8438	-0.1694	0.8665	1.8882	0.8966	2.4623	2.6326	1.6993	2.3654	2.9925	2.5809	2.3221	2.0053	0.4076	0.4106	0.2815	1.3562	-0.2811	1.0472	0.4166
734.375	1.4059	2.1372	2.1611	1.7355	2.6572	1.9679	1.0582	0.5883	0.2313	0.1397	-0.8622	-0.2232	0.9166	2.029	1.147	2.5661	2.6939	1.8253	2.4033	3.1429	2.7414	2.3984	2.073	0.4397	0.4298	0.243	1.4201	-0.3188	1.1364	0.552
738.2812	1.3659	2.1939	2.1781	1.8122	2.7483	2.0019	1.1397	0.6484	0.234	0.244	-0.8634	-0.2655	0.9451	2.1517	1.4059	2.6403	2.7056	1.9364	2.4244	3.2602	2.8719	2.4595	2.119	0.4647	0.4199	0.197	1.4859	-0.3597	1.2021	0.6428
742.1875	1.321	2.2107	2.1269	1.8561	2.8013	1.9876	1.1623	0.6919	0.2336	0.3436	-0.847	-0.2924	0.9503	2.2457	1.6323	2.6794	2.6706	2.0168	2.4303	3.3354	2.9599	2.4997	2.137	0.4783	0.3802	0.1483	1.545	-0.3983	1.2372	0.6783
746.0938	1.2914	2.1805	2.0149	1.8654	2.8076	1.9344	1.125	0.7136	0.2302	0.4277	-0.8147	-0.3006	0.9361	2.3055	1.7934	2.6837	2.5992	2.057	2.4263	3.3669	3.0004	2.5171	2.126	0.48	0.317	0.105	1.5902	-0.427	1.2387	0.6569
750	1.2924	2.1009	1.8613	1.8416	2.7665	1.8593	1.0371	0.7112	0.2248	0.491	-0.769	-0.2873	0.9105	2.3313	1.8695	2.6585	2.5069	2.0552	2.4201	3.3601	2.9954	2.5137	2.0915	0.4728	0.2418	0.0764	1.6183	-0.4375	1.2079	0.5846
753.9062	1.3297	1.9737	1.6912	1.7879	2.6839	1.7817	0.9147	0.6855	0.2194	0.5342	-0.7133	-0.2507	0.8832	2.3269	1.856	2.6115	2.4113	2.017	2.4184	3.3237	2.952	2.494	2.0437	0.4617	0.1686	0.0711	1.6303	-0.4232	1.1497	0.4731
757.8125	1.3981	1.8051	1.5282	1.7082	2.5701	1.7177	0.7759	0.64	0.2155	0.5619	-0.6513	-0.1917	0.8617	2.298	1.7619	2.5501	2.3272	1.9525	2.4232	3.2671	2.8791	2.4624	1.9938	0.4515	0.1108	0.0935	1.6305	-0.381	1.072	0.3379
761.7188	1.4818	1.6062	1.3901	1.606	2.4363	1.6746	0.6362	0.5798	0.2139	0.579	-0.5882	-0.1149	0.8478	2.249	1.6071	2.4786	2.2622	1.8724	2.4284	3.1962	2.784	2.4206	1.9496	0.4435	0.077	0.1425	1.6239	-0.3131	0.9848	0.1963
765.625	1.558	1.3919	1.2866	1.4846	2.2915	1.6483	0.5043	0.511	0.213	0.5887	-0.5307	-0.0297	0.8361	2.1816	1.418	2.3967	2.2134	1.7835	2.4189	3.1111	2.6703	2.3651	1.9103	0.4345	0.0692	0.2097	1.614	-0.2278	0.8983	0.0643
769.5312	1.6003	1.1803	1.2184	1.347	2.1405	1.6237	0.3813	0.4391	0.2087	0.5899	-0.4869	0.0505	0.8137	2.094	1.2235	2.2991	2.1656	1.6871	2.3721	3.0059	2.5364	2.2862	1.8651	0.4159	0.0825	0.2813	1.5997	-0.1381	0.8202	-0.0461
773.4375	1.5846	0.9908	1.1789	1.1961	1.9834	1.5776	0.2609	0.3682	0.1949	0.5778	-0.4645	0.1098	0.7628	1.9815	1.051	2.176	2.0942	1.5778	2.2619	2.8693	2.3768	2.1701	1.7941	0.3761	0.1067	0.3402	1.5754	-0.0597	0.7528	-0.1304
777.3438	1.4932	0.8411	1.1555	1.035	1.8163	1.485	0.1326	0.3007	0.1645	0.5452	-0.47	0.1334	0.6652	1.8378	0.9223	2.0157	1.9695	1.4461	2.0642	2.6874	2.1836	2.0009	1.672	0.3028	0.1294	0.3702	1.532	-0.0076	0.6927	-0.1922
781.25	1.3188	0.744	1.1334	0.8666	1.6332	1.3246	-0.0151	0.2367	0.1108	0.485	-0.5069	0.1103	0.5065	1.6573	0.8504	1.8072	1.7638	1.2804	1.7614	2.448	1.9492	1.765	1.4752	0.1863	0.1397	0.3592	1.4598	0.007	0.6319	-0.242
785.1562	1.0659	0.7044	1.0991	0.6933	1.4285	1.0848	-0.1912	0.1746	0.0303	0.3929	-0.5748	0.0359	0.2798	1.4374	0.8379	1.5443	1.4587	1.0719	1.347	2.144	1.6692	1.4554	1.1876	0.0224	0.1303	0.3019	1.3523	-0.0208	0.561	-0.2932
789.0625	0.7487	0.7178	1.0436	0.5166	1.1995	0.7671	-0.3994	0.1125	-0.0769	0.2693	-0.6694	-0.0861	-0.0114	1.1798	0.8769	1.2279	1.0517	0.8175	0.8289	1.7771	1.3447	1.0745	0.8075	-0.1862	0.099	0.201	1.2084	-0.0888	0.4735	-0.3572
792.9688	0.3883	0.7703	0.9651	0.3372	0.9479	0.3863	-0.6371	0.0486	-0.2057	0.1201	-0.7829	-0.2446	-0.3534	0.8919	0.952	0.8678	0.5598	0.5231	0.2304	1.3589	0.9836	0.6366	0.3504	-0.43	0.0483	0.0663	1.0343	-0.1878	0.3685	-0.4387
796.875	0.0081	0.8417	0.8688	0.1555	0.681	-0.0316	-0.8951	-0.0176	-0.3467	-0.0439	-0.9054	-0.4223	-0.7244	0.5865	1.0435	0.482	0.0174	0.2036	-0.4121	0.9109	0.6006	0.1661	-0.1523	-0.6937	-0.0155	-0.0872	0.8424	-0.3037	0.2509	-0.5349
