time	FP1	F3	F7	FC3	C3	C5	P3	P7	PO7	PO3	O1	Oz	Pz	CPz	FP2	Fz	F4	F8	FC4	FCz	Cz	C4	C6	P4	P8	PO8	PO4	O2	HEOG_left	HEOG_right
-199.2188	-0.3059	-0.1512	-0.1983	-0.1579	-0.1228	0.068	-0.1727	0.2439	0.3527	0.1257	0.0218	-0.2997	0.0937	0.1209	0.0372	0.0428	0.1568	-0.2211	-0.1276	-0.0453	-0.2278	-0.0445	-0.0156	0.1547	0.2282	0.0561	0.1144	-0.0113	-0.1898	-0.2694
-195.3125	-0.3631	-0.2474	-0.2344	-0.2645	-0.2677	-0.0946	-0.2878	0.0796	0.3003	0.1008	0.1605	-0.1699	0.064	0.0481	0.0253	-0.0697	0.1643	-0.1257	-0.008	-0.1396	-0.2782	0.0721	0.1088	0.2311	0.347	0.1754	0.1315	0.1197	-0.2374	-0.2061
-191.4062	-0.4191	-0.3384	-0.2682	-0.3639	-0.4026	-0.2477	-0.3921	-0.0735	0.2503	0.0814	0.2962	-0.0392	0.0398	-0.0189	0.0068	-0.1853	0.1584	-0.0478	0.0951	-0.2337	-0.3266	0.175	0.2206	0.3037	0.4553	0.2906	0.1521	0.2468	-0.2877	-0.1521
-187.5	-0.4705	-0.42	-0.2962	-0.4497	-0.5184	-0.3822	-0.4764	-0.2055	0.2044	0.0704	0.4228	0.0892	0.0224	-0.0776	-0.0232	-0.3045	0.1299	-0.0002	0.1673	-0.3274	-0.3727	0.2518	0.3083	0.3655	0.5428	0.396	0.1767	0.364	-0.3399	-0.1133
-183.5938	-0.5162	-0.4902	-0.3172	-0.5196	-0.6103	-0.4927	-0.537	-0.3104	0.1624	0.0662	0.5314	0.2084	0.0086	-0.1298	-0.0681	-0.427	0.0725	0.0087	0.1979	-0.4221	-0.4192	0.2925	0.3621	0.4081	0.6006	0.4848	0.2019	0.4636	-0.3936	-0.0945
-179.6875	-0.5568	-0.5494	-0.3326	-0.575	-0.6782	-0.5782	-0.5753	-0.387	0.1231	0.0632	0.6108	0.308	-0.009	-0.1809	-0.1291	-0.5514	-0.0153	-0.0237	0.1803	-0.5196	-0.4715	0.2907	0.3754	0.4231	0.622	0.5493	0.2214	0.5366	-0.448	-0.0979
-175.7812	-0.5937	-0.5997	-0.345	-0.6206	-0.7258	-0.6404	-0.5965	-0.4375	0.0849	0.054	0.6508	0.3769	-0.0399	-0.238	-0.2045	-0.6745	-0.1301	-0.0938	0.1142	-0.6217	-0.5355	0.2449	0.3454	0.403	0.604	0.5824	0.2276	0.5746	-0.5015	-0.1232
-171.875	-0.6278	-0.6436	-0.3569	-0.6612	-0.7584	-0.6826	-0.6064	-0.466	0.0473	0.0324	0.6451	0.4062	-0.092	-0.3069	-0.2898	-0.7908	-0.2629	-0.1921	0.0057	-0.7278	-0.615	0.1589	0.2749	0.3441	0.5481	0.5796	0.214	0.573	-0.5513	-0.1667
-167.9688	-0.6576	-0.6828	-0.3689	-0.7002	-0.7801	-0.7071	-0.6089	-0.4762	0.0118	-0.0035	0.5943	0.3925	-0.1683	-0.389	-0.378	-0.893	-0.4005	-0.3044	-0.1331	-0.8342	-0.709	0.0416	0.1716	0.2482	0.4603	0.5408	0.1783	0.5329	-0.5926	-0.2221
-164.0625	-0.6795	-0.7171	-0.3795	-0.7377	-0.7929	-0.7149	-0.6045	-0.4704	-0.0179	-0.0503	0.5071	0.3397	-0.2652	-0.4804	-0.4605	-0.9728	-0.5275	-0.4147	-0.2853	-0.9333	-0.8108	-0.094	0.0476	0.1227	0.3509	0.471	0.1235	0.4619	-0.6199	-0.2811
-160.1562	-0.6886	-0.745	-0.3855	-0.7708	-0.7964	-0.7061	-0.5905	-0.4493	-0.037	-0.0998	0.3983	0.2588	-0.3719	-0.5719	-0.5291	-1.0225	-0.6295	-0.5075	-0.4327	-1.0153	-0.9088	-0.2331	-0.0827	-0.0194	0.2329	0.3804	0.0576	0.3732	-0.6279	-0.3351
-156.25	-0.6807	-0.7644	-0.3837	-0.7953	-0.7889	-0.6808	-0.5627	-0.4129	-0.0409	-0.1411	0.2867	0.1658	-0.474	-0.6516	-0.5775	-1.037	-0.6968	-0.5707	-0.5587	-1.0705	-0.9893	-0.3614	-0.2052	-0.1621	0.1201	0.2825	-0.0087	0.2829	-0.6136	-0.3768
-152.3438	-0.6547	-0.7737	-0.3728	-0.8077	-0.7697	-0.6411	-0.5187	-0.3618	-0.0274	-0.1645	0.19	0.0778	-0.556	-0.708	-0.6033	-1.016	-0.7256	-0.5986	-0.6521	-1.0922	-1.0398	-0.4679	-0.3089	-0.2888	0.0243	0.1913	-0.0643	0.2063	-0.5777	-0.4019
-148.4375	-0.6135	-0.7726	-0.3543	-0.8065	-0.74	-0.591	-0.4592	-0.2988	0.0025	-0.164	0.1209	0.0092	-0.6061	-0.7332	-0.6079	-0.9647	-0.7199	-0.5918	-0.7082	-1.0789	-1.0526	-0.5461	-0.3869	-0.3863	-0.0464	0.1181	-0.1012	0.1542	-0.5248	-0.4099
-144.5312	-0.5637	-0.7618	-0.3323	-0.7929	-0.7028	-0.5366	-0.389	-0.2287	0.0442	-0.1397	0.0844	-0.0312	-0.6187	-0.7249	-0.5966	-0.893	-0.689	-0.5571	-0.7297	-1.0351	-1.0269	-0.5948	-0.4375	-0.4463	-0.0888	0.07	-0.1163	0.1307	-0.4628	-0.4031
-140.625	-0.5136	-0.7433	-0.3123	-0.7699	-0.6626	-0.4848	-0.3167	-0.1581	0.0899	-0.0979	0.077	-0.0426	-0.5954	-0.687	-0.5764	-0.8131	-0.6455	-0.5047	-0.7242	-0.9697	-0.9682	-0.6171	-0.4636	-0.4676	-0.1049	0.0478	-0.1123	0.1323	-0.4002	-0.386
-136.7188	-0.471	-0.7186	-0.299	-0.7406	-0.6236	-0.441	-0.2521	-0.0937	0.13	-0.0498	0.0879	-0.0313	-0.5441	-0.6282	-0.5544	-0.7373	-0.602	-0.4458	-0.702	-0.8942	-0.8874	-0.6191	-0.4704	-0.4555	-0.1007	0.0474	-0.0964	0.1493	-0.3444	-0.3632
-132.8125	-0.4407	-0.6888	-0.2953	-0.7074	-0.5883	-0.4081	-0.2042	-0.0414	0.1548	-0.0087	0.1022	-0.0096	-0.4768	-0.5594	-0.5357	-0.6746	-0.568	-0.3898	-0.6731	-0.8193	-0.7968	-0.608	-0.4646	-0.4207	-0.0849	0.0604	-0.0783	0.1685	-0.2997	-0.3382
-128.9062	-0.4234	-0.6541	-0.3013	-0.6706	-0.557	-0.3855	-0.1786	-0.0047	0.1567	0.0131	0.1046	0.0078	-0.4062	-0.4911	-0.5226	-0.6291	-0.5482	-0.343	-0.6447	-0.7525	-0.7074	-0.5901	-0.452	-0.3763	-0.067	0.0768	-0.0673	0.1764	-0.2669	-0.3133
-125	-0.416	-0.6143	-0.3148	-0.629	-0.5271	-0.3696	-0.1759	0.0154	0.1313	0.0073	0.0832	0.0077	-0.3429	-0.4308	-0.5138	-0.5991	-0.5423	-0.3081	-0.6201	-0.6966	-0.6263	-0.5701	-0.4372	-0.3351	-0.0552	0.0873	-0.0698	0.1627	-0.243	-0.2889
-121.0938	-0.4127	-0.5691	-0.3325	-0.5807	-0.4946	-0.3545	-0.1912	0.0205	0.0792	-0.028	0.0324	-0.0186	-0.2927	-0.3813	-0.5053	-0.5786	-0.5457	-0.2848	-0.5982	-0.6493	-0.5555	-0.5505	-0.4228	-0.3067	-0.0556	0.0849	-0.0875	0.1227	-0.223	-0.2646
-117.1875	-0.4064	-0.5184	-0.3505	-0.5237	-0.4544	-0.3331	-0.215	0.0141	0.0056	-0.0873	-0.0457	-0.0723	-0.256	-0.3403	-0.4915	-0.5587	-0.5502	-0.2704	-0.5754	-0.605	-0.4918	-0.5312	-0.4099	-0.2952	-0.0704	0.0661	-0.1169	0.0584	-0.2005	-0.2393
-113.2812	-0.3907	-0.4632	-0.3655	-0.4572	-0.4021	-0.2991	-0.2349	0.001	-0.0799	-0.1586	-0.1419	-0.1468	-0.228	-0.3018	-0.4666	-0.5307	-0.5466	-0.2607	-0.546	-0.5563	-0.4285	-0.5104	-0.3981	-0.2991	-0.0983	0.0313	-0.1502	-0.0219	-0.1698	-0.2119
-109.375	-0.3606	-0.4042	-0.3741	-0.3816	-0.3343	-0.248	-0.2387	-0.0135	-0.1649	-0.2251	-0.2415	-0.2289	-0.1997	-0.2578	-0.4262	-0.4873	-0.5259	-0.2508	-0.5049	-0.4954	-0.3572	-0.4846	-0.3855	-0.3112	-0.135	-0.0162	-0.1771	-0.1057	-0.1264	-0.181
-105.4688	-0.3137	-0.3423	-0.373	-0.2981	-0.2498	-0.1781	-0.2165	-0.0246	-0.2371	-0.2693	-0.3281	-0.302	-0.1605	-0.2001	-0.3678	-0.4238	-0.4808	-0.2355	-0.4477	-0.416	-0.2694	-0.4497	-0.3698	-0.3211	-0.1743	-0.0712	-0.1873	-0.1792	-0.0683	-0.1455
-101.5625	-0.2491	-0.277	-0.359	-0.2087	-0.1488	-0.0913	-0.1628	-0.0286	-0.2857	-0.2768	-0.3879	-0.3503	-0.1007	-0.1227	-0.2911	-0.3387	-0.4069	-0.2105	-0.3727	-0.3139	-0.1589	-0.4013	-0.3477	-0.3173	-0.21	-0.1284	-0.1736	-0.2312	0.0042	-0.1045
-97.6562	-0.168	-0.2068	-0.3288	-0.1146	-0.0336	0.0078	-0.0778	-0.0231	-0.3046	-0.2399	-0.4128	-0.3632	-0.0147	-0.0233	-0.1981	-0.2324	-0.3035	-0.1729	-0.28	-0.1876	-0.0229	-0.3365	-0.3162	-0.2912	-0.2374	-0.1839	-0.1336	-0.2561	0.0883	-0.0576
-93.75	-0.0723	-0.1286	-0.2798	-0.0164	0.0925	0.1125	0.033	-0.0075	-0.2927	-0.1598	-0.4022	-0.3377	0.0975	0.0957	-0.0925	-0.1073	-0.1745	-0.1215	-0.1726	-0.0386	0.1365	-0.2543	-0.2727	-0.2384	-0.2544	-0.236	-0.0715	-0.2547	0.1795	-0.0049
-89.8438	0.0353	-0.0389	-0.2105	0.0867	0.2251	0.2154	0.16	0.0175	-0.2539	-0.0463	-0.3633	-0.2795	0.2293	0.2274	0.0204	0.033	-0.0275	-0.0578	-0.0555	0.1288	0.3124	-0.1565	-0.216	-0.161	-0.262	-0.2853	0.0028	-0.2346	0.2724	0.0528
-85.9375	0.1519	0.0658	-0.1212	0.196	0.3593	0.3101	0.2915	0.05	-0.1968	0.0841	-0.3086	-0.2012	0.3683	0.3612	0.1349	0.1837	0.1265	0.0151	0.065	0.3074	0.4938	-0.0478	-0.1465	-0.0665	-0.2634	-0.3338	0.0752	-0.2074	0.3614	0.1137
-82.0312	0.2741	0.1873	-0.0139	0.3125	0.4897	0.3925	0.4155	0.0873	-0.132	0.2114	-0.2525	-0.119	0.4984	0.4846	0.2449	0.3392	0.2753	0.0932	0.1815	0.4881	0.6671	0.0653	-0.0658	0.0334	-0.2629	-0.3831	0.1308	-0.1857	0.4417	0.1758
-78.125	0.3979	0.3246	0.107	0.4358	0.6102	0.4603	0.5213	0.1265	-0.0704	0.3167	-0.2079	-0.0489	0.6034	0.5854	0.3449	0.4921	0.4068	0.1724	0.2875	0.6601	0.8177	0.1755	0.0227	0.1258	-0.2641	-0.4332	0.1574	-0.1796	0.5095	0.2367
-74.2188	0.5183	0.4722	0.2345	0.5621	0.7142	0.5134	0.6012	0.1647	-0.021	0.3859	-0.1827	-0.0026	0.6703	0.6535	0.4299	0.6342	0.5113	0.2492	0.3773	0.8119	0.933	0.2755	0.1152	0.199	-0.2685	-0.4809	0.1483	-0.1938	0.5627	0.2943
-70.3125	0.6289	0.6208	0.3596	0.6843	0.7953	0.5525	0.651	0.1993	0.0109	0.412	-0.1787	0.0152	0.692	0.6834	0.4962	0.7565	0.583	0.3213	0.4475	0.9326	1.0038	0.3599	0.2072	0.2455	-0.2746	-0.5201	0.1047	-0.227	0.6002	0.3464
-66.4062	0.7227	0.7577	0.4722	0.7926	0.8483	0.579	0.6708	0.2286	0.0245	0.3964	-0.1912	0.0076	0.669	0.675	0.5416	0.8507	0.6204	0.387	0.4969	1.0133	1.0263	0.425	0.2941	0.2634	-0.2785	-0.5426	0.0351	-0.2717	0.622	0.3911
-62.5	0.7933	0.8696	0.5627	0.8766	0.8705	0.5939	0.6648	0.2516	0.0235	0.348	-0.2104	-0.0161	0.6089	0.6338	0.5655	0.9107	0.6264	0.4449	0.5262	1.0491	1.0028	0.4696	0.3716	0.2559	-0.2742	-0.5397	-0.0457	-0.3164	0.6286	0.4265
-58.5938	0.8358	0.9456	0.6243	0.9281	0.8632	0.5983	0.6404	0.2688	0.0146	0.2809	-0.2247	-0.0432	0.5248	0.5703	0.5688	0.9343	0.6073	0.4929	0.5377	1.04	0.9417	0.4943	0.4356	0.2309	-0.2562	-0.5043	-0.1201	-0.3487	0.6207	0.451
-54.6875	0.8488	0.9802	0.6545	0.9437	0.8315	0.5937	0.6065	0.2808	0.0052	0.2101	-0.2243	-0.0614	0.4324	0.4982	0.5543	0.9244	0.5716	0.529	0.5349	0.9924	0.8565	0.5014	0.4823	0.1987	-0.2208	-0.4339	-0.1718	-0.3585	0.599	0.4627
-50.7812	0.8344	0.9747	0.6562	0.9266	0.7842	0.5823	0.5714	0.2888	0.0015	0.1489	-0.2035	-0.0623	0.3466	0.4317	0.5266	0.889	0.5287	0.5507	0.5223	0.9187	0.7637	0.4945	0.5089	0.1693	-0.1676	-0.3316	-0.1887	-0.3408	0.5646	0.461
-46.875	0.7989	0.9377	0.6371	0.8856	0.732	0.5671	0.5412	0.2933	0.0063	0.1049	-0.1632	-0.043	0.2785	0.3831	0.4918	0.8406	0.4872	0.5562	0.5048	0.8352	0.6802	0.4782	0.5135	0.1509	-0.1006	-0.2063	-0.1663	-0.2968	0.5192	0.4463
-42.9688	0.7515	0.8827	0.6078	0.8339	0.6855	0.552	0.5184	0.2945	0.0187	0.0797	-0.1102	-0.0066	0.2334	0.36	0.4571	0.7932	0.4546	0.5454	0.488	0.7597	0.6201	0.4574	0.4959	0.1473	-0.0273	-0.0724	-0.1087	-0.2336	0.4658	0.4205
-39.0625	0.702	0.8251	0.5794	0.7852	0.6528	0.5406	0.5019	0.2917	0.0344	0.0687	-0.0555	0.0396	0.2104	0.3637	0.4295	0.7599	0.4359	0.5198	0.4767	0.708	0.5919	0.4367	0.4578	0.1581	0.042	0.0531	-0.0276	-0.1628	0.4088	0.3874
-35.1562	0.6593	0.7781	0.5599	0.7505	0.6375	0.5354	0.4876	0.2842	0.0478	0.0636	-0.0111	0.0863	0.2028	0.3886	0.4151	0.7493	0.4335	0.4833	0.4747	0.6897	0.5969	0.4196	0.403	0.1783	0.0965	0.1533	0.0603	-0.0974	0.3534	0.3515
-31.25	0.6287	0.7502	0.5529	0.7353	0.6385	0.5372	0.4705	0.2719	0.0536	0.0549	0.0134	0.125	0.2004	0.4234	0.4168	0.7634	0.447	0.4415	0.4834	0.7068	0.6285	0.4076	0.3367	0.2002	0.1264	0.2142	0.1364	-0.0494	0.3049	0.3171
-27.3438	0.6108	0.7425	0.5557	0.7381	0.6502	0.5442	0.446	0.2559	0.0488	0.0352	0.0127	0.1499	0.1926	0.4539	0.4344	0.797	0.4732	0.4007	0.5009	0.7526	0.6739	0.3995	0.2652	0.2147	0.1254	0.2276	0.1843	-0.0266	0.2676	0.287
-23.4375	0.6012	0.7497	0.5608	0.7514	0.6637	0.5518	0.4116	0.2383	0.0339	0.001	-0.0122	0.1592	0.1706	0.4659	0.4634	0.8383	0.5062	0.3664	0.5217	0.8129	0.7165	0.3918	0.1943	0.2138	0.0915	0.192	0.1928	-0.0316	0.2433	0.2617
-19.5312	0.592	0.7608	0.5576	0.7629	0.6687	0.5538	0.3673	0.2216	0.0127	-0.046	-0.0551	0.155	0.1298	0.4483	0.4958	0.8716	0.5377	0.3415	0.5374	0.8685	0.7393	0.3789	0.1285	0.192	0.0276	0.1132	0.158	-0.0614	0.2306	0.2395
-15.625	0.5737	0.7623	0.5349	0.7582	0.655	0.5426	0.3151	0.2085	-0.0087	-0.1002	-0.1055	0.142	0.0701	0.3951	0.5217	0.8802	0.5578	0.3259	0.5379	0.899	0.7278	0.3546	0.0698	0.1472	-0.0596	0.0025	0.0831	-0.1085	0.2252	0.2165
-11.7188	0.5374	0.7406	0.4841	0.7239	0.6139	0.5112	0.2584	0.2004	-0.0231	-0.1531	-0.1513	0.1262	-0.0045	0.3056	0.5304	0.85	0.5561	0.3159	0.5133	0.8864	0.6725	0.313	0.0172	0.0811	-0.1607	-0.1253	-0.0224	-0.1626	0.2203	0.1879
-7.8125	0.4774	0.6851	0.4009	0.6497	0.5401	0.4541	0.2008	0.1975	-0.0248	-0.1961	-0.1811	0.1134	-0.0878	0.184	0.5133	0.7724	0.5236	0.3051	0.4565	0.8189	0.5702	0.25	-0.0325	-0.0016	-0.2653	-0.2545	-0.145	-0.2132	0.2082	0.1491
-3.9062	0.3927	0.591	0.2869	0.5317	0.4323	0.3696	0.1453	0.1986	-0.0103	-0.2229	-0.1867	0.1077	-0.1732	0.0381	0.4658	0.6472	0.4552	0.2864	0.3653	0.6937	0.4245	0.165	-0.0835	-0.0943	-0.3637	-0.3711	-0.2696	-0.2511	0.1821	0.0975
0	0.2886	0.4613	0.1501	0.3739	0.2951	0.2612	0.0938	0.2015	0.0205	-0.2304	-0.1645	0.1106	-0.2546	-0.1218	0.3888	0.4838	0.3517	0.2542	0.2439	0.5188	0.2461	0.0614	-0.1393	-0.1889	-0.4479	-0.4646	-0.3822	-0.2707	0.1383	0.0333
3.9062	0.1768	0.3082	0.0049	0.19	0.1394	0.1392	0.0478	0.2044	0.0651	-0.2197	-0.1159	0.1211	-0.3276	-0.2834	0.29	0.3012	0.2214	0.207	0.1043	0.3136	0.0517	-0.0527	-0.2003	-0.2775	-0.5124	-0.529	-0.4723	-0.2702	0.0782	-0.0394
7.8125	0.0745	0.1523	-0.1286	0.0033	-0.0167	0.0204	0.0092	0.2066	0.119	-0.195	-0.0473	0.1358	-0.3892	-0.4333	0.1835	0.126	0.0802	0.1482	-0.0358	0.1067	-0.1367	-0.1646	-0.2624	-0.3526	-0.5543	-0.5631	-0.5344	-0.2525	0.0087	-0.1122
11.7188	0.0022	0.0208	-0.2269	-0.1558	-0.1502	-0.0727	-0.0199	0.209	0.1762	-0.1626	0.0309	0.1497	-0.4372	-0.5575	0.0875	-0.0109	-0.0507	0.087	-0.1543	-0.0676	-0.2947	-0.2591	-0.3167	-0.4079	-0.5731	-0.5701	-0.5678	-0.2238	-0.0577	-0.1733
15.625	-0.0203	-0.0572	-0.2665	-0.2541	-0.2362	-0.1156	-0.0368	0.2139	0.2307	-0.1299	0.1059	0.1567	-0.4704	-0.643	0.0211	-0.0804	-0.1483	0.0367	-0.2296	-0.175	-0.3987	-0.3201	-0.3511	-0.4391	-0.5702	-0.5559	-0.5769	-0.1935	-0.1054	-0.2098
19.5312	0.0218	-0.0568	-0.228	-0.2626	-0.253	-0.0867	-0.0392	0.2241	0.276	-0.104	0.1638	0.1505	-0.4885	-0.6802	0.0006	-0.0606	-0.1925	0.0119	-0.2444	-0.1883	-0.4308	-0.3348	-0.3525	-0.4439	-0.5476	-0.5283	-0.5689	-0.1717	-0.1189	-0.2096
23.4375	0.1334	0.0373	-0.1011	-0.1629	-0.187	0.0277	-0.0268	0.2421	0.3062	-0.091	0.1925	0.1253	-0.4926	-0.6646	0.0354	0.0578	-0.1705	0.0258	-0.1897	-0.0937	-0.3827	-0.2957	-0.3105	-0.4231	-0.5079	-0.4947	-0.5521	-0.1676	-0.0869	-0.1654
27.3438	0.3084	0.226	0.1123	0.0476	-0.0369	0.2292	-0.0013	0.2687	0.3162	-0.0955	0.1829	0.0769	-0.4849	-0.5986	0.1263	0.2688	-0.0791	0.0868	-0.0666	0.1054	-0.2581	-0.2028	-0.2199	-0.3803	-0.4533	-0.4611	-0.5338	-0.1872	-0.0049	-0.0758
31.25	0.5296	0.495	0.3971	0.3538	0.1858	0.5055	0.0333	0.3025	0.3029	-0.119	0.132	0.004	-0.4686	-0.491	0.2656	0.5524	0.0749	0.1976	0.1145	0.3882	-0.0722	-0.0631	-0.0826	-0.3205	-0.3856	-0.4309	-0.5188	-0.232	0.1229	0.0536
35.1562	0.7731	0.818	0.7277	0.7261	0.4589	0.8324	0.0728	0.341	0.2667	-0.1593	0.0433	-0.0909	-0.4455	-0.3543	0.4396	0.879	0.2778	0.3553	0.337	0.7214	0.1522	0.1113	0.0933	-0.2488	-0.3063	-0.404	-0.5076	-0.2978	0.2847	0.2115
39.0625	1.0141	1.1633	1.0729	1.1272	0.7555	1.179	0.115	0.3813	0.2128	-0.2094	-0.072	-0.2001	-0.4143	-0.2012	0.6335	1.2177	0.5136	0.5529	0.5828	1.0677	0.3914	0.3076	0.2956	-0.1681	-0.2163	-0.3768	-0.4964	-0.3748	0.4637	0.3832
42.9688	1.2329	1.5016	1.4026	1.5203	1.0501	1.5142	0.161	0.4214	0.1515	-0.2577	-0.1967	-0.3119	-0.3696	-0.0398	0.8349	1.5432	0.7686	0.7809	0.8371	1.3949	0.6269	0.5148	0.5108	-0.0773	-0.1169	-0.343	-0.4773	-0.449	0.6414	0.5535
46.875	1.4177	1.8115	1.6928	1.8763	1.3242	1.8121	0.2161	0.4608	0.0964	-0.2898	-0.3103	-0.4113	-0.3024	0.1271	1.0357	1.8401	1.0328	1.0275	1.0897	1.6815	0.849	0.7255	0.7264	0.0277	-0.0095	-0.2952	-0.4401	-0.505	0.8003	0.7082
50.7812	1.564	2.0799	1.9277	2.1758	1.5664	2.0549	0.2869	0.4994	0.0615	-0.2921	-0.3939	-0.4842	-0.2036	0.3007	1.2303	2.101	1.2966	1.2772	1.3329	1.9177	1.0559	0.9341	0.9312	0.1516	0.1036	-0.2269	-0.375	-0.5296	0.9256	0.8355
54.6875	1.67	2.2983	2.0966	2.4061	1.7697	2.2312	0.3771	0.5354	0.0562	-0.257	-0.4346	-0.5202	-0.0696	0.4811	1.4103	2.3205	1.5459	1.5083	1.5568	2.0999	1.2475	1.133	1.1142	0.2963	0.2187	-0.1355	-0.2769	-0.5152	1.0048	0.9253
58.5938	1.7309	2.4558	2.1898	2.5557	1.9254	2.3317	0.4828	0.5638	0.082	-0.1868	-0.4298	-0.5165	0.0929	0.6614	1.56	2.4875	1.7562	1.6919	1.7439	2.224	1.4191	1.3087	1.2627	0.4562	0.3306	-0.0237	-0.1474	-0.462	1.0266	0.9679
62.5	1.7348	2.5343	2.1943	2.6093	2.0184	2.3456	0.5897	0.5748	0.1299	-0.0958	-0.3883	-0.4792	0.2647	0.8243	1.6539	2.5799	1.891	1.7934	1.8672	2.2786	1.556	1.4407	1.3621	0.6178	0.4334	0.1001	0.0035	-0.3787	0.98	0.9542
66.4062	1.6625	2.5079	2.0928	2.5465	2.0263	2.2587	0.6738	0.5554	0.1823	-0.008	-0.3289	-0.4225	0.4159	0.9427	1.6593	2.5658	1.9064	1.7777	1.8934	2.2444	1.6331	1.5037	1.3976	0.7605	0.5212	0.2232	0.1588	-0.2808	0.8551	0.8763
70.3125	1.4918	2.3477	1.8672	2.3453	1.9232	2.0558	0.7061	0.4923	0.2165	0.0475	-0.2758	-0.3652	0.512	0.9848	1.5431	2.4098	1.7607	1.6184	1.7903	2.0972	1.6198	1.4738	1.3577	0.8613	0.5895	0.3313	0.2978	-0.1868	0.6456	0.73
74.2188	1.2058	2.0314	1.506	1.9902	1.6874	1.7261	0.6599	0.3762	0.2108	0.0443	-0.2528	-0.3259	0.5222	0.9226	1.2823	2.0844	1.4268	1.3054	1.537	1.8169	1.4889	1.3356	1.2388	0.9005	0.6364	0.4119	0.4004	-0.1144	0.3527	0.5178
78.125	0.8006	1.5534	1.012	1.4814	1.3111	1.2708	0.5186	0.2056	0.1503	-0.0339	-0.2778	-0.3183	0.428	0.7413	0.8731	1.582	0.9039	0.8528	1.1327	1.3974	1.2262	1.089	1.0488	0.8669	0.6631	0.457	0.4516	-0.0763	-0.0117	0.2508
82.0312	0.2919	0.9331	0.4085	0.8421	0.8075	0.7079	0.2817	-0.0108	0.0312	-0.1882	-0.3581	-0.3475	0.2296	0.446	0.337	0.9238	0.2243	0.3	0.6027	0.8548	0.8383	0.752	0.8075	0.7614	0.6729	0.4652	0.4448	-0.0775	-0.4228	-0.0503
85.9375	-0.2829	0.2182	-0.2588	0.1209	0.2145	0.0751	-0.032	-0.254	-0.137	-0.4026	-0.4886	-0.4084	-0.052	0.0644	-0.2781	0.1631	-0.5471	-0.2917	-0.0021	0.2312	0.3572	0.3604	0.5443	0.5977	0.671	0.4418	0.3832	-0.114	-0.8447	-0.3575
89.8438	-0.8679	-0.5192	-0.926	-0.6113	-0.4083	-0.5727	-0.3863	-0.4972	-0.3332	-0.6461	-0.652	-0.4875	-0.3779	-0.3559	-0.9036	-0.6189	-1.3202	-0.8491	-0.6117	-0.4074	-0.163	-0.0381	0.2934	0.3995	0.6624	0.3975	0.2796	-0.174	-1.2343	-0.639
93.75	-1.3963	-1.1915	-1.5201	-1.2708	-0.9873	-1.1705	-0.7326	-0.7097	-0.5275	-0.8786	-0.8216	-0.565	-0.6973	-0.7546	-1.4605	-1.3239	-1.9942	-1.2999	-1.1477	-0.9797	-0.6526	-0.3916	0.0868	0.1968	0.6507	0.3463	0.1534	-0.2402	-1.5481	-0.8649
97.6562	-1.8008	-1.7092	-1.9707	-1.7735	-1.4467	-1.6527	-1.0184	-0.8621	-0.6874	-1.0579	-0.9663	-0.6201	-0.9572	-1.0693	-1.8721	-1.8522	-2.4747	-1.5861	-1.537	-1.4019	-1.0382	-0.6532	-0.0514	0.0203	0.6374	0.3022	0.0275	-0.2936	-1.7493	-1.0119
101.5625	-2.0241	-1.9949	-2.222	-2.0484	-1.7214	-1.9636	-1.1963	-0.9309	-0.7833	-1.1484	-1.0566	-0.6343	-1.1115	-1.246	-2.0775	-2.1195	-2.689	-1.6747	-1.7235	-1.6017	-1.2552	-0.7891	-0.1096	-0.104	0.6213	0.2769	-0.0759	-0.3171	-1.8139	-1.0675
105.4688	-2.0285	-1.9968	-2.2413	-2.0498	-1.7676	-2.0658	-1.2326	-0.9022	-0.7942	-1.1272	-1.0702	-0.596	-1.1295	-1.2489	-2.0407	-2.0709	-2.5989	-1.5619	-1.6768	-1.5307	-1.2587	-0.7826	-0.0894	-0.1584	0.5993	0.2775	-0.1392	-0.299	-1.7346	-1.0308
109.375	-1.8015	-1.6962	-2.0236	-1.764	-1.5704	-1.946	-1.1133	-0.7743	-0.7114	-0.9884	-0.9965	-0.5023	-1.0007	-1.0662	-1.7557	-1.6904	-2.2053	-1.2717	-1.3962	-1.1735	-1.0315	-0.6352	-0.0034	-0.1358	0.5672	0.305	-0.1523	-0.2352	-1.5214	-0.9115
113.2812	-1.3575	-1.1116	-1.591	-1.2121	-1.1449	-1.6158	-0.8469	-0.5569	-0.5391	-0.7442	-0.8394	-0.3601	-0.7365	-0.7117	-1.2471	-1.0033	-1.547	-0.8503	-0.9093	-0.5505	-0.5867	-0.3647	0.1287	-0.0402	0.5213	0.3553	-0.1138	-0.13	-1.1996	-0.7277
117.1875	-0.7356	-0.2965	-0.9896	-0.4467	-0.5345	-1.1101	-0.4625	-0.2701	-0.2942	-0.4222	-0.616	-0.1846	-0.3677	-0.2228	-0.5651	-0.073	-0.6945	-0.3562	-0.2675	0.2849	0.0342	-0.0015	0.2853	0.1144	0.4597	0.4194	-0.0307	0.0048	-0.8054	-0.5021
121.0938	0.0049	0.6676	-0.2819	0.4549	0.1969	-0.4816	-0.0051	0.0594	-0.0023	-0.0607	-0.3542	0.0026	0.0606	0.3455	0.2212	1.0085	0.2616	0.1487	0.4619	1.2532	0.7674	0.4165	0.4462	0.3068	0.3831	0.4856	0.083	0.152	-0.3806	-0.259
125	0.7928	1.682	0.4602	1.4017	0.9729	0.2059	0.4722	0.4019	0.3056	0.2973	-0.0873	0.1779	0.4964	0.9287	1.0333	2.1322	1.2221	0.6079	1.2042	2.2595	1.536	0.8478	0.5945	0.5108	0.2948	0.5413	0.2092	0.2921	0.033	-0.0215
128.9062	1.5533	2.6436	1.1642	2.2996	1.7155	0.8855	0.9158	0.7287	0.598	0.6111	0.1513	0.3188	0.8883	1.4621	1.7935	3.1875	2.0924	0.9765	1.8864	3.2062	2.2605	1.2518	0.7184	0.6997	0.2001	0.5747	0.3284	0.4059	0.3984	0.1904
132.8125	2.2168	3.458	1.7648	3.0641	2.3545	1.4951	1.2802	1.0151	0.8473	0.8477	0.3336	0.4085	1.1935	1.8898	2.4331	4.075	2.7937	1.225	2.4457	4.0046	2.869	1.593	0.8103	0.8493	0.1056	0.5769	0.4234	0.478	0.6872	0.3614
136.7188	2.7267	4.0516	2.2105	3.6285	2.8351	1.984	1.5332	1.2427	1.0323	0.9864	0.4407	0.4377	1.3828	2.1716	2.9	4.7181	3.2702	1.341	2.836	4.5854	3.3055	1.8433	0.8675	0.9416	0.0184	0.5428	0.4818	0.4986	0.882	0.481
140.625	3.0448	4.3786	2.4689	3.9512	3.1228	2.3177	1.6587	1.4002	1.1407	1.02	0.4649	0.4058	1.4435	2.2864	3.1623	5.0696	3.4938	1.3286	3.0312	4.904	3.5348	1.9848	0.8907	0.9669	-0.0546	0.4728	0.4977	0.4649	0.9763	0.5444
144.5312	3.1532	4.4239	2.5287	4.0173	3.2048	2.4801	1.6571	1.4834	1.1689	0.955	0.4101	0.3203	1.3792	2.2328	3.2094	5.1135	3.463	1.206	3.026	4.9432	3.544	2.0096	0.8832	0.9242	-0.1074	0.3725	0.4715	0.381	0.9743	0.5519
148.4375	3.0542	4.2016	2.3996	3.8374	3.0886	2.473	1.5418	1.4943	1.1218	0.8081	0.2889	0.1944	1.2067	2.0259	3.0505	4.8625	3.1999	1.0013	2.8334	4.711	3.3408	1.9199	0.8497	0.8202	-0.1356	0.2514	0.4085	0.2565	0.8889	0.5083
152.3438	2.7677	3.7495	2.1096	3.4433	2.7976	2.3135	1.3355	1.44	1.0107	0.6026	0.12	0.0443	0.951	1.6929	2.7106	4.3525	2.7431	0.7475	2.4806	4.2369	2.9502	1.7255	0.7945	0.6671	-0.1374	0.1213	0.3166	0.1046	0.739	0.4221
156.25	2.3267	3.1207	1.6992	2.8814	2.3663	2.0292	1.0645	1.3305	0.8507	0.3631	-0.0763	-0.1145	0.6407	1.2678	2.2261	3.6362	2.1411	0.4768	2.0037	3.5661	2.409	1.443	0.7212	0.4797	-0.1135	-0.0061	0.2037	-0.0609	0.5463	0.3045
160.1562	1.7728	2.3758	1.2154	2.2055	1.8347	1.6541	0.7544	1.1779	0.6582	0.1118	-0.2823	-0.2694	0.303	0.7863	1.6394	2.7748	1.4454	0.2159	1.4423	2.7536	1.7619	1.0927	0.6316	0.2727	-0.0682	-0.1223	0.0759	-0.2277	0.3319	0.1673
164.0625	1.151	1.5747	0.704	1.4695	1.2434	1.2226	0.4269	0.9945	0.4489	-0.1347	-0.4849	-0.4129	-0.0394	0.2825	0.9938	1.8318	0.7038	-0.0179	0.8346	1.8585	1.0561	0.6973	0.5259	0.0589	-0.0084	-0.2225	-0.063	-0.3866	0.1144	0.0224
167.9688	0.5051	0.7705	0.2042	0.7222	0.6294	0.7663	0.0987	0.7931	0.2357	-0.3665	-0.6769	-0.5426	-0.3692	-0.2144	0.3296	0.867	-0.0427	-0.2182	0.2142	0.9384	0.3374	0.2792	0.4027	-0.1517	0.0565	-0.3069	-0.2112	-0.5324	-0.0927	-0.1203
171.875	-0.1252	0.0057	-0.2549	0.0031	0.0243	0.3113	-0.2187	0.5857	0.0285	-0.5798	-0.8561	-0.6603	-0.6759	-0.6812	-0.3188	-0.0681	-0.7621	-0.3893	-0.3922	0.0448	-0.3536	-0.1413	0.2602	-0.3528	0.1163	-0.3792	-0.368	-0.664	-0.2805	-0.2531
175.7812	-0.7078	-0.6897	-0.6563	-0.6595	-0.5471	-0.1232	-0.5173	0.3841	-0.1652	-0.7749	-1.0237	-0.7706	-0.9541	-1.1022	-0.9245	-0.9328	-1.4315	-0.543	-0.9646	-0.7807	-0.9849	-0.5472	0.0967	-0.5414	0.1614	-0.4457	-0.5325	-0.783	-0.4442	-0.3708
179.6875	-1.2186	-1.2978	-0.9939	-1.2476	-1.0669	-0.5234	-0.7915	0.1989	-0.3399	-0.9541	-1.1817	-0.8778	-1.2035	-1.4695	-1.4683	-1.6986	-2.0352	-0.6938	-1.489	-1.5086	-1.5353	-0.9261	-0.0877	-0.7172	0.1842	-0.5126	-0.7031	-0.8923	-0.5815	-0.4708
183.5938	-1.6423	-1.8103	-1.2693	-1.752	-1.5226	-0.8805	-1.0365	0.0393	-0.4911	-1.12	-1.3315	-0.9846	-1.4266	-1.7823	-1.9377	-2.3481	-2.5619	-0.8538	-1.9556	-2.1219	-1.9949	-1.2693	-0.2896	-0.8816	0.1803	-0.5852	-0.8772	-0.9952	-0.6905	-0.5516
187.5	-1.9714	-2.2255	-1.4884	-2.1695	-1.9069	-1.1882	-1.2483	-0.0875	-0.6143	-1.2736	-1.4721	-1.0902	-1.6277	-2.0454	-2.3249	-2.8728	-3.0022	-1.0276	-2.356	-2.6148	-2.3636	-1.5712	-0.5013	-1.0366	0.1496	-0.6654	-1.0509	-1.093	-0.7696	-0.6126
191.4062	-2.2051	-2.5446	-1.6575	-2.4998	-2.2154	-1.4422	-1.4231	-0.1773	-0.706	-1.4139	-1.5999	-1.1906	-1.8109	-2.2667	-2.6254	-3.2708	-3.3466	-1.2102	-2.6817	-2.9891	-2.6477	-1.8275	-0.7109	-1.1829	0.0956	-0.7519	-1.2195	-1.1854	-0.8162	-0.653
195.3125	-2.347	-2.7693	-1.781	-2.7432	-2.4463	-1.6391	-1.5583	-0.2292	-0.7634	-1.5379	-1.709	-1.2791	-1.9778	-2.4531	-2.8364	-3.5431	-3.5855	-1.3869	-2.9234	-3.2498	-2.8551	-2.0334	-0.9027	-1.3189	0.0258	-0.8392	-1.3774	-1.2692	-0.8283	-0.6715
199.2188	-2.4034	-2.8999	-1.8602	-2.899	-2.5991	-1.7768	-1.652	-0.2452	-0.7854	-1.6408	-1.7912	-1.3471	-2.1265	-2.6079	-2.9561	-3.6917	-3.7101	-1.5366	-3.0715	-3.4016	-2.9914	-2.1826	-1.0593	-1.4393	-0.0499	-0.9191	-1.5179	-1.339	-0.805	-0.6666
203.125	-2.3816	-2.9357	-1.8939	-2.9655	-2.6746	-1.8547	-1.7033	-0.2301	-0.7733	-1.7168	-1.8376	-1.3859	-2.2504	-2.7281	-2.9841	-3.7184	-3.7153	-1.6373	-3.1179	-3.4461	-3.0571	-2.2679	-1.1648	-1.5362	-0.1205	-0.981	-1.6338	-1.3882	-0.7474	-0.6369
207.0312	-2.2889	-2.8763	-1.8796	-2.9413	-2.6748	-1.8741	-1.7117	-0.1904	-0.7307	-1.7596	-1.8392	-1.3885	-2.3391	-2.8046	-2.9226	-3.6255	-3.6021	-1.6723	-3.059	-3.3819	-3.0473	-2.2825	-1.2079	-1.5995	-0.1754	-1.0145	-1.7179	-1.4093	-0.6596	-0.5822
210.9375	-2.1328	-2.7233	-1.8162	-2.8269	-2.6033	-1.8386	-1.6775	-0.1337	-0.6632	-1.7636	-1.7894	-1.3503	-2.38	-2.8244	-2.7773	-3.4175	-3.3801	-1.635	-2.8978	-3.2068	-2.9546	-2.2228	-1.1842	-1.6193	-0.2064	-1.0113	-1.7639	-1.3964	-0.5482	-0.5042
214.8438	-1.9207	-2.483	-1.7048	-2.627	-2.4657	-1.7541	-1.6015	-0.067	-0.5773	-1.7251	-1.6852	-1.2702	-2.3612	-2.7738	-2.5588	-3.1037	-3.0684	-1.5313	-2.6459	-2.9216	-2.7727	-2.0903	-1.0981	-1.5883	-0.2093	-0.9667	-1.7677	-1.3459	-0.4216	-0.4068
218.75	-1.6615	-2.1675	-1.5503	-2.3521	-2.2697	-1.6284	-1.486	0.0031	-0.4798	-1.6425	-1.5287	-1.1516	-2.2746	-2.6436	-2.2823	-2.6999	-2.6939	-1.3791	-2.3233	-2.5346	-2.5016	-1.8934	-0.9621	-1.5035	-0.1849	-0.8813	-1.7283	-1.2586	-0.2893	-0.2963
222.6562	-1.3656	-1.7953	-1.3619	-2.0186	-2.0257	-1.4711	-1.3351	0.0714	-0.3766	-1.5182	-1.3282	-1.0016	-2.1183	-2.4322	-1.9669	-2.2294	-2.2887	-1.2039	-1.9564	-2.0637	-2.1503	-1.6472	-0.7953	-1.3682	-0.1393	-0.7615	-1.6494	-1.1399	-0.1601	-0.1805
226.5625	-1.0455	-1.39	-1.1516	-1.6481	-1.7462	-1.2929	-1.1557	0.134	-0.2726	-1.3581	-1.0973	-0.8312	-1.8987	-2.1477	-1.6341	-1.7214	-1.8852	-1.0325	-1.5752	-1.5371	-1.7383	-1.3716	-0.6198	-1.1917	-0.0827	-0.6187	-1.5383	-0.9996	-0.0414	-0.0676
230.4688	-0.7155	-0.978	-0.9338	-1.2653	-1.4464	-1.1049	-0.9574	0.1883	-0.1719	-1.172	-0.8537	-0.6538	-1.6294	-1.8083	-1.3046	-1.2089	-1.5115	-0.8875	-1.2082	-0.9911	-1.2938	-1.0892	-0.4569	-0.9888	-0.0278	-0.468	-1.4061	-0.8507	0.0616	0.0349
234.375	-0.3914	-0.5861	-0.7228	-0.8955	-1.1425	-0.9182	-0.7514	0.2327	-0.0778	-0.9728	-0.6166	-0.4842	-1.3307	-1.4399	-0.9968	-0.7245	-1.1879	-0.7822	-0.8794	-0.4651	-0.8502	-0.8215	-0.3236	-0.7775	0.0132	-0.3254	-1.2653	-0.7073	0.1466	0.1215
238.2812	-0.0897	-0.2384	-0.5315	-0.562	-0.8511	-0.7424	-0.55	0.2665	0.0064	-0.775	-0.4048	-0.3364	-1.0264	-1.0723	-0.7253	-0.2979	-0.9256	-0.7192	-0.6057	0.0027	-0.4412	-0.5866	-0.2298	-0.5764	0.0307	-0.2053	-1.1287	-0.5823	0.2135	0.1886
242.1875	0.1738	0.0458	-0.3698	-0.2836	-0.5878	-0.5854	-0.3644	0.2898	0.0777	-0.5931	-0.2337	-0.2225	-0.7406	-0.7356	-0.4997	0.0474	-0.7279	-0.6915	-0.3959	0.3808	-0.096	-0.3976	-0.178	-0.4027	0.0195	-0.1189	-1.0076	-0.4857	0.2646	0.2354
246.0938	0.3852	0.2535	-0.2437	-0.0735	-0.3655	-0.4526	-0.2041	0.3034	0.1333	-0.4397	-0.1143	-0.1506	-0.4945	-0.4556	-0.3257	0.2953	-0.592	-0.6863	-0.2523	0.6472	0.1639	-0.262	-0.1638	-0.2691	-0.02	-0.0723	-0.9107	-0.4232	0.3031	0.2628
250	0.5337	0.379	-0.1553	0.0622	-0.1933	-0.3461	-0.0753	0.3087	0.1708	-0.3239	-0.0516	-0.1241	-0.3038	-0.2513	-0.2058	0.4377	-0.5129	-0.6901	-0.1719	0.7915	0.327	-0.1819	-0.1779	-0.1835	-0.0825	-0.0668	-0.8435	-0.3961	0.3322	0.2728
253.9062	0.6135	0.4241	-0.1022	0.124	-0.0755	-0.2652	0.0193	0.3075	0.1888	-0.2504	-0.0451	-0.1417	-0.177	-0.1319	-0.1393	0.4749	-0.4851	-0.6917	-0.149	0.8147	0.392	-0.1547	-0.2084	-0.1478	-0.1589	-0.0991	-0.8079	-0.4018	0.3544	0.2684
257.8125	0.6249	0.3974	-0.0787	0.1193	-0.0116	-0.2063	0.0802	0.3023	0.1873	-0.2195	-0.089	-0.1972	-0.1144	-0.0967	-0.1237	0.4145	-0.5037	-0.685	-0.176	0.7287	0.3672	-0.1741	-0.2436	-0.1585	-0.238	-0.1622	-0.8022	-0.4343	0.3709	0.2527
261.7188	0.5741	0.3135	-0.0772	0.0604	0.0041	-0.164	0.1103	0.2963	0.1679	-0.2267	-0.174	-0.2809	-0.1091	-0.135	-0.1538	0.2712	-0.5638	-0.6694	-0.2439	0.5542	0.2684	-0.231	-0.2735	-0.2076	-0.309	-0.2468	-0.8221	-0.486	0.3828	0.2289
265.625	0.4734	0.1904	-0.0889	-0.0363	-0.019	-0.1324	0.1144	0.2929	0.1335	-0.264	-0.2882	-0.381	-0.1487	-0.2288	-0.222	0.0654	-0.6595	-0.6477	-0.343	0.3176	0.1162	-0.3141	-0.2915	-0.2844	-0.3631	-0.3426	-0.861	-0.549	0.3905	0.2009
269.5312	0.3392	0.0475	-0.1057	-0.1535	-0.0688	-0.1058	0.0977	0.2955	0.088	-0.3217	-0.4182	-0.4854	-0.2177	-0.356	-0.3185	-0.1796	-0.7827	-0.6253	-0.4626	0.0474	-0.067	-0.412	-0.295	-0.377	-0.3951	-0.4391	-0.9114	-0.6164	0.3952	0.1727
273.4375	0.1898	-0.0973	-0.1211	-0.2746	-0.133	-0.0804	0.0651	0.3071	0.0359	-0.3894	-0.5516	-0.5837	-0.3004	-0.4942	-0.4322	-0.4395	-0.9236	-0.6078	-0.5924	-0.2295	-0.2601	-0.5135	-0.2851	-0.4739	-0.4037	-0.5276	-0.9658	-0.6831	0.3986	0.1486
277.3438	0.0424	-0.2296	-0.1305	-0.3864	-0.2007	-0.0541	0.0208	0.3296	-0.0187	-0.458	-0.6773	-0.6685	-0.3836	-0.6245	-0.5515	-0.6927	-1.0706	-0.5998	-0.7228	-0.4908	-0.4464	-0.6097	-0.2667	-0.5659	-0.391	-0.6008	-1.0178	-0.7462	0.4025	0.1322
281.25	-0.0887	-0.3399	-0.1317	-0.4801	-0.2639	-0.0269	-0.032	0.3636	-0.0717	-0.5208	-0.7873	-0.7364	-0.4579	-0.7348	-0.6665	-0.9219	-1.2128	-0.6048	-0.8464	-0.7214	-0.6145	-0.6945	-0.2466	-0.6466	-0.362	-0.6549	-1.0625	-0.8049	0.4085	0.1259
285.1562	-0.1943	-0.4238	-0.1248	-0.552	-0.3187	-0.0006	-0.0905	0.4083	-0.1198	-0.5743	-0.8772	-0.7881	-0.5193	-0.8203	-0.7693	-1.1157	-1.3406	-0.6245	-0.9587	-0.914	-0.7597	-0.7654	-0.2325	-0.7133	-0.3228	-0.6888	-1.0974	-0.8597	0.4176	0.1297
289.0625	-0.2705	-0.4811	-0.1114	-0.6024	-0.3646	0.0227	-0.1518	0.461	-0.1597	-0.6175	-0.9461	-0.8275	-0.5679	-0.8833	-0.8551	-1.2681	-1.4471	-0.6592	-1.0575	-1.0673	-0.8822	-0.8228	-0.2312	-0.7656	-0.28	-0.7043	-1.1219	-0.9122	0.4289	0.1415
292.9688	-0.3179	-0.5139	-0.094	-0.6343	-0.4033	0.0415	-0.2133	0.5183	-0.1887	-0.6518	-0.9965	-0.8602	-0.6069	-0.9305	-0.9219	-1.3774	-1.5285	-0.708	-1.1424	-1.1843	-0.9846	-0.869	-0.2468	-0.8051	-0.2386	-0.7051	-1.1365	-0.9634	0.4408	0.1575
296.875	-0.3398	-0.5252	-0.0749	-0.6506	-0.4366	0.0558	-0.2717	0.5759	-0.2049	-0.6794	-1.0324	-0.8923	-0.6404	-0.9698	-0.9694	-1.4445	-1.5832	-0.7686	-1.2133	-1.2683	-1.0701	-0.9068	-0.2801	-0.8335	-0.2023	-0.696	-1.1428	-1.0135	0.4509	0.173
300.7812	-0.3403	-0.5169	-0.0552	-0.6529	-0.4651	0.0677	-0.3239	0.6295	-0.2074	-0.7023	-1.0589	-0.9282	-0.6717	-1.0072	-0.9987	-1.4709	-1.6111	-0.8373	-1.2698	-1.3214	-1.1394	-0.9379	-0.3279	-0.8523	-0.1725	-0.681	-1.1419	-1.0612	0.4575	0.184
304.6875	-0.323	-0.49	-0.0346	-0.6408	-0.4868	0.0815	-0.3664	0.676	-0.1969	-0.7218	-1.0801	-0.9703	-0.7026	-1.0451	-1.0107	-1.4589	-1.6139	-0.9097	-1.3104	-1.3437	-1.1911	-0.9627	-0.3843	-0.8623	-0.149	-0.6639	-1.1356	-1.1039	0.4602	0.1885
308.5938	-0.2901	-0.4444	-0.0112	-0.6122	-0.4976	0.1022	-0.3964	0.7129	-0.1757	-0.7379	-1.099	-1.0177	-0.7329	-1.0819	-1.0064	-1.4111	-1.5936	-0.9806	-1.3332	-1.3338	-1.2223	-0.9803	-0.442	-0.8642	-0.131	-0.6473	-1.1257	-1.1385	0.4605	0.1868
312.5	-0.2427	-0.3797	0.0175	-0.5645	-0.4923	0.1349	-0.412	0.7393	-0.1474	-0.7495	-1.117	-1.0674	-0.7617	-1.1133	-0.9867	-1.331	-1.5536	-1.0445	-1.3366	-1.2909	-1.23	-0.99	-0.4943	-0.8598	-0.1181	-0.6333	-1.1148	-1.1623	0.4619	0.1813
316.4062	-0.1817	-0.2967	0.054	-0.496	-0.4662	0.1829	-0.4123	0.7553	-0.1166	-0.7549	-1.1338	-1.1144	-0.7879	-1.1341	-0.9526	-1.2237	-1.4977	-1.0965	-1.3204	-1.2161	-1.2133	-0.9915	-0.5369	-0.8519	-0.1107	-0.6238	-1.1063	-1.1738	0.4686	0.1752
320.3125	-0.1085	-0.1968	0.0996	-0.4068	-0.4166	0.2466	-0.3982	0.7617	-0.0876	-0.7526	-1.1482	-1.1531	-0.811	-1.1405	-0.9053	-1.0958	-1.4297	-1.1321	-1.286	-1.1134	-1.1737	-0.9858	-0.5686	-0.8451	-0.1109	-0.6209	-1.1034	-1.1733	0.484	0.1718
324.2188	-0.0247	-0.0827	0.1547	-0.299	-0.3436	0.3238	-0.3721	0.7593	-0.0643	-0.7413	-1.1589	-1.1784	-0.8312	-1.131	-0.8463	-0.9541	-1.353	-1.1479	-1.2357	-0.989	-1.1155	-0.9747	-0.591	-0.8445	-0.1214	-0.6261	-1.1083	-1.1626	0.5103	0.1735
328.125	0.0675	0.0427	0.2183	-0.1765	-0.2501	0.4092	-0.3375	0.7493	-0.0485	-0.7205	-1.1643	-1.1865	-0.8486	-1.1071	-0.7771	-0.8053	-1.2693	-1.1411	-1.1721	-0.8499	-1.0442	-0.9599	-0.6073	-0.854	-0.1451	-0.6401	-1.1215	-1.1446	0.5471	0.1809
332.0312	0.1659	0.1766	0.2894	-0.0439	-0.1411	0.4963	-0.2987	0.7327	-0.0406	-0.6901	-1.1632	-1.1755	-0.8626	-1.0717	-0.6992	-0.6541	-1.1783	-1.1092	-1.0971	-0.702	-0.9646	-0.9419	-0.6203	-0.8756	-0.1833	-0.6623	-1.1408	-1.1226	0.5923	0.1937
335.9375	0.2681	0.3162	0.3666	0.0938	-0.0229	0.5785	-0.2591	0.7111	-0.0387	-0.6506	-1.1548	-1.1456	-0.8712	-1.0286	-0.6137	-0.5036	-1.078	-1.0504	-1.0113	-0.5492	-0.8798	-0.9195	-0.6311	-0.9075	-0.2354	-0.6897	-1.162	-1.0993	0.6428	0.2109
339.8438	0.3712	0.4578	0.4484	0.2319	0.0976	0.6498	-0.2213	0.6867	-0.0392	-0.6028	-1.1383	-1.099	-0.8719	-0.9813	-0.5221	-0.3564	-0.9662	-0.9641	-0.9149	-0.3941	-0.7912	-0.8907	-0.6384	-0.9453	-0.2979	-0.7183	-1.1794	-1.0764	0.6951	0.2312
343.75	0.4706	0.5954	0.5322	0.3647	0.2125	0.7056	-0.1872	0.6619	-0.0379	-0.5482	-1.1133	-1.0392	-0.8621	-0.9328	-0.4274	-0.2158	-0.8422	-0.852	-0.8093	-0.2398	-0.6996	-0.8539	-0.6394	-0.9825	-0.3649	-0.743	-1.1875	-1.0542	0.7459	0.2532
347.6562	0.5591	0.7193	0.6135	0.4845	0.313	0.7418	-0.1583	0.6386	-0.0312	-0.489	-1.08	-0.9708	-0.8411	-0.8862	-0.3351	-0.0889	-0.7099	-0.7192	-0.6991	-0.0923	-0.6079	-0.8098	-0.6315	-1.0131	-0.4295	-0.7595	-1.1824	-1.0324	0.7921	0.2751
351.5625	0.6265	0.8163	0.6857	0.5809	0.3889	0.7552	-0.1368	0.6177	-0.0169	-0.4284	-1.0393	-0.8989	-0.8113	-0.846	-0.2536	0.0132	-0.5787	-0.5756	-0.5934	0.0371	-0.523	-0.7632	-0.6148	-1.0331	-0.4854	-0.7651	-1.1637	-1.0104	0.8303	0.2941
355.4688	0.6615	0.871	0.7404	0.6415	0.4297	0.7426	-0.1259	0.598	0.0049	-0.3709	-0.993	-0.8289	-0.7783	-0.8185	-0.1937	0.076	-0.4636	-0.4352	-0.506	0.1321	-0.4563	-0.723	-0.5927	-1.0426	-0.5283	-0.7599	-1.1349	-0.9885	0.8573	0.307
359.375	0.6536	0.869	0.769	0.6538	0.4263	0.702	-0.1297	0.5769	0.0313	-0.3218	-0.9438	-0.7662	-0.7511	-0.8117	-0.167	0.0842	-0.3829	-0.3143	-0.4531	0.1743	-0.4227	-0.7012	-0.573	-1.0455	-0.5571	-0.7467	-1.1029	-0.9681	0.8701	0.3103
363.2812	0.5963	0.8008	0.7649	0.608	0.3729	0.6332	-0.1521	0.5511	0.0581	-0.2861	-0.895	-0.7159	-0.7396	-0.834	-0.1828	0.0262	-0.3538	-0.229	-0.45	0.1473	-0.4371	-0.71	-0.5659	-1.0493	-0.5737	-0.7305	-1.0776	-0.9523	0.8663	0.301
367.1875	0.4899	0.6652	0.725	0.5007	0.2691	0.5386	-0.1961	0.5172	0.0798	-0.2687	-0.8501	-0.6818	-0.753	-0.8918	-0.2456	-0.1019	-0.3878	-0.1914	-0.5067	0.0422	-0.5106	-0.7584	-0.5817	-1.063	-0.5829	-0.7177	-1.0687	-0.9445	0.8457	0.2778
371.0938	0.3421	0.4707	0.6509	0.3364	0.1208	0.4236	-0.2624	0.4732	0.0911	-0.2729	-0.8131	-0.6672	-0.7969	-0.9872	-0.3535	-0.2939	-0.4874	-0.2067	-0.6248	-0.1385	-0.6462	-0.8496	-0.6275	-1.0943	-0.5903	-0.7143	-1.0842	-0.9484	0.8103	0.2415
375	0.1678	0.2351	0.5488	0.1286	-0.0601	0.2965	-0.3488	0.4191	0.0877	-0.3	-0.7882	-0.6734	-0.8716	-1.1168	-0.4973	-0.5333	-0.6441	-0.2717	-0.795	-0.3792	-0.8366	-0.9783	-0.7049	-1.1478	-0.6007	-0.7246	-1.1281	-0.9663	0.7651	0.196
378.9062	-0.0131	-0.0174	0.4292	-0.1021	-0.2571	0.1677	-0.4503	0.357	0.0668	-0.349	-0.7793	-0.7002	-0.9718	-1.2704	-0.6617	-0.7951	-0.839	-0.3741	-0.9979	-0.6529	-1.0641	-1.1315	-0.8079	-1.2232	-0.617	-0.75	-1.1988	-0.9981	0.7177	0.1479
382.8125	-0.1785	-0.2599	0.3051	-0.3306	-0.451	0.0485	-0.5594	0.2911	0.0277	-0.4164	-0.7889	-0.7454	-1.0867	-1.4328	-0.8266	-1.0494	-1.0455	-0.495	-1.2062	-0.9248	-1.3024	-1.2894	-0.9241	-1.3149	-0.6392	-0.7886	-1.2893	-1.0415	0.6774	0.1058
386.7188	-0.3077	-0.4661	0.1915	-0.5306	-0.6231	-0.0507	-0.6671	0.2269	-0.0276	-0.4956	-0.8169	-0.8044	-1.2018	-1.5851	-0.9703	-1.2655	-1.2326	-0.6115	-1.3884	-1.1583	-1.5206	-1.4289	-1.0357	-1.4128	-0.6646	-0.8356	-1.3884	-1.0917	0.6545	0.0795
390.625	-0.3837	-0.6141	0.1034	-0.6787	-0.7568	-0.1205	-0.7636	0.1706	-0.0949	-0.5778	-0.8599	-0.8704	-1.3017	-1.7081	-1.0717	-1.4156	-1.3697	-0.7007	-1.5143	-1.3199	-1.6883	-1.5273	-1.1233	-1.5044	-0.6891	-0.8849	-1.4824	-1.1422	0.658	0.0784
394.5312	-0.3949	-0.6879	0.0544	-0.7566	-0.8393	-0.1542	-0.8396	0.1279	-0.1672	-0.6523	-0.9111	-0.9353	-1.3716	-1.7848	-1.1134	-1.4783	-1.431	-0.7436	-1.5597	-1.385	-1.7802	-1.5658	-1.1695	-1.5764	-0.7082	-0.93	-1.5577	-1.186	0.6943	0.1092
398.4375	-0.3369	-0.6787	0.055	-0.7543	-0.8631	-0.1478	-0.887	0.1033	-0.236	-0.7078	-0.9615	-0.9901	-1.4004	-1.8036	-1.0841	-1.441	-1.399	-0.7284	-1.5105	-1.3411	-1.7804	-1.5331	-1.1616	-1.6169	-0.7187	-0.9661	-1.6032	-1.2172	0.7657	0.1751
402.3438	-0.2121	-0.5855	0.1101	-0.6702	-0.8267	-0.1012	-0.9006	0.0994	-0.2924	-0.7346	-1.0017	-1.0271	-1.3819	-1.7596	-0.9805	-1.3015	-1.2678	-0.6526	-1.365	-1.1892	-1.6848	-1.4265	-1.0948	-1.6178	-0.719	-0.9903	-1.6119	-1.2311	0.8689	0.2741
406.25	-0.0299	-0.415	0.2181	-0.5123	-0.7345	-0.0179	-0.8784	0.1159	-0.3291	-0.7263	-1.024	-1.0407	-1.3158	-1.656	-0.8084	-1.068	-1.0446	-0.5233	-1.1346	-0.9431	-1.5017	-1.2527	-0.9719	-1.5751	-0.709	-1.0017	-1.5813	-1.2257	0.9952	0.3991
410.1562	0.1943	-0.181	0.3698	-0.2965	-0.5964	0.0942	-0.823	0.15	-0.3414	-0.6817	-1.024	-1.029	-1.2082	-1.5036	-0.5827	-0.7593	-0.7482	-0.3556	-0.8417	-0.6269	-1.2504	-1.0264	-0.8036	-1.4903	-0.69	-1.0008	-1.5139	-1.2015	1.1306	0.5382
414.0625	0.4406	0.0966	0.5496	-0.0449	-0.4269	0.2238	-0.7411	0.1962	-0.3289	-0.6055	-1.0023	-0.9946	-1.0703	-1.3187	-0.3254	-0.402	-0.4069	-0.1699	-0.5161	-0.2718	-0.9584	-0.7683	-0.6061	-1.37	-0.6635	-0.9883	-1.4158	-1.1617	1.2588	0.6767
417.9688	0.687	0.3941	0.7375	0.2169	-0.2432	0.3573	-0.6432	0.2471	-0.2955	-0.5077	-0.9635	-0.9436	-0.9167	-1.1208	-0.0623	-0.0274	-0.0541	0.0122	-0.19	0.0892	-0.6567	-0.5017	-0.3987	-1.2254	-0.6306	-0.9651	-1.2953	-1.1113	1.3629	0.7997
421.875	0.9116	0.6861	0.9119	0.4631	-0.0623	0.4813	-0.5413	0.2948	-0.249	-0.402	-0.9154	-0.885	-0.7627	-0.9288	0.1804	0.3324	0.2772	0.1711	0.107	0.425	-0.3745	-0.2494	-0.2003	-1.0701	-0.5914	-0.9314	-1.1613	-1.0561	1.4296	0.8944
425.7812	1.0963	0.9488	1.0528	0.6717	0.1004	0.5842	-0.4474	0.332	-0.1994	-0.3031	-0.8674	-0.8289	-0.6215	-0.7581	0.3803	0.649	0.5591	0.2927	0.3521	0.7109	-0.1347	-0.0304	-0.0264	-0.9177	-0.5453	-0.8873	-1.0219	-1.0023	1.4511	0.9526
429.6875	1.2283	1.1624	1.1449	0.8267	0.2338	0.6585	-0.3713	0.353	-0.1575	-0.224	-0.8285	-0.7843	-0.5028	-0.6184	0.5225	0.9013	0.7727	0.3696	0.5325	0.9313	0.0493	0.1427	0.1123	-0.7805	-0.4916	-0.8339	-0.8837	-0.9551	1.4264	0.972
433.5938	1.302	1.3138	1.1792	0.9205	0.3317	0.7009	-0.3195	0.3548	-0.1323	-0.1741	-0.8062	-0.7581	-0.4111	-0.5131	0.6005	1.0779	0.9092	0.4012	0.6448	1.0807	0.1747	0.2646	0.211	-0.6672	-0.4304	-0.7736	-0.7517	-0.9189	1.3615	0.9561
437.5	1.3192	1.398	1.1548	0.9544	0.3932	0.713	-0.2949	0.3368	-0.1304	-0.1582	-0.8056	-0.7539	-0.3468	-0.44	0.6167	1.1775	0.9704	0.3926	0.6946	1.1632	0.2481	0.3363	0.2703	-0.5827	-0.3638	-0.7105	-0.6302	-0.8963	1.2673	0.9131
441.4062	1.2883	1.4184	1.0781	0.9372	0.4221	0.6996	-0.2965	0.301	-0.1539	-0.1762	-0.8293	-0.7719	-0.3073	-0.3931	0.581	1.2084	0.9665	0.3523	0.6934	1.1902	0.2823	0.3643	0.2943	-0.5286	-0.2962	-0.6499	-0.5226	-0.8888	1.1577	0.8534
445.3125	1.2225	1.3859	0.9621	0.8834	0.4251	0.6679	-0.321	0.2516	-0.2012	-0.2238	-0.8773	-0.8093	-0.2882	-0.3655	0.5081	1.1858	0.9136	0.2908	0.6554	1.1774	0.2917	0.3579	0.2895	-0.5038	-0.2341	-0.598	-0.4328	-0.8961	1.0464	0.7878
449.2188	1.1369	1.3161	0.8237	0.81	0.4107	0.626	-0.3634	0.1943	-0.2666	-0.2935	-0.9471	-0.8612	-0.2856	-0.3508	0.4154	1.1289	0.8304	0.2182	0.5949	1.141	0.2888	0.3267	0.2628	-0.5061	-0.1848	-0.5605	-0.3648	-0.9166	0.9453	0.725
453.125	1.0462	1.2267	0.6804	0.7329	0.3868	0.5809	-0.4181	0.1353	-0.3423	-0.3765	-1.0341	-0.9214	-0.2965	-0.3457	0.3192	1.0566	0.7352	0.143	0.5239	1.0942	0.281	0.2795	0.2199	-0.5321	-0.1552	-0.5421	-0.3222	-0.9476	0.8626	0.6707
457.0312	0.9617	1.1333	0.5472	0.6645	0.3594	0.5381	-0.4797	0.0812	-0.4198	-0.4634	-1.1322	-0.9836	-0.3195	-0.3497	0.2329	0.9847	0.6429	0.0709	0.4507	1.0454	0.2695	0.2224	0.165	-0.5782	-0.15	-0.5451	-0.3071	-0.9856	0.8024	0.627
460.9375	0.8899	1.0475	0.4346	0.6115	0.3318	0.5002	-0.5437	0.037	-0.4917	-0.5459	-1.2337	-1.0421	-0.3542	-0.3648	0.1648	0.9234	0.5639	0.0049	0.3803	0.9974	0.2505	0.1592	0.1005	-0.6399	-0.1703	-0.5696	-0.319	-1.0268	0.7645	0.593
464.8438	0.8329	0.9751	0.3477	0.5748	0.3049	0.4677	-0.606	0.0063	-0.5527	-0.6173	-1.3307	-1.0922	-0.4002	-0.3936	0.1185	0.877	0.5032	-0.0546	0.315	0.9483	0.2179	0.092	0.0281	-0.7115	-0.213	-0.6127	-0.3535	-1.0673	0.7455	0.566
468.75	0.7894	0.9175	0.287	0.5516	0.2784	0.4393	-0.663	-0.0096	-0.6002	-0.6725	-1.4155	-1.1308	-0.4558	-0.438	0.0928	0.8447	0.4614	-0.1085	0.256	0.8941	0.1669	0.0228	-0.0503	-0.7856	-0.2706	-0.669	-0.4023	-1.1033	0.7402	0.5431
472.6562	0.7571	0.8729	0.2504	0.5369	0.2516	0.4136	-0.7107	-0.0115	-0.6338	-0.7084	-1.4817	-1.156	-0.5173	-0.4965	0.0839	0.8228	0.4362	-0.1581	0.2048	0.8316	0.0963	-0.0452	-0.1307	-0.8535	-0.3332	-0.731	-0.4539	-1.1315	0.7428	0.5222
476.5625	0.7345	0.8388	0.2347	0.5269	0.2259	0.3899	-0.7452	-0.0021	-0.6552	-0.7234	-1.5247	-1.1676	-0.5782	-0.564	0.0866	0.8071	0.424	-0.2041	0.1644	0.7602	0.0109	-0.1067	-0.2069	-0.9057	-0.3896	-0.79	-0.4954	-1.1491	0.7482	0.5032
480.4688	0.7217	0.8137	0.2369	0.5201	0.2042	0.3691	-0.7625	0.0145	-0.6668	-0.7171	-1.5428	-1.1667	-0.6298	-0.6315	0.0963	0.7944	0.4209	-0.2461	0.1386	0.6833	-0.079	-0.1549	-0.2707	-0.9331	-0.4299	-0.8373	-0.515	-1.1538	0.7529	0.4874
484.375	0.72	0.7973	0.2547	0.5175	0.1911	0.3531	-0.7596	0.0335	-0.6712	-0.6905	-1.5373	-1.1558	-0.6624	-0.6881	0.1094	0.7837	0.4237	-0.283	0.1309	0.6076	-0.1598	-0.1829	-0.3137	-0.929	-0.447	-0.8658	-0.5039	-1.1442	0.7545	0.477
488.2812	0.7303	0.7896	0.2856	0.5218	0.1906	0.3447	-0.7355	0.05	-0.6706	-0.6461	-1.5122	-1.1381	-0.6677	-0.7232	0.1226	0.7749	0.4292	-0.3136	0.1427	0.5408	-0.2183	-0.1865	-0.3298	-0.8901	-0.4379	-0.871	-0.4587	-1.1199	0.752	0.4733
492.1875	0.7509	0.7891	0.3257	0.5351	0.2046	0.3453	-0.6925	0.0602	-0.6662	-0.5875	-1.4734	-1.1179	-0.6412	-0.7295	0.1333	0.768	0.4337	-0.3377	0.1706	0.4885	-0.2458	-0.166	-0.3173	-0.8183	-0.4047	-0.8524	-0.3823	-1.0821	0.7444	0.4756
496.0938	0.7763	0.7912	0.3692	0.5567	0.2308	0.3542	-0.6361	0.0612	-0.6587	-0.52	-1.428	-1.0994	-0.5839	-0.7062	0.1381	0.7608	0.4323	-0.3571	0.2064	0.4519	-0.2412	-0.1275	-0.2806	-0.721	-0.3537	-0.8133	-0.2837	-1.0335	0.7307	0.4806
500	0.797	0.7879	0.4078	0.5814	0.262	0.3675	-0.5752	0.052	-0.6484	-0.4497	-1.3827	-1.0866	-0.5036	-0.6596	0.133	0.7485	0.4189	-0.3759	0.2371	0.4264	-0.2125	-0.0827	-0.2304	-0.6104	-0.2948	-0.7607	-0.1764	-0.9785	0.7095	0.4826
503.9062	0.8014	0.7686	0.4316	0.5989	0.2869	0.3781	-0.5205	0.0329	-0.6354	-0.3837	-1.343	-1.0821	-0.4131	-0.6027	0.1135	0.7235	0.3867	-0.4003	0.2477	0.4018	-0.1752	-0.0468	-0.1815	-0.5017	-0.2393	-0.7038	-0.0763	-0.922	0.6787	0.4742
507.8125	0.7778	0.7218	0.4306	0.5954	0.2918	0.3768	-0.4825	0.0053	-0.6205	-0.3285	-1.3127	-1.0866	-0.3287	-0.5528	0.0756	0.6773	0.3295	-0.437	0.2244	0.3654	-0.1492	-0.0349	-0.1505	-0.4111	-0.1978	-0.6514	0.0021	-0.8688	0.6363	0.4487
511.7188	0.7179	0.6386	0.3962	0.5562	0.2643	0.354	-0.4697	-0.0286	-0.6048	-0.2895	-1.2929	-1.0983	-0.2662	-0.5269	0.0173	0.6026	0.2439	-0.4915	0.1584	0.3049	-0.1538	-0.0585	-0.1515	-0.3521	-0.178	-0.6106	0.0484	-0.8224	0.5809	0.401
515.625	0.6192	0.5153	0.3237	0.4698	0.1957	0.3022	-0.4863	-0.0665	-0.5898	-0.2698	-1.2825	-1.113	-0.2373	-0.5379	-0.0607	0.4965	0.1306	-0.5663	0.0486	0.2126	-0.2027	-0.1228	-0.1929	-0.3335	-0.1835	-0.5846	0.0579	-0.7838	0.5128	0.3301
519.5312	0.4867	0.3554	0.2135	0.332	0.0843	0.2182	-0.5312	-0.1057	-0.5776	-0.2701	-1.2784	-1.1245	-0.2478	-0.591	-0.154	0.362	-0.0048	-0.6596	-0.0971	0.088	-0.2999	-0.2249	-0.2761	-0.3574	-0.2133	-0.5725	0.0325	-0.7521	0.4349	0.2392
523.4375	0.3322	0.1701	0.0725	0.1479	-0.0639	0.1047	-0.5985	-0.1438	-0.57	-0.2882	-1.2768	-1.1264	-0.2953	-0.6823	-0.2545	0.2092	-0.1513	-0.7655	-0.2628	-0.0607	-0.4386	-0.3546	-0.3941	-0.4191	-0.262	-0.5697	-0.0202	-0.7243	0.3527	0.1363
527.3438	0.1729	-0.0226	-0.0866	-0.0669	-0.2352	-0.0295	-0.6779	-0.1787	-0.5691	-0.3199	-1.2741	-1.1134	-0.3706	-0.7985	-0.3515	0.0537	-0.2946	-0.8744	-0.4275	-0.2175	-0.6017	-0.4959	-0.5332	-0.5079	-0.3217	-0.57	-0.089	-0.6971	0.2745	0.0326
531.25	0.0287	-0.201	-0.2464	-0.2887	-0.4103	-0.1697	-0.7574	-0.2085	-0.5759	-0.3593	-1.2682	-1.083	-0.459	-0.9197	-0.4333	-0.0851	-0.4183	-0.9745	-0.569	-0.3609	-0.7645	-0.6297	-0.6754	-0.609	-0.3833	-0.5671	-0.1613	-0.6678	0.2097	-0.0589
535.1562	-0.0813	-0.342	-0.387	-0.4889	-0.5671	-0.2982	-0.8245	-0.2315	-0.5904	-0.3999	-1.258	-1.0354	-0.5428	-1.0223	-0.4884	-0.187	-0.5065	-1.0541	-0.6668	-0.4674	-0.8991	-0.737	-0.8013	-0.7058	-0.4385	-0.5565	-0.2252	-0.6351	0.1675	-0.126
539.0625	-0.1412	-0.4253	-0.4892	-0.6395	-0.6838	-0.3963	-0.8687	-0.2459	-0.6107	-0.4349	-1.2443	-0.9743	-0.6046	-1.084	-0.5067	-0.2345	-0.546	-1.1026	-0.7062	-0.5153	-0.9791	-0.8016	-0.8933	-0.7828	-0.481	-0.5366	-0.2715	-0.5997	0.155	-0.1591
542.9688	-0.1411	-0.4356	-0.5368	-0.7173	-0.7427	-0.4479	-0.8823	-0.25	-0.6334	-0.4582	-1.2283	-0.9061	-0.6297	-1.0869	-0.4816	-0.2151	-0.5283	-1.1125	-0.6794	-0.4887	-0.9843	-0.8121	-0.9382	-0.8278	-0.5076	-0.5089	-0.2953	-0.5639	0.1758	-0.1533
546.875	-0.0782	-0.3661	-0.5195	-0.7091	-0.7332	-0.4427	-0.8622	-0.2427	-0.6537	-0.4653	-1.2118	-0.8383	-0.6092	-1.0216	-0.4099	-0.1234	-0.4507	-1.0793	-0.5866	-0.3799	-0.9038	-0.7633	-0.9297	-0.8333	-0.5175	-0.4775	-0.2959	-0.5312	0.229	-0.1085
550.7812	0.043	-0.2187	-0.4343	-0.6131	-0.6528	-0.3776	-0.8093	-0.2234	-0.6669	-0.4541	-1.1969	-0.7789	-0.5409	-0.888	-0.2934	0.0377	-0.3168	-1.0026	-0.4349	-0.1905	-0.7382	-0.6565	-0.8683	-0.7975	-0.5127	-0.4478	-0.2766	-0.5052	0.3101	-0.0294
554.6875	0.2113	-0.0048	-0.2864	-0.4395	-0.5076	-0.2572	-0.7289	-0.1923	-0.6688	-0.4248	-1.1855	-0.7346	-0.4296	-0.695	-0.1378	0.2577	-0.1352	-0.8852	-0.2366	0.0688	-0.4984	-0.4989	-0.7604	-0.7239	-0.4958	-0.4251	-0.2431	-0.4887	0.4109	0.0755
558.5938	0.4115	0.2567	-0.0881	-0.208	-0.311	-0.0935	-0.6292	-0.1501	-0.6562	-0.3802	-1.1791	-0.7096	-0.2856	-0.4586	0.0474	0.52	0.0812	-0.7332	-0.0065	0.3801	-0.2039	-0.3016	-0.6166	-0.6196	-0.4699	-0.4128	-0.202	-0.4827	0.522	0.1957
562.5	0.6262	0.542	0.1425	0.0556	-0.0814	0.097	-0.5197	-0.0981	-0.6276	-0.3246	-1.1784	-0.7045	-0.1229	-0.1986	0.2505	0.8043	0.3172	-0.555	0.2404	0.7211	0.121	-0.0781	-0.4489	-0.494	-0.4374	-0.4117	-0.1588	-0.486	0.6337	0.3204
566.4062	0.8385	0.8262	0.3842	0.3246	0.1604	0.2959	-0.4095	-0.0377	-0.5826	-0.263	-1.1827	-0.7162	0.0443	0.0646	0.4588	1.0892	0.5571	-0.3613	0.4902	1.0681	0.4507	0.1578	-0.2692	-0.3567	-0.3995	-0.4193	-0.1169	-0.4959	0.7373	0.4401
570.3125	1.0338	1.0864	0.6153	0.5757	0.3945	0.4853	-0.3063	0.0289	-0.5223	-0.1994	-1.1897	-0.7383	0.2034	0.3135	0.6596	1.3552	0.7855	-0.1638	0.7315	1.3989	0.7624	0.393	-0.0872	-0.2156	-0.3567	-0.4304	-0.077	-0.508	0.8258	0.547
574.2188	1.201	1.3056	0.8168	0.792	0.6046	0.651	-0.215	0.0993	-0.4492	-0.1369	-1.1955	-0.7623	0.3456	0.5348	0.8417	1.5871	0.9893	0.0258	0.955	1.6954	1.0384	0.6158	0.0893	-0.0766	-0.3085	-0.4382	-0.0374	-0.5176	0.8941	0.6356
578.125	1.3328	1.4736	0.9742	0.9648	0.7793	0.7832	-0.1379	0.1698	-0.3668	-0.0769	-1.1954	-0.7795	0.4659	0.7203	0.9961	1.7753	1.1585	0.1968	1.1534	1.9448	1.2676	0.8162	0.2545	0.0568	-0.2546	-0.4357	0.0051	-0.52	0.9392	0.7022
582.0312	1.4258	1.5879	1.0794	1.093	0.9135	0.878	-0.0754	0.236	-0.2803	-0.0202	-1.1848	-0.7828	0.5631	0.8668	1.1165	1.9164	1.2875	0.3412	1.3219	2.1405	1.4453	0.9866	0.4044	0.1828	-0.1951	-0.4171	0.0537	-0.5121	0.9599	0.7452
585.9375	1.4801	1.6526	1.1314	1.1812	1.0077	0.9365	-0.0268	0.2929	-0.1957	0.0331	-1.1608	-0.7684	0.6384	0.9743	1.2002	2.0123	1.3754	0.4548	1.4578	2.2814	1.5722	1.1215	0.5356	0.3	-0.1312	-0.3793	0.1107	-0.4921	0.9573	0.765
589.8438	1.499	1.6763	1.1358	1.2371	1.0669	0.964	0.009	0.336	-0.1191	0.0821	-1.1228	-0.7365	0.6937	1.0446	1.2482	2.0689	1.4262	0.5377	1.5606	2.3706	1.6529	1.2184	0.6459	0.4068	-0.0652	-0.3229	0.1761	-0.4606	0.9343	0.7638
593.75	1.4887	1.6707	1.1044	1.2698	1.0995	0.9688	0.0333	0.3621	-0.0565	0.1252	-1.0727	-0.691	0.7312	1.0808	1.265	2.0949	1.4478	0.5942	1.6321	2.414	1.6935	1.2778	0.7338	0.5005	-0.0008	-0.2523	0.2469	-0.4206	0.8961	0.7457
597.6562	1.4573	1.648	1.0525	1.2875	1.1146	0.9605	0.0472	0.3699	-0.0122	0.1598	-1.0147	-0.6393	0.7519	1.0857	1.2584	2.0999	1.4507	0.6314	1.6765	2.4192	1.701	1.3031	0.7989	0.5777	0.0575	-0.1754	0.3175	-0.3772	0.8494	0.7167
601.5625	1.4144	1.6198	0.9969	1.2974	1.1205	0.948	0.0515	0.3597	0.0108	0.1827	-0.9542	-0.5906	0.7555	1.0626	1.2379	2.0934	1.4462	0.6577	1.6995	2.3947	1.6822	1.3004	0.8426	0.6343	0.1052	-0.1022	0.3804	-0.3369	0.8015	0.6837
605.4688	1.3694	1.5962	0.9529	1.304	1.1228	0.9382	0.0469	0.3334	0.0115	0.1908	-0.897	-0.5538	0.742	1.0147	1.2129	2.0836	1.4447	0.6811	1.7077	2.3492	1.6438	1.2781	0.8681	0.6677	0.1391	-0.0426	0.4285	-0.3059	0.7592	0.6538
609.375	1.3302	1.584	0.9314	1.3097	1.124	0.9347	0.0346	0.2928	-0.0088	0.1824	-0.8478	-0.5354	0.7115	0.9463	1.1911	2.0768	1.4538	0.7073	1.7081	2.2907	1.592	1.2454	0.8803	0.6774	0.158	-0.0041	0.4571	-0.2885	0.7271	0.6328
613.2812	1.3019	1.5871	0.9374	1.3145	1.1232	0.9377	0.0168	0.2402	-0.0469	0.1583	-0.8088	-0.5378	0.6667	0.8629	1.1767	2.0762	1.4772	0.739	1.7064	2.2265	1.5331	1.2112	0.8856	0.6664	0.164	0.0106	0.4659	-0.2858	0.7068	0.6241
617.1875	1.2862	1.6059	0.9687	1.3167	1.117	0.9442	-0.0035	0.1779	-0.0974	0.1225	-0.7792	-0.5584	0.6126	0.7708	1.17	2.0822	1.5143	0.7757	1.7062	2.162	1.4722	1.1828	0.8906	0.6413	0.1622	0.0037	0.4593	-0.2948	0.6964	0.6278
621.0938	1.2811	1.6375	1.0173	1.3131	1.1011	0.9495	-0.0218	0.1085	-0.1533	0.0813	-0.7554	-0.5906	0.5564	0.6771	1.1675	2.0923	1.5599	0.8142	1.7083	2.0997	1.4131	1.1645	0.9011	0.6109	0.1598	-0.0174	0.4454	-0.3094	0.6907	0.6407
625	1.2821	1.6761	1.0708	1.3005	1.0714	0.9485	-0.0341	0.0356	-0.2071	0.0425	-0.7323	-0.6251	0.5059	0.5882	1.1629	2.1014	1.6057	0.8492	1.7108	2.0394	1.3571	1.157	0.9204	0.5842	0.1638	-0.0428	0.4337	-0.3217	0.6829	0.6569
628.9062	1.2829	1.7141	1.1146	1.2753	1.0252	0.9361	-0.0374	-0.0368	-0.252	0.0125	-0.7048	-0.6534	0.4676	0.5093	1.1492	2.1027	1.6416	0.8742	1.709	1.9782	1.3033	1.1579	0.9488	0.5683	0.1794	-0.0628	0.4324	-0.325	0.6658	0.6693
632.8125	1.2777	1.7434	1.135	1.2351	0.9616	0.9088	-0.031	-0.1043	-0.283	-0.005	-0.6702	-0.6697	0.4453	0.4435	1.1203	2.0898	1.6581	0.8827	1.6978	1.9122	1.2488	1.1623	0.9834	0.5664	0.2081	-0.07	0.4463	-0.3153	0.6333	0.671
636.7188	1.262	1.7564	1.1222	1.1786	0.8818	0.8644	-0.0174	-0.163	-0.2986	-0.0099	-0.6286	-0.6726	0.4391	0.3918	1.0728	2.0576	1.6481	0.8694	1.6726	1.8377	1.1904	1.1648	1.0192	0.5776	0.2473	-0.0621	0.4759	-0.2924	0.5817	0.6568
640.625	1.2343	1.7483	1.0719	1.1069	0.7895	0.8025	-0.0011	-0.2099	-0.3	-0.0056	-0.5832	-0.6646	0.4461	0.3541	1.0076	2.0049	1.6095	0.8321	1.6312	1.754	1.1263	1.1612	1.0507	0.5971	0.2909	-0.0413	0.5175	-0.26	0.5106	0.6248
644.5312	1.1963	1.7184	0.9875	1.0239	0.6905	0.7254	0.0127	-0.2431	-0.2907	0.0025	-0.5395	-0.651	0.4619	0.3299	0.9299	1.9349	1.5455	0.7724	1.5753	1.6644	1.0577	1.1504	1.0734	0.6181	0.3309	-0.0145	0.5645	-0.2247	0.423	0.5763
648.4375	1.1532	1.6713	0.88	0.937	0.5934	0.638	0.0196	-0.2614	-0.2751	0.0093	-0.5037	-0.6377	0.4819	0.3194	0.8496	1.8563	1.4653	0.6967	1.511	1.5772	0.9902	1.1346	1.085	0.6338	0.3591	0.0094	0.6087	-0.1939	0.326	0.5165
652.3438	1.1136	1.6178	0.7666	0.8579	0.5097	0.5491	0.0187	-0.2641	-0.2569	0.0114	-0.4812	-0.6294	0.5031	0.324	0.7797	1.783	1.3828	0.6157	1.4484	1.5056	0.9337	1.1195	1.0863	0.6396	0.3696	0.0209	0.6423	-0.1745	0.2295	0.4534
656.25	1.0887	1.5738	0.6688	0.8019	0.4535	0.4709	0.0127	-0.2504	-0.2374	0.0093	-0.4751	-0.628	0.5249	0.3466	0.7349	1.7328	1.3151	0.5424	1.4001	1.4663	0.9013	1.1126	1.081	0.634	0.3591	0.0129	0.6598	-0.1711	0.1454	0.3964
660.1562	1.0909	1.5595	0.6084	0.7874	0.4405	0.4184	0.0086	-0.2192	-0.2151	0.0073	-0.4849	-0.6321	0.5498	0.3914	0.7294	1.7258	1.2802	0.4908	1.3801	1.4772	0.9082	1.1224	1.0745	0.6193	0.3286	-0.0176	0.659	-0.1847	0.0856	0.3545
664.0625	1.1325	1.596	0.6043	0.8328	0.4859	0.4076	0.0168	-0.169	-0.1856	0.0136	-0.5057	-0.6371	0.5835	0.4634	0.7754	1.7813	1.2945	0.4732	1.4017	1.5549	0.9689	1.1567	1.0736	0.6015	0.2827	-0.0682	0.6426	-0.2124	0.0604	0.3353
667.9688	1.2235	1.7019	0.6692	0.9538	0.6018	0.4525	0.0495	-0.0987	-0.1429	0.0386	-0.5285	-0.6361	0.6343	0.5673	0.8806	1.9149	1.3711	0.4981	1.4755	1.7116	1.0953	1.2217	1.0857	0.5889	0.2295	-0.1315	0.6182	-0.2476	0.0762	0.3432
671.875	1.3697	1.8893	0.8081	1.1593	0.7939	0.5625	0.1182	-0.0076	-0.081	0.0924	-0.5417	-0.6216	0.7116	0.7071	1.0472	2.1354	1.517	0.5694	1.6075	1.9524	1.2938	1.3212	1.1176	0.5908	0.1787	-0.1957	0.597	-0.2807	0.1346	0.3792
675.7812	1.5715	2.1605	1.0175	1.448	1.0597	0.7398	0.2312	0.1032	0.0045	0.1827	-0.5339	-0.5873	0.8242	0.8847	1.2709	2.4421	1.7321	0.6853	1.7977	2.2736	1.5638	1.4561	1.1753	0.6158	0.1403	-0.2478	0.5921	-0.3015	0.2321	0.4408
679.6875	1.823	2.5062	1.286	1.8072	1.3873	0.978	0.3915	0.2314	0.1146	0.3128	-0.4958	-0.5298	0.9772	1.0984	1.5411	2.8236	2.0083	0.8388	2.0393	2.6621	1.896	1.624	1.2623	0.67	0.1224	-0.276	0.615	-0.3012	0.3606	0.5232
683.5938	2.1119	2.9059	1.596	2.2133	1.7568	1.263	0.5954	0.3728	0.2466	0.48	-0.4228	-0.4492	1.1707	1.3426	1.8413	3.2585	2.3295	1.0184	2.3189	3.096	2.2729	1.8191	1.3792	0.7558	0.1297	-0.2726	0.6734	-0.2747	0.5089	0.6195
687.5	2.421	3.3298	1.9252	2.6347	2.1421	1.5739	0.8323	0.5219	0.3941	0.6758	-0.316	-0.3498	1.398	1.6068	2.1513	3.7174	2.6733	1.2097	2.6174	3.5472	2.6703	2.0325	1.523	0.8717	0.1629	-0.2355	0.7684	-0.2218	0.664	0.7224
691.4062	2.7295	3.7432	2.2488	3.037	2.5152	1.8865	1.0861	0.6716	0.5477	0.887	-0.1822	-0.2394	1.646	1.877	2.4494	4.1666	3.0132	1.3967	2.9124	3.9848	3.0597	2.2527	1.6867	1.0119	0.219	-0.1683	0.8942	-0.1472	0.8132	0.8243
695.3125	3.0158	4.1112	2.5418	3.3873	2.8495	2.1759	1.3371	0.8141	0.6966	1.0975	-0.0326	-0.1276	1.8967	2.1363	2.7147	4.5726	3.3224	1.5642	3.1809	4.3796	3.4132	2.4666	1.8602	1.1671	0.2918	-0.0792	1.0388	-0.0596	0.9453	0.9185
699.2188	3.2591	4.4037	2.7809	3.6595	3.1228	2.4197	1.5646	0.941	0.8298	1.2907	0.1192	-0.0243	2.1296	2.3677	2.9297	4.9069	3.5773	1.6995	3.4024	4.7078	3.7066	2.6609	2.0307	1.3253	0.3732	0.0207	1.186	0.0308	1.052	0.9994
703.125	3.4424	4.5991	2.9473	3.8366	3.3197	2.6005	1.7504	1.0439	0.9377	1.4518	0.2593	0.0624	2.3251	2.5562	3.0824	5.149	3.7607	1.794	3.562	4.9536	3.9239	2.8235	2.1853	1.4737	0.4551	0.1204	1.319	0.1141	1.1282	1.0627
707.0312	3.5543	4.6872	3.0292	3.9128	3.433	2.7075	1.8804	1.1156	1.0131	1.5698	0.376	0.1279	2.4675	2.6909	3.1672	5.2894	3.8643	1.8438	3.6521	5.1112	4.0583	2.945	2.3125	1.6004	0.5305	0.2104	1.4233	0.1832	1.1725	1.1061
710.9375	3.5904	4.6705	3.0236	3.8932	3.4628	2.7383	1.9467	1.151	1.0517	1.6384	0.461	0.171	2.5474	2.766	3.1853	5.3296	3.8896	1.8507	3.6735	5.1838	4.1128	3.0205	2.4048	1.6958	0.5942	0.2844	1.4894	0.2343	1.1868	1.1295
714.8438	3.5543	4.5633	2.9378	3.7929	3.4166	2.6986	1.948	1.1479	1.0527	1.6564	0.5109	0.194	2.5631	2.782	3.1446	5.2817	3.847	1.8215	3.6348	5.182	4.0985	3.0496	2.4594	1.754	0.6436	0.3396	1.5137	0.2672	1.1759	1.1355
718.75	3.4574	4.389	2.7889	3.6345	3.3077	2.6018	1.8892	1.1078	1.0183	1.6273	0.5268	0.2012	2.5201	2.7446	3.0576	5.1653	3.7537	1.7665	3.5504	5.1214	4.0313	3.0371	2.4791	1.7737	0.6786	0.3758	1.4983	0.2844	1.1469	1.1286
722.6562	3.3168	4.1765	2.6018	3.4451	3.1536	2.4674	1.7809	1.0361	0.9533	1.5578	0.5131	0.1973	2.4305	2.6642	2.9399	5.0043	3.6301	1.6982	3.4379	5.0191	3.9294	2.9914	2.4715	1.758	0.7008	0.3951	1.4499	0.2895	1.1079	1.1154
726.5625	3.1533	3.9549	2.405	3.2525	2.9742	2.3177	1.6372	0.9416	0.8645	1.4575	0.4761	0.186	2.3099	2.5544	2.8076	4.8223	3.4955	1.6291	3.3149	4.8912	3.8098	2.9236	2.4476	1.7137	0.713	0.4003	1.378	0.2857	1.0673	1.1028
730.4688	2.9876	3.7492	2.2265	3.0807	2.7899	2.1751	1.4741	0.8351	0.7596	1.3366	0.4221	0.1684	2.1753	2.4297	2.6746	4.6392	3.3653	1.5697	3.1966	4.7506	3.6862	2.8457	2.4194	1.6507	0.719	0.3945	1.2931	0.275	1.0321	1.0973
734.375	2.837	3.576	2.0885	2.9464	2.6191	2.0584	1.307	0.7275	0.6467	1.2055	0.3559	0.1427	2.042	2.3043	2.5512	4.468	3.2485	1.5277	3.0937	4.6063	3.5686	2.7691	2.3986	1.5801	0.7226	0.3803	1.2055	0.2574	1.0074	1.104
738.2812	2.7127	3.4414	2.0042	2.8561	2.4754	1.9803	1.1488	0.6285	0.5328	1.0725	0.2796	0.1041	1.9214	2.1896	2.4425	4.314	3.1471	1.5069	3.0112	4.4628	3.4624	2.703	2.3937	1.5125	0.7278	0.3593	1.1237	0.2307	0.9955	1.1255
742.1875	2.6176	3.3412	1.9751	2.8055	2.3654	1.9454	1.0077	0.5442	0.423	0.9434	0.1929	0.0459	1.8194	2.0928	2.3485	4.1744	3.0572	1.5069	2.9484	4.3211	3.3689	2.6533	2.4092	1.4565	0.7375	0.3318	1.0536	0.1911	0.9957	1.1613
746.0938	2.5464	3.2618	1.9918	2.7802	2.2874	1.949	0.8863	0.477	0.3199	0.8202	0.0935	-0.0388	1.7357	2.0154	2.2645	4.0406	2.9706	1.5234	2.8991	4.1791	3.2851	2.6206	2.4441	1.4165	0.7529	0.2965	0.9976	0.1338	1.0045	1.2076
750	2.4865	3.184	2.0358	2.7591	2.2318	1.9783	0.7819	0.4252	0.2239	0.7015	-0.0216	-0.1552	1.6644	1.9526	2.182	3.8995	2.8765	1.5485	2.8529	4.0321	3.2039	2.6004	2.4914	1.392	0.7727	0.2507	0.9545	0.0542	1.0162	1.2579
753.9062	2.4213	3.0868	2.0828	2.7183	2.1827	2.0143	0.6871	0.3839	0.1331	0.5836	-0.1538	-0.3044	1.5958	1.8945	2.0907	3.7372	2.7639	1.5716	2.7965	3.8738	3.1156	2.5828	2.5396	1.3772	0.7928	0.1908	0.9191	-0.0508	1.0238	1.3032
757.8125	2.3336	2.9517	2.1078	2.6359	2.1217	2.0354	0.5925	0.3462	0.0447	0.4621	-0.3018	-0.482	1.5186	1.8281	1.9803	3.5412	2.6228	1.5809	2.7159	3.6967	3.0086	2.5547	2.5739	1.3626	0.807	0.1134	0.8841	-0.1813	1.0198	1.3339
761.7188	2.2095	2.7662	2.089	2.4967	2.0315	2.0212	0.4888	0.3048	-0.0438	0.3337	-0.4599	-0.6781	1.4227	1.7396	1.8424	3.3031	2.4458	1.5657	2.599	3.4938	2.8718	2.5021	2.58	1.337	0.8081	0.0174	0.8409	-0.3335	0.9974	1.3414
765.625	2.0418	2.5265	2.0119	2.2941	1.8995	1.9557	0.3693	0.2529	-0.1343	0.1981	-0.6185	-0.8779	1.3017	1.6179	1.6719	3.0197	2.2292	1.5174	2.4375	3.2592	2.6973	2.4131	2.5466	1.29	0.7902	-0.0955	0.7817	-0.499	0.9524	1.3202
769.5312	1.8311	2.2371	1.8715	2.0313	1.7195	1.8302	0.2314	0.1853	-0.2274	0.0579	-0.766	-1.0646	1.1536	1.4566	1.4679	2.6936	1.9734	1.4314	2.2285	2.9901	2.482	2.2813	2.468	1.2142	0.7499	-0.2201	0.7009	-0.6659	0.8828	1.2689
773.4375	1.5856	1.9104	1.672	1.7195	1.4925	1.6437	0.077	0.0984	-0.3224	-0.0815	-0.8905	-1.2224	0.9813	1.2547	1.2335	2.3327	1.6823	1.3072	1.975	2.6868	2.2285	2.1063	2.3452	1.1064	0.6873	-0.349	0.5958	-0.8206	0.7904	1.1908
777.3438	1.319	1.563	1.4251	1.3747	1.2253	1.4022	-0.0891	-0.0099	-0.4179	-0.214	-0.9829	-1.3395	0.7908	1.0168	0.9748	1.9476	1.3628	1.1481	1.6848	2.353	1.9444	1.894	2.1857	0.9677	0.6053	-0.4741	0.4667	-0.951	0.6795	1.0934
781.25	1.0467	1.2119	1.1468	1.014	0.928	1.1165	-0.2601	-0.1399	-0.5125	-0.3341	-1.0389	-1.4106	0.5899	0.7505	0.6994	1.55	1.0227	0.9602	1.3684	1.9945	1.6404	1.6541	2.0005	0.8028	0.5089	-0.5889	0.316	-1.0488	0.5562	0.986
785.1562	0.7816	0.8705	0.8528	0.6515	0.6115	0.7994	-0.4301	-0.2902	-0.6055	-0.439	-1.0594	-1.4377	0.3855	0.4648	0.4143	1.1492	0.6697	0.7507	1.0368	1.6178	1.3268	1.3979	1.8019	0.6179	0.4038	-0.6896	0.1479	-1.1115	0.427	0.8776
789.0625	0.5315	0.5456	0.5558	0.2959	0.2852	0.4634	-0.5953	-0.4579	-0.697	-0.5292	-1.0508	-1.4292	0.1821	0.1679	0.1248	0.751	0.3093	0.527	0.6985	1.2287	1.0115	1.1348	1.5998	0.42	0.2948	-0.7766	-0.0332	-1.1428	0.2969	0.7747
792.9688	0.297	0.2368	0.2635	-0.0501	-0.0445	0.1188	-0.7551	-0.6383	-0.7876	-0.6085	-1.0227	-1.3975	-0.0183	-0.1341	-0.1662	0.3564	-0.0549	0.2957	0.359	0.8315	0.6984	0.871	1.4005	0.2152	0.1853	-0.8529	-0.2223	-1.1517	0.1688	0.6799
796.875	0.0734	-0.0616	-0.0215	-0.3883	-0.3732	-0.2261	-0.9111	-0.8249	-0.8785	-0.6825	-0.9865	-1.3566	-0.2158	-0.4367	-0.4571	-0.036	-0.4209	0.0626	0.0209	0.4298	0.3881	0.6097	1.2065	0.0086	0.0772	-0.9238	-0.4147	-1.1501	0.0435	0.5921
