time	FP1	F3	F7	FC3	C3	C5	P3	P7	PO7	PO3	O1	Oz	Pz	CPz	FP2	Fz	F4	F8	FC4	FCz	Cz	C4	C6	P4	P8	PO8	PO4	O2	HEOG_left	HEOG_right
-199.2188	-0.0243	0.542	-0.1455	-0.0924	-0.1464	-0.2534	-0.9048	0.1009	-0.0305	-0.0585	-0.0756	-0.5085	-0.4341	-0.6249	-0.6628	-0.3231	-1.161	-0.8102	-0.7487	-0.4217	-0.5957	-0.9863	-1.1905	-0.5834	-0.1996	-0.4398	-0.2664	0.2421	0.0685	0.3161
-195.3125	-0.1295	0.4108	-0.2933	-0.189	-0.227	-0.337	-0.6838	0.1613	0.014	-0.0772	-0.0622	-0.4139	-0.4728	-0.5877	-0.6372	-0.4221	-1.1489	-0.871	-0.8538	-0.4972	-0.5978	-0.8584	-1.0887	-0.472	-0.2043	-0.3809	-0.2278	0.2037	-0.1195	0.16
-191.4062	-0.2355	0.3003	-0.428	-0.2682	-0.2965	-0.4046	-0.4644	0.2192	0.0663	-0.0845	-0.0345	-0.3137	-0.4956	-0.5431	-0.5983	-0.5006	-1.1284	-0.9224	-0.9489	-0.5539	-0.5898	-0.7339	-0.9919	-0.3607	-0.2015	-0.31	-0.1786	0.1828	-0.2991	0.0183
-187.5	-0.341	0.2223	-0.5371	-0.3194	-0.3486	-0.4469	-0.2558	0.2703	0.1289	-0.0733	0.015	-0.206	-0.4944	-0.4897	-0.5383	-0.5442	-1.0928	-0.956	-1.0256	-0.5809	-0.5679	-0.6182	-0.9051	-0.2551	-0.1878	-0.2215	-0.1152	0.1896	-0.461	-0.0967
-183.5938	-0.4412	0.1779	-0.6128	-0.3395	-0.3816	-0.4602	-0.0685	0.3111	0.1998	-0.0417	0.0876	-0.0919	-0.467	-0.4292	-0.458	-0.5466	-1.0403	-0.9664	-1.0789	-0.5749	-0.5332	-0.5158	-0.832	-0.1614	-0.1633	-0.1164	-0.0391	0.2257	-0.5963	-0.1773
-179.6875	-0.5275	0.1575	-0.6533	-0.3331	-0.3978	-0.4471	0.0862	0.3383	0.2719	0.0066	0.1776	0.0237	-0.4175	-0.3661	-0.3673	-0.5109	-0.9736	-0.9518	-1.1074	-0.5419	-0.4909	-0.4303	-0.7744	-0.086	-0.1315	-0.0025	0.0424	0.283	-0.6971	-0.2217
-175.7812	-0.5887	0.1451	-0.6614	-0.3105	-0.4029	-0.4149	0.1979	0.3505	0.3355	0.0639	0.2738	0.1328	-0.3553	-0.3071	-0.2824	-0.4483	-0.8991	-0.9147	-1.1141	-0.4943	-0.4489	-0.3635	-0.7322	-0.0347	-0.0992	0.1068	0.1175	0.346	-0.7578	-0.2335
-171.875	-0.6135	0.1238	-0.6431	-0.2845	-0.4038	-0.3738	0.2586	0.3482	0.3803	0.1198	0.362	0.226	-0.2932	-0.2597	-0.221	-0.3747	-0.8253	-0.8608	-1.1055	-0.4485	-0.4159	-0.3151	-0.704	-0.0125	-0.0746	0.1955	0.1728	0.3957	-0.7762	-0.2206
-167.9688	-0.5945	0.0824	-0.6056	-0.267	-0.4066	-0.3336	0.2644	0.3339	0.3983	0.1647	0.4281	0.2944	-0.2446	-0.231	-0.1969	-0.307	-0.7599	-0.7979	-1.0905	-0.4203	-0.3993	-0.2835	-0.6878	-0.0225	-0.0653	0.2494	0.1964	0.4146	-0.7545	-0.193
-164.0625	-0.5317	0.0184	-0.556	-0.2658	-0.4151	-0.3015	0.2163	0.3112	0.3856	0.1913	0.4614	0.3313	-0.2204	-0.2262	-0.2151	-0.2588	-0.7092	-0.7342	-1.0782	-0.4211	-0.4031	-0.2663	-0.6819	-0.065	-0.0765	0.2594	0.181	0.3923	-0.6996	-0.1608
-160.1562	-0.434	-0.0611	-0.4996	-0.2837	-0.4295	-0.2814	0.1216	0.2842	0.343	0.1959	0.4564	0.3336	-0.2269	-0.2471	-0.2699	-0.238	-0.6762	-0.6764	-1.0744	-0.4553	-0.4273	-0.2609	-0.685	-0.1368	-0.1093	0.2242	0.1259	0.3275	-0.6219	-0.1314
-156.25	-0.3183	-0.1428	-0.4405	-0.3179	-0.4467	-0.2728	-0.0059	0.2566	0.276	0.1791	0.4138	0.3035	-0.2636	-0.2915	-0.3456	-0.2453	-0.6613	-0.629	-1.0799	-0.5193	-0.4679	-0.2646	-0.6966	-0.2303	-0.1605	0.1504	0.0384	0.2291	-0.5339	-0.1086
-152.3438	-0.2058	-0.2118	-0.3819	-0.3616	-0.4607	-0.2717	-0.1461	0.2308	0.1937	0.1452	0.3401	0.2473	-0.3231	-0.3522	-0.4216	-0.2752	-0.6622	-0.5939	-1.0903	-0.602	-0.5165	-0.2749	-0.7154	-0.3335	-0.2225	0.0512	-0.0677	0.1138	-0.4479	-0.0925
-148.4375	-0.1176	-0.2569	-0.3268	-0.4058	-0.4645	-0.2721	-0.2747	0.2083	0.107	0.101	0.2458	0.1754	-0.392	-0.4183	-0.4771	-0.3183	-0.6744	-0.5705	-1.0978	-0.6877	-0.5625	-0.2891	-0.7389	-0.4309	-0.2855	-0.0564	-0.1745	0.0018	-0.3738	-0.0803
-144.5312	-0.0704	-0.2741	-0.2784	-0.4427	-0.4519	-0.2672	-0.3673	0.1892	0.0267	0.0542	0.1435	0.0994	-0.4541	-0.4767	-0.4972	-0.3651	-0.6925	-0.5559	-1.0939	-0.7602	-0.5946	-0.3038	-0.7627	-0.5061	-0.3391	-0.1555	-0.2634	-0.0879	-0.3174	-0.0681
-140.625	-0.0726	-0.2681	-0.24	-0.4669	-0.4195	-0.2516	-0.4036	0.1728	-0.0385	0.0119	0.0453	0.0311	-0.4939	-0.515	-0.4758	-0.4081	-0.7103	-0.546	-1.0724	-0.8061	-0.6031	-0.316	-0.7806	-0.5447	-0.3747	-0.2329	-0.3196	-0.1419	-0.28	-0.0525
-136.7188	-0.1229	-0.2493	-0.2138	-0.4769	-0.3682	-0.2229	-0.3731	0.1579	-0.0833	-0.0209	-0.0395	-0.0202	-0.5002	-0.5244	-0.4163	-0.4436	-0.7217	-0.5351	-1.0299	-0.8186	-0.5828	-0.3234	-0.7855	-0.5382	-0.3874	-0.2809	-0.3349	-0.1554	-0.2584	-0.0316
-132.8125	-0.2096	-0.2302	-0.2003	-0.4745	-0.3029	-0.182	-0.2778	0.1432	-0.1068	-0.0416	-0.1056	-0.0489	-0.4685	-0.5016	-0.3299	-0.4718	-0.7218	-0.5174	-0.9661	-0.7978	-0.5337	-0.3248	-0.7706	-0.4863	-0.3763	-0.2984	-0.3095	-0.1323	-0.2457	-0.0057
-128.9062	-0.3124	-0.2204	-0.197	-0.4632	-0.2321	-0.1331	-0.1329	0.1273	-0.1122	-0.0505	-0.1522	-0.0541	-0.4019	-0.4496	-0.2319	-0.4948	-0.7067	-0.4872	-0.8829	-0.7498	-0.4614	-0.3203	-0.7312	-0.3972	-0.3442	-0.2906	-0.2517	-0.0843	-0.2334	0.0233
-125	-0.4062	-0.2234	-0.1987	-0.4462	-0.165	-0.0819	0.0363	0.1092	-0.1059	-0.05	-0.1818	-0.0399	-0.3093	-0.3763	-0.1384	-0.514	-0.6741	-0.4404	-0.7828	-0.6836	-0.3753	-0.3107	-0.6652	-0.2856	-0.297	-0.2665	-0.1757	-0.0276	-0.2132	0.0521
-121.0938	-0.4668	-0.2362	-0.1977	-0.4248	-0.1098	-0.0343	0.2	0.0886	-0.0952	-0.0438	-0.1984	-0.0145	-0.2035	-0.2923	-0.063	-0.5283	-0.6226	-0.3753	-0.668	-0.608	-0.2859	-0.2965	-0.5738	-0.1694	-0.2416	-0.2373	-0.0983	0.0208	-0.1788	0.0773
-117.1875	-0.4764	-0.2515	-0.1859	-0.3979	-0.0712	0.006	0.3302	0.066	-0.0863	-0.0353	-0.2064	0.0117	-0.0973	-0.2081	-0.0139	-0.533	-0.5521	-0.2931	-0.5398	-0.529	-0.2024	-0.2771	-0.4609	-0.0653	-0.1851	-0.2129	-0.0343	0.0471	-0.1272	0.0961
-113.2812	-0.4282	-0.2617	-0.1567	-0.3631	-0.0494	0.038	0.4077	0.043	-0.082	-0.0268	-0.2084	0.0287	-0.0012	-0.1317	0.0063	-0.5212	-0.4633	-0.1987	-0.3993	-0.4493	-0.1313	-0.2509	-0.3322	0.0154	-0.1328	-0.1999	0.006	0.0438	-0.0592	0.1074
-109.375	-0.3276	-0.2623	-0.1074	-0.3182	-0.0414	0.0628	0.425	0.0219	-0.0821	-0.0199	-0.2052	0.0292	0.0779	-0.068	0.0012	-0.486	-0.3585	-0.1003	-0.2488	-0.3691	-0.0752	-0.2165	-0.1949	0.0677	-0.088	-0.1996	0.0196	0.0114	0.0207	0.1114
-105.4688	-0.191	-0.2543	-0.0405	-0.2635	-0.042	0.0826	0.388	0.0049	-0.0834	-0.0152	-0.1968	0.0102	0.1366	-0.0185	-0.0213	-0.4238	-0.2422	-0.0077	-0.0931	-0.2879	-0.0341	-0.173	-0.0568	0.0934	-0.0514	-0.2077	0.0096	-0.043	0.1045	0.1093
-101.5625	-0.0413	-0.2429	0.0364	-0.2022	-0.0467	0.0992	0.3125	-0.0065	-0.0821	-0.0141	-0.1835	-0.0266	0.1738	0.0176	-0.0514	-0.3355	-0.1204	0.0692	0.0598	-0.2068	-0.006	-0.1219	0.0744	0.0987	-0.022	-0.2161	-0.0159	-0.1076	0.1828	0.1027
-97.6562	0.0979	-0.2354	0.1133	-0.1399	-0.0519	0.1133	0.2201	-0.013	-0.0755	-0.0184	-0.1675	-0.0759	0.19	0.0424	-0.0796	-0.227	0.0001	0.1236	0.1993	-0.1283	0.0126	-0.0661	0.1914	0.0915	0.0026	-0.2152	-0.0475	-0.1697	0.2473	0.0929
-93.75	0.2071	-0.2364	0.1799	-0.0832	-0.056	0.1245	0.132	-0.0173	-0.0636	-0.031	-0.1533	-0.1308	0.1868	0.0586	-0.0983	-0.1075	0.1126	0.1543	0.3149	-0.0563	0.0254	-0.0092	0.2888	0.0793	0.0247	-0.1975	-0.0769	-0.2197	0.2931	0.0811
-89.8438	0.2749	-0.2461	0.2293	-0.0374	-0.0574	0.132	0.0646	-0.0238	-0.0494	-0.0545	-0.1471	-0.184	0.1667	0.069	-0.1025	0.0126	0.2123	0.1663	0.3993	0.0054	0.0367	0.0457	0.3641	0.067	0.0463	-0.1597	-0.0989	-0.2524	0.3202	0.0685
-85.9375	0.2994	-0.2592	0.2589	-0.0049	-0.0545	0.1351	0.0266	-0.0374	-0.0384	-0.0898	-0.1547	-0.2299	0.1342	0.0768	-0.0887	0.1247	0.2965	0.1703	0.4522	0.0551	0.0505	0.0974	0.4182	0.0579	0.0681	-0.1043	-0.1115	-0.2681	0.3339	0.0572
-82.0312	0.2869	-0.2671	0.2709	0.0152	-0.0442	0.1343	0.0183	-0.0621	-0.0369	-0.1353	-0.1797	-0.2643	0.0953	0.085	-0.0552	0.223	0.3649	0.1794	0.4816	0.0941	0.0704	0.147	0.4555	0.0538	0.0896	-0.0388	-0.1154	-0.2706	0.3421	0.0494
-78.125	0.25	-0.2608	0.2704	0.0269	-0.0226	0.1307	0.033	-0.0999	-0.0505	-0.1863	-0.2216	-0.2845	0.0583	0.0977	-0.001	0.3061	0.4194	0.2059	0.5028	0.1274	0.0996	0.1977	0.4831	0.0566	0.11	0.0268	-0.1116	-0.2649	0.3528	0.0476
-74.2188	0.205	-0.235	0.2631	0.0362	0.0145	0.1263	0.06	-0.15	-0.0818	-0.2347	-0.2754	-0.2878	0.0327	0.1191	0.0731	0.3763	0.4635	0.2571	0.5343	0.163	0.1406	0.2534	0.5097	0.0687	0.1287	0.083	-0.1004	-0.2545	0.3705	0.0527
-70.3125	0.168	-0.1895	0.2538	0.0497	0.0703	0.1233	0.0876	-0.2086	-0.1293	-0.2713	-0.3315	-0.271	0.0285	0.154	0.1644	0.4384	0.5028	0.3344	0.5922	0.2103	0.1959	0.3176	0.5437	0.0937	0.1461	0.1234	-0.08	-0.2403	0.3945	0.0639
-66.4062	0.1519	-0.1296	0.245	0.0738	0.1455	0.1244	0.1063	-0.2697	-0.1863	-0.287	-0.378	-0.2304	0.0546	0.2068	0.2675	0.4986	0.5445	0.4329	0.6859	0.2777	0.267	0.3922	0.5914	0.1348	0.164	0.1469	-0.0468	-0.2198	0.4197	0.0781
-62.5	0.164	-0.0638	0.2374	0.1135	0.2376	0.1318	0.1104	-0.3259	-0.2422	-0.2751	-0.4024	-0.1631	0.1164	0.2804	0.374	0.5622	0.5965	0.544	0.8156	0.3704	0.3547	0.4768	0.6558	0.1944	0.1848	0.1573	0.0029	-0.1887	0.4379	0.0907
-58.5938	0.2041	-0.0005	0.2306	0.1715	0.3411	0.1472	0.0989	-0.3697	-0.2837	-0.2329	-0.3942	-0.0688	0.2142	0.3745	0.4741	0.6318	0.6653	0.6569	0.9731	0.4882	0.4576	0.5679	0.7354	0.2722	0.2111	0.1617	0.0714	-0.1428	0.4413	0.0968
-54.6875	0.2642	0.054	0.2246	0.2477	0.4484	0.1719	0.0757	-0.3945	-0.2982	-0.1622	-0.347	0.0484	0.3415	0.4845	0.5579	0.706	0.7539	0.7617	1.1436	0.6243	0.5711	0.6593	0.8244	0.3644	0.2442	0.1686	0.1579	-0.08	0.425	0.0925
-50.7812	0.3316	0.0981	0.2209	0.3388	0.5502	0.2062	0.0484	-0.396	-0.2766	-0.0693	-0.2602	0.1793	0.4854	0.6013	0.6176	0.7794	0.8601	0.8505	1.3096	0.7663	0.6874	0.7426	0.9138	0.463	0.2835	0.1852	0.2566	-0.0021	0.3888	0.0764
-46.875	0.3918	0.1342	0.2234	0.4388	0.6379	0.2496	0.0258	-0.3728	-0.216	0.0364	-0.1391	0.3096	0.6283	0.7124	0.6494	0.8434	0.9766	0.9183	1.4529	0.8986	0.7957	0.8086	0.993	0.5564	0.3261	0.215	0.3578	0.0844	0.3376	0.0501
-42.9688	0.4334	0.1676	0.2373	0.5403	0.7042	0.3002	0.016	-0.3273	-0.1215	0.1435	0.0047	0.4225	0.7508	0.8036	0.6542	0.8887	1.0922	0.9632	1.5575	1.0064	0.8842	0.8482	1.0522	0.6309	0.3667	0.2573	0.4481	0.1695	0.2807	0.018
-39.0625	0.4516	0.2044	0.268	0.6356	0.7441	0.3543	0.0231	-0.2659	-0.0061	0.2403	0.1552	0.5014	0.8349	0.8621	0.6373	0.9071	1.1943	0.9855	1.6103	1.0795	0.9425	0.854	1.0842	0.6732	0.3993	0.3067	0.5136	0.2407	0.23	-0.0136
-35.1562	0.4486	0.2487	0.3189	0.7181	0.7552	0.4066	0.0458	-0.1981	0.1111	0.3152	0.2935	0.5326	0.8678	0.8784	0.6069	0.8936	1.2714	0.9876	1.6036	1.1141	0.9636	0.822	1.0855	0.673	0.4177	0.3544	0.5416	0.2851	0.1971	-0.0385
-31.25	0.4324	0.3019	0.3893	0.7831	0.7373	0.4503	0.0771	-0.1356	0.2082	0.3584	0.4006	0.508	0.8431	0.8485	0.572	0.8471	1.3149	0.9729	1.5352	1.1138	0.945	0.7527	1.0565	0.6261	0.4177	0.3902	0.524	0.2919	0.1899	-0.0519
-27.3438	0.4128	0.3622	0.4738	0.8278	0.6918	0.4781	0.1058	-0.09	0.2644	0.3624	0.4603	0.4257	0.7627	0.7747	0.5405	0.7707	1.3202	0.9453	1.4102	1.0873	0.8892	0.6514	1.0017	0.5355	0.398	0.4044	0.4587	0.2548	0.2106	-0.0526
-23.4375	0.3981	0.4257	0.5627	0.8518	0.6218	0.4841	0.1192	-0.0703	0.2649	0.3236	0.4623	0.2913	0.6357	0.6648	0.5179	0.6707	1.2883	0.9098	1.241	1.0464	0.803	0.5288	0.9289	0.4122	0.3607	0.3908	0.3508	0.174	0.255	-0.0426
-19.5312	0.3923	0.4889	0.6443	0.8565	0.5325	0.4656	0.1069	-0.0806	0.2041	0.2434	0.4046	0.1168	0.4773	0.5313	0.5066	0.5561	1.2255	0.8722	1.0472	1.0026	0.6967	0.4002	0.8484	0.2734	0.3118	0.3482	0.2122	0.0566	0.3133	-0.0267
-15.625	0.3945	0.5496	0.7082	0.8449	0.4312	0.4244	0.0635	-0.1187	0.0875	0.1294	0.2943	-0.0796	0.3069	0.3893	0.5057	0.4372	1.1438	0.8387	0.8535	0.9652	0.582	0.2832	0.7711	0.1394	0.2592	0.2806	0.0602	-0.0839	0.3729	-0.0109
-11.7188	0.4	0.6071	0.7473	0.8211	0.3279	0.3668	-0.009	-0.1764	-0.0687	-0.0051	0.1471	-0.276	0.1451	0.2538	0.5114	0.324	1.0588	0.8151	0.6869	0.9394	0.4712	0.1943	0.7067	0.0293	0.2108	0.197	-0.0856	-0.2297	0.4215	0
-7.8125	0.4033	0.6616	0.7604	0.7898	0.234	0.3027	-0.1008	-0.2409	-0.2406	-0.1422	-0.0152	-0.4498	0.0107	0.1377	0.5189	0.2245	0.9869	0.8055	0.5718	0.9265	0.3746	0.1451	0.6614	-0.0423	0.1726	0.1082	-0.2073	-0.3626	0.4495	0.0034
-3.9062	0.4002	0.7131	0.7515	0.7558	0.161	0.2439	-0.1958	-0.2978	-0.4008	-0.2624	-0.1686	-0.5817	-0.0818	0.0498	0.5233	0.1437	0.9417	0.8103	0.5245	0.9246	0.2999	0.1398	0.6367	-0.0691	0.1464	0.0241	-0.2917	-0.4674	0.4525	-0.0004
0	0.3901	0.7607	0.7291	0.7241	0.1192	0.2017	-0.2746	-0.3336	-0.5242	-0.3484	-0.2915	-0.6585	-0.1238	-0.0061	0.5214	0.0827	0.931	0.8265	0.5503	0.9302	0.2517	0.1739	0.629	-0.0526	0.1296	-0.0485	-0.3326	-0.5355	0.4318	-0.0082
3.9062	0.3763	0.8034	0.7045	0.7	0.1155	0.1856	-0.3185	-0.3386	-0.5926	-0.3877	-0.3675	-0.6761	-0.1129	-0.0301	0.5128	0.0399	0.9552	0.8478	0.6412	0.94	0.2316	0.2359	0.6312	-0.0017	0.1166	-0.1067	-0.3316	-0.5655	0.3936	-0.0151
7.8125	0.3651	0.8414	0.6899	0.6901	0.1534	0.2026	-0.3135	-0.3088	-0.5979	-0.3753	-0.3885	-0.6392	-0.0524	-0.0259	0.5007	0.0118	1.008	0.8668	0.7778	0.9531	0.2393	0.3105	0.6353	0.0711	0.1011	-0.1512	-0.296	-0.5625	0.3475	-0.0155
11.7188	0.3635	0.8778	0.6967	0.7018	0.232	0.2566	-0.2534	-0.246	-0.5426	-0.3146	-0.3545	-0.5608	0.0502	0.0014	0.491	-0.0045	1.0781	0.8771	0.9327	0.9713	0.2732	0.3824	0.6346	0.1526	0.0787	-0.1837	-0.2366	-0.5355	0.3038	-0.0049
15.625	0.3777	0.9186	0.7331	0.7423	0.3463	0.3478	-0.1414	-0.1581	-0.439	-0.2166	-0.2733	-0.4582	0.1839	0.0456	0.4904	-0.0112	1.1525	0.875	1.0759	0.9991	0.3306	0.4404	0.6265	0.2319	0.0493	-0.205	-0.1646	-0.4939	0.2708	0.0186
19.5312	0.41	0.9714	0.8029	0.8172	0.4873	0.4726	0.0099	-0.0571	-0.3064	-0.0978	-0.1585	-0.3501	0.336	0.1002	0.5043	-0.0087	1.2187	0.8612	1.1802	1.0416	0.4076	0.4787	0.613	0.3023	0.0182	-0.2132	-0.0889	-0.4446	0.2526	0.0532
23.4375	0.4578	1.0435	0.9035	0.9286	0.6431	0.6222	0.1812	0.0424	-0.1671	0.0228	-0.027	-0.2522	0.4934	0.1592	0.534	0.0031	1.2674	0.8408	1.2268	1.1024	0.4984	0.4977	0.6003	0.3622	-0.0047	-0.2037	-0.0147	-0.3906	0.2478	0.0933
27.3438	0.5132	1.1382	1.0257	1.0733	0.7996	0.7839	0.351	0.1261	-0.0426	0.1278	0.1039	-0.1748	0.6436	0.2168	0.5763	0.0246	1.2936	0.8224	1.2088	1.1815	0.5955	0.5028	0.5979	0.4143	-0.0064	-0.1705	0.0569	-0.3307	0.2505	0.1299
31.25	0.5639	1.254	1.1544	1.2426	0.9426	0.9419	0.5006	0.1826	0.0505	0.2045	0.2194	-0.1212	0.7769	0.2688	0.6233	0.0555	1.2975	0.8168	1.1334	1.2745	0.6904	0.5029	0.6157	0.4648	0.0253	-0.1084	0.1283	-0.2613	0.2518	0.1531
35.1562	0.5962	1.3839	1.2714	1.4234	1.0596	1.0799	0.618	0.2055	0.1026	0.2478	0.3094	-0.0876	0.888	0.313	0.6656	0.0956	1.2849	0.8354	1.0209	1.3733	0.775	0.508	0.6625	0.521	0.0992	-0.0154	0.2035	-0.1787	0.2436	0.154
39.0625	0.5987	1.5171	1.3588	1.6	1.1418	1.1845	0.6999	0.1943	0.1126	0.2599	0.3697	-0.0655	0.9768	0.3502	0.6945	0.1451	1.267	0.8878	0.9013	1.4685	0.8438	0.5276	0.7435	0.5892	0.2171	0.1048	0.2862	-0.082	0.2213	0.1277
42.9688	0.5665	1.6414	1.4031	1.7573	1.1852	1.2475	0.7509	0.1544	0.0871	0.2498	0.4021	-0.0445	1.048	0.384	0.7058	0.2051	1.2585	0.9801	0.8076	1.5519	0.8948	0.5691	0.859	0.6721	0.3721	0.2426	0.3775	0.0258	0.1857	0.0752
46.875	0.5028	1.7462	1.3983	1.8827	1.1913	1.2677	0.7809	0.0961	0.0382	0.2299	0.4129	-0.0154	1.1096	0.419	0.7008	0.2776	1.2749	1.1122	0.7687	1.6184	0.9295	0.6357	1.0031	0.7676	0.5486	0.3828	0.4749	0.1367	0.1432	0.0035
50.7812	0.419	1.824	1.3474	1.9678	1.1654	1.2505	0.8012	0.0328	-0.0189	0.2122	0.4115	0.0271	1.1698	0.4591	0.6861	0.3631	1.3283	1.2763	0.802	1.6656	0.9514	0.725	1.1631	0.8675	0.7244	0.5068	0.5712	0.2387	0.1041	-0.0752
54.6875	0.3306	1.871	1.2604	2.0071	1.1141	1.2046	0.8203	-0.0219	-0.07	0.2047	0.4066	0.0824	1.2329	0.5039	0.6704	0.4583	1.4226	1.4554	0.9073	1.6918	0.9626	0.8272	1.3192	0.9572	0.8735	0.5955	0.6548	0.3182	0.0789	-0.1465
58.5938	0.2526	1.885	1.1514	1.9968	1.0416	1.1385	0.8399	-0.0568	-0.1049	0.2084	0.4045	0.1443	1.296	0.5463	0.661	0.5527	1.5492	1.6236	1.0647	1.6923	0.9605	0.9237	1.4456	1.0172	0.9708	0.6321	0.711	0.362	0.0751	-0.1967
62.5	0.1933	1.8637	1.0333	1.9322	0.9472	1.0554	0.8534	-0.067	-0.1201	0.216	0.406	0.2017	1.3472	0.5709	0.6596	0.6274	1.6854	1.7483	1.2359	1.6564	0.9352	0.9884	1.5127	1.0251	0.9953	0.6045	0.7239	0.3603	0.0935	-0.2164
66.4062	0.1523	1.8032	0.914	1.8061	0.8229	0.9511	0.8455	-0.0546	-0.1198	0.213	0.4064	0.2406	1.3661	0.5553	0.6605	0.6559	1.7963	1.7958	1.3709	1.5671	0.869	0.99	1.4918	0.9589	0.9343	0.507	0.6791	0.3081	0.1276	-0.2027
70.3125	0.1206	1.6975	0.7945	1.6103	0.656	0.8142	0.796	-0.0302	-0.1153	0.1804	0.3955	0.2474	1.3273	0.474	0.6508	0.609	1.8411	1.7378	1.4171	1.4029	0.7399	0.8984	1.3605	0.8025	0.7851	0.3413	0.5662	0.2065	0.1648	-0.1595
74.2188	0.0844	1.5399	0.6696	1.3387	0.4327	0.63	0.6839	-0.0099	-0.1221	0.1001	0.361	0.2117	1.207	0.3042	0.6138	0.4611	1.7818	1.5588	1.3313	1.1446	0.5264	0.6912	1.1084	0.5498	0.557	0.1168	0.382	0.0622	0.1896	-0.0966
78.125	0.0303	1.3268	0.5315	0.9917	0.1451	0.3864	0.4944	-0.0123	-0.1561	-0.0399	0.2919	0.1287	0.99	0.0336	0.5339	0.1982	1.5942	1.2624	1.0904	0.7826	0.2162	0.3611	0.7421	0.2086	0.2697	-0.1497	0.1329	-0.113	0.1882	-0.0268
82.0312	-0.0498	1.0605	0.3744	0.5807	-0.2029	0.0806	0.2236	-0.0541	-0.2287	-0.2415	0.1821	0.0013	0.6766	-0.3338	0.4027	-0.1748	1.2761	0.8734	0.7	0.3247	-0.1873	-0.0785	0.2869	-0.1973	-0.0479	-0.4353	-0.1643	-0.3032	0.1517	0.0365
85.9375	-0.1559	0.7528	0.1987	0.131	-0.5914	-0.2767	-0.1171	-0.145	-0.3435	-0.4936	0.034	-0.1599	0.2869	-0.7739	0.2228	-0.6314	0.8523	0.4359	0.1963	-0.1993	-0.6602	-0.5923	-0.2143	-0.6303	-0.3623	-0.7131	-0.4829	-0.4901	0.0789	0.0829
89.8438	-0.2794	0.4257	0.0122	-0.3198	-0.9847	-0.6601	-0.5006	-0.2854	-0.4941	-0.7728	-0.1411	-0.3374	-0.1399	-1.2437	0.0101	-1.1247	0.3729	0.0065	-0.3586	-0.7387	-1.1585	-1.126	-0.7069	-1.0431	-0.64	-0.9554	-0.789	-0.654	-0.0234	0.1064
93.75	-0.4051	0.1102	-0.1701	-0.7255	-1.336	-1.0314	-0.8858	-0.4637	-0.6646	-1.0463	-0.3232	-0.5088	-0.5506	-1.6859	-0.2077	-1.5944	-0.0942	-0.3559	-0.8864	-1.2285	-1.6228	-1.6143	-1.1323	-1.386	-0.8516	-1.1368	-1.046	-0.7764	-0.1427	0.1064
97.6562	-0.5144	-0.158	-0.3291	-1.0382	-1.5945	-1.346	-1.2245	-0.6581	-0.8315	-1.2774	-0.487	-0.6502	-0.8865	-2.0385	-0.3957	-1.9768	-0.4765	-0.6011	-1.3074	-1.5992	-1.9881	-1.9913	-1.4375	-1.6144	-0.9761	-1.2378	-1.22	-0.8414	-0.2633	0.0862
101.5625	-0.5902	-0.3432	-0.4452	-1.2156	-1.715	-1.5596	-1.4689	-0.8397	-0.9687	-1.4317	-0.6054	-0.739	-1.0939	-2.2446	-0.5191	-2.2159	-0.7099	-0.6972	-1.554	-1.7898	-2.195	-2.2013	-1.5834	-1.6964	-1.0032	-1.2465	-1.2848	-0.838	-0.3713	0.051
105.4688	-0.6201	-0.4166	-0.5031	-1.2282	-1.6665	-1.6366	-1.5808	-0.9779	-1.052	-1.4828	-0.6551	-0.7579	-1.1343	-2.2628	-0.5507	-2.2733	-0.7516	-0.636	-1.5834	-1.7579	-2.2007	-2.2085	-1.5508	-1.6175	-0.9332	-1.1609	-1.2262	-0.7619	-0.4581	0.0055
109.375	-0.5989	-0.3615	-0.4948	-1.0647	-1.4383	-1.5568	-1.5391	-1.0467	-1.064	-1.4176	-0.6205	-0.6977	-0.9909	-2.0748	-0.478	-2.1346	-0.5877	-0.4334	-1.3852	-1.4884	-1.9869	-2.0022	-1.3433	-1.3826	-0.7765	-0.9885	-1.0446	-0.6162	-0.5223	-0.0483
113.2812	-0.529	-0.1784	-0.4219	-0.7349	-1.043	-1.3196	-1.3437	-1.0302	-0.9983	-1.238	-0.4974	-0.5593	-0.6719	-1.6896	-0.3063	-1.8124	-0.2355	-0.1255	-0.9832	-0.9961	-1.5641	-1.5992	-0.9858	-1.0152	-0.5514	-0.7457	-0.7551	-0.4121	-0.5699	-0.1115
117.1875	-0.4197	0.1133	-0.2957	-0.2701	-0.5158	-0.9456	-1.0169	-0.926	-0.8605	-0.9614	-0.2945	-0.3536	-0.2098	-1.1429	-0.0595	-1.3449	0.2592	0.2389	-0.4322	-0.3249	-0.971	-1.0411	-0.5206	-0.5537	-0.2815	-0.4567	-0.3856	-0.1675	-0.6113	-0.1871
121.0938	-0.2852	0.4752	-0.136	0.2795	0.09	-0.4744	-0.599	-0.7463	-0.6677	-0.6182	-0.032	-0.1005	0.3441	-0.4929	0.2238	-0.791	0.8294	0.6062	0.1921	0.4572	-0.2691	-0.3894	-0.0017	-0.0467	0.0061	-0.1503	0.0263	0.0947	-0.6583	-0.2785
125	-0.1431	0.854	0.0313	0.8504	0.7092	0.0402	-0.1424	-0.5147	-0.4453	-0.2474	0.2612	0.1742	0.9264	0.1873	0.4968	-0.2228	1.3969	0.9259	0.806	1.2667	0.4649	0.2833	0.5126	0.4538	0.2839	0.1423	0.4384	0.3492	-0.7204	-0.3873
128.9062	-0.0135	1.1886	0.1775	1.3726	1.2733	0.5374	0.2969	-0.2627	-0.2226	0.1087	0.5525	0.4424	1.4709	0.8202	0.7124	0.2844	1.8835	1.1562	1.3322	2.0148	1.1498	0.9018	0.9665	0.8979	0.5263	0.3927	0.8094	0.5724	-0.803	-0.5119
132.8125	0.0823	1.4189	0.2753	1.7791	1.7192	0.9584	0.6677	-0.023	-0.0276	0.4106	0.8106	0.6773	1.9181	1.3348	0.831	0.6618	2.2224	1.2681	1.7112	2.6197	1.7105	1.399	1.3134	1.2443	0.7128	0.5783	1.1041	0.7448	-0.9073	-0.6476
136.7188	0.1245	1.4961	0.3023	2.015	1.9981	1.2541	0.9305	0.1755	0.1169	0.627	1.0099	0.8571	2.2226	1.6773	0.827	0.8573	2.3668	1.2471	1.9088	3.0171	2.089	1.7249	1.5216	1.4648	0.8307	0.6865	1.2981	0.8542	-1.031	-0.7875
140.625	0.0969	1.3903	0.244	2.0457	2.0819	1.3924	1.0618	0.3123	0.1967	0.7389	1.1339	0.9667	2.3598	1.8181	0.6925	0.8422	2.2964	1.0932	1.9163	3.1694	2.2517	1.853	1.5777	1.5475	0.8765	0.7159	1.3803	0.896	-1.1699	-0.9242
144.5312	-0.0102	1.096	0.0964	1.862	1.9671	1.3623	1.0563	0.377	0.2073	0.7408	1.1762	0.9998	2.3274	1.7555	0.4378	0.6146	2.0186	0.8196	1.7476	3.0697	2.1935	1.7834	1.4881	1.4968	0.8564	0.6758	1.3534	0.8735	-1.3189	-1.0515
148.4375	-0.198	0.6328	-0.134	1.4814	1.6737	1.1738	0.9248	0.3698	0.1536	0.6408	1.1401	0.9581	2.1436	1.5135	0.0881	0.199	1.5662	0.4502	1.4329	2.7419	1.9364	1.5406	1.276	1.331	0.7841	0.5833	1.2317	0.7957	-1.4727	-1.1658
152.3438	-0.4584	0.0414	-0.4313	0.9441	1.2409	0.8547	0.6916	0.2993	0.0484	0.4573	1.0365	0.8509	1.8417	1.1355	-0.3217	-0.3587	0.9901	0.0164	1.0113	2.2341	1.5246	1.1674	0.9769	1.0781	0.678	0.4593	1.0377	0.6756	-1.6262	-1.2666
156.25	-0.7749	-0.6234	-0.7723	0.3064	0.7193	0.4452	0.3899	0.1801	-0.0907	0.2155	0.8816	0.6928	1.4626	0.6756	-0.7535	-0.9997	0.3506	-0.4467	0.5237	1.6099	1.0145	0.716	0.6314	0.7704	0.557	0.3237	0.7969	0.527	-1.7742	-1.3567
160.1562	-1.125	-1.302	-1.1304	-0.3687	0.1628	-0.0097	0.0566	0.0304	-0.2448	-0.0568	0.6935	0.5007	1.0476	0.1883	-1.1717	-1.6613	-0.2935	-0.904	0.0075	0.9368	0.4655	0.239	0.2779	0.4395	0.4373	0.192	0.5339	0.3625	-1.9121	-1.4401
164.0625	-1.4835	-1.9385	-1.479	-1.0214	-0.3794	-0.4665	-0.2719	-0.1314	-0.3971	-0.3332	0.4896	0.2921	0.6324	-0.279	-1.5472	-2.2871	-0.8928	-1.3243	-0.5073	0.2762	-0.0697	-0.2189	-0.0526	0.1124	0.3294	0.0724	0.2694	0.1918	-2.0363	-1.5213
167.9688	-1.826	-2.4882	-1.7941	-1.6021	-0.868	-0.888	-0.5649	-0.2887	-0.5358	-0.5914	0.2847	0.0818	0.2444	-0.6913	-1.8596	-2.8335	-1.4131	-1.683	-1.0002	-0.3239	-0.5509	-0.6253	-0.3401	-0.1907	0.2377	-0.0338	0.0178	0.0214	-2.1445	-1.6035
171.875	-2.1318	-2.9209	-2.0569	-2.0762	-1.2767	-1.2465	-0.8003	-0.4284	-0.6554	-0.8153	0.0898	-0.1189	-0.0987	-1.0281	-2.0979	-3.2729	-1.8359	-1.9645	-1.4583	-0.8315	-0.953	-0.9615	-0.5763	-0.4572	0.1606	-0.1318	-0.2123	-0.1456	-2.2356	-1.6875
175.7812	-2.3846	-3.222	-2.2546	-2.4257	-1.592	-1.5244	-0.968	-0.5423	-0.7558	-0.9956	-0.0882	-0.303	-0.3869	-1.2813	-2.259	-3.5936	-2.1564	-2.1625	-1.873	-1.2296	-1.2641	-1.2217	-0.7617	-0.6812	0.0923	-0.2306	-0.4176	-0.3079	-2.309	-1.7711
179.6875	-2.5732	-3.3906	-2.3812	-2.647	-1.8116	-1.7146	-1.0695	-0.6271	-0.8404	-1.1291	-0.2451	-0.468	-0.6163	-1.452	-2.3465	-3.7966	-2.3786	-2.2791	-2.236	-1.5134	-1.4822	-1.4091	-0.9027	-0.8615	0.0253	-0.34	-0.5979	-0.4651	-2.3639	-1.8494
183.5938	-2.6896	-3.4372	-2.437	-2.7484	-1.9413	-1.8185	-1.1158	-0.6839	-0.9139	-1.2172	-0.3783	-0.614	-0.7863	-1.547	-2.3683	-3.891	-2.5107	-2.3229	-2.5353	-1.6855	-1.6114	-1.5325	-1.0074	-1.0001	-0.0477	-0.4669	-0.7541	-0.616	-2.3981	-1.9152
187.5	-2.7283	-3.3799	-2.4282	-2.7457	-1.9922	-1.8449	-1.1237	-0.7167	-0.9789	-1.264	-0.4853	-0.7426	-0.8972	-1.5747	-2.335	-3.8906	-2.5621	-2.3061	-2.7559	-1.7532	-1.6586	-1.6018	-1.0833	-1.1	-0.1313	-0.6133	-0.8868	-0.7583	-2.4085	-1.9606
191.4062	-2.6865	-3.2423	-2.3658	-2.659	-1.9774	-1.807	-1.1103	-0.7307	-1.0352	-1.2741	-0.5623	-0.8543	-0.9494	-1.5441	-2.2586	-3.8109	-2.5414	-2.2423	-2.8819	-1.7261	-1.6317	-1.6263	-1.1355	-1.1643	-0.2267	-0.7746	-0.9949	-0.8884	-2.3916	-1.9786
195.3125	-2.5642	-3.0498	-2.2638	-2.5093	-1.9103	-1.7209	-1.0887	-0.7304	-1.0789	-1.2519	-0.6051	-0.9468	-0.943	-1.4636	-2.1517	-3.6675	-2.4564	-2.1444	-2.902	-1.615	-1.5392	-1.613	-1.1666	-1.1956	-0.331	-0.9399	-1.0759	-1.0011	-2.3453	-1.9649
199.2188	-2.3672	-2.8275	-2.1377	-2.316	-1.8029	-1.6025	-1.0654	-0.7186	-1.1039	-1.2002	-0.6092	-1.0143	-0.8788	-1.3415	-2.0271	-3.4754	-2.315	-2.0242	-2.8129	-1.432	-1.3906	-1.5669	-1.1776	-1.196	-0.4383	-1.0942	-1.1259	-1.091	-2.2704	-1.9193
203.125	-2.1086	-2.5975	-2.0026	-2.0962	-1.6653	-1.466	-1.0398	-0.6957	-1.1032	-1.1216	-0.5717	-1.0485	-0.7598	-1.186	-1.8966	-3.2489	-2.1266	-1.8918	-2.6219	-1.1909	-1.1964	-1.4923	-1.1689	-1.1674	-0.5407	-1.2223	-1.1411	-1.1535	-2.1716	-1.8464
207.0312	-1.8096	-2.3778	-1.8719	-1.8639	-1.506	-1.3227	-1.0065	-0.6601	-1.0718	-1.0182	-0.4931	-1.0403	-0.5923	-1.0064	-1.7705	-3.0016	-1.903	-1.7564	-2.3472	-0.9075	-0.9686	-1.3944	-1.1416	-1.112	-0.6299	-1.3117	-1.1194	-1.1851	-2.0574	-1.7549
210.9375	-1.4987	-2.181	-1.7566	-1.6312	-1.3325	-1.1809	-0.9586	-0.6101	-1.0078	-0.8933	-0.3782	-0.9828	-0.3872	-0.8128	-1.656	-2.7466	-1.6594	-1.6268	-2.0153	-0.6003	-0.721	-1.2799	-1.0981	-1.0328	-0.6989	-1.3559	-1.0608	-1.1843	-1.9394	-1.6563
214.8438	-1.2085	-2.016	-1.6654	-1.4094	-1.1532	-1.0474	-0.8917	-0.5449	-0.9138	-0.7523	-0.2363	-0.8737	-0.1592	-0.6162	-1.5571	-2.4969	-1.4141	-1.5117	-1.659	-0.2898	-0.4692	-1.1579	-1.0423	-0.934	-0.7427	-1.3554	-0.9688	-1.1519	-1.831	-1.5626
218.75	-0.9717	-1.8887	-1.6051	-1.2102	-0.9778	-0.9281	-0.8058	-0.4658	-0.7966	-0.6023	-0.0801	-0.7163	0.0733	-0.4285	-1.4743	-2.2657	-1.1871	-1.4198	-1.3139	0.0016	-0.2301	-1.0394	-0.9795	-0.8205	-0.7597	-1.3168	-0.8498	-1.0903	-1.7455	-1.4849
222.6562	-0.816	-1.8041	-1.5809	-1.0461	-0.8184	-0.8296	-0.7066	-0.3767	-0.6662	-0.4522	0.0763	-0.5202	0.2913	-0.2618	-1.4063	-2.0663	-0.9986	-1.3591	-1.0158	0.2509	-0.0215	-0.936	-0.9165	-0.6984	-0.7511	-1.251	-0.7127	-1.0042	-1.6948	-1.4314
226.5625	-0.7599	-1.7673	-1.5967	-0.9305	-0.6887	-0.759	-0.6043	-0.2834	-0.5339	-0.311	0.2201	-0.2998	0.4774	-0.1275	-1.3527	-1.9122	-0.8667	-1.3373	-0.7973	0.4369	0.1396	-0.8591	-0.8606	-0.5748	-0.7211	-1.1702	-0.5677	-0.8996	-1.6878	-1.4063
230.4688	-0.8085	-1.7837	-1.6546	-0.8753	-0.6024	-0.7233	-0.5106	-0.1927	-0.4099	-0.1863	0.3426	-0.072	0.6189	-0.035	-1.3155	-1.8161	-0.8048	-1.36	-0.6848	0.542	0.2385	-0.8178	-0.8193	-0.4571	-0.6759	-1.085	-0.4249	-0.7834	-1.729	-1.4094
234.375	-0.9534	-1.858	-1.754	-0.8896	-0.5711	-0.7279	-0.4362	-0.1118	-0.302	-0.0833	0.4403	0.146	0.7099	0.0094	-1.2998	-1.7881	-0.8194	-1.4303	-0.6943	0.5555	0.2656	-0.8183	-0.7993	-0.3527	-0.6222	-1.0022	-0.2933	-0.6627	-1.8175	-1.4366
238.2812	-1.1735	-1.9919	-1.8902	-0.9763	-0.6016	-0.7753	-0.3884	-0.047	-0.2144	-0.0042	0.5148	0.3395	0.7526	0.0037	-1.3127	-1.8337	-0.9082	-1.5465	-0.8281	0.4748	0.2175	-0.8621	-0.8054	-0.2682	-0.5662	-0.924	-0.1788	-0.5435	-1.9469	-1.4799
242.1875	-1.4393	-2.1827	-2.0544	-1.1312	-0.6942	-0.8639	-0.3695	-0.0034	-0.1482	0.0511	0.5715	0.4982	0.7557	-0.0495	-1.3601	-1.9518	-1.0602	-1.7017	-1.0732	0.3066	0.0984	-0.947	-0.8387	-0.2085	-0.5124	-0.8484	-0.0848	-0.4304	-2.105	-1.529
246.0938	-1.7185	-2.422	-2.2342	-1.3426	-0.8419	-0.9881	-0.3772	0.0153	-0.1022	0.0845	0.6169	0.6169	0.7324	-0.144	-1.4448	-2.1348	-1.2568	-1.883	-1.4018	0.0653	-0.081	-1.0667	-0.8967	-0.1762	-0.4635	-0.7711	-0.0116	-0.3263	-2.2757	-1.573
250	-1.9811	-2.6969	-2.415	-1.5928	-1.032	-1.1388	-0.4054	0.0071	-0.0744	0.0977	0.6561	0.6955	0.6962	-0.271	-1.564	-2.3688	-1.4754	-2.0728	-1.7764	-0.2296	-0.3056	-1.2133	-0.9733	-0.1713	-0.4208	-0.6883	0.0421	-0.2331	-2.4403	-1.6021
253.9062	-2.204	-2.9915	-2.5829	-1.8609	-1.2482	-1.305	-0.4455	-0.0285	-0.0629	0.0918	0.6907	0.7374	0.6584	-0.4203	-1.7095	-2.636	-1.6935	-2.2515	-2.1557	-0.556	-0.5581	-1.3779	-1.0599	-0.1912	-0.3847	-0.5985	0.0785	-0.152	-2.5806	-1.6087
257.8125	-2.3736	-3.2892	-2.7272	-2.1267	-1.4738	-1.4755	-0.4879	-0.0897	-0.0664	0.0666	0.7191	0.7481	0.6256	-0.5819	-1.8691	-2.9172	-1.8929	-2.4002	-2.5012	-0.8928	-0.8214	-1.552	-1.1477	-0.2316	-0.3557	-0.5037	0.0997	-0.0841	-2.6808	-1.5891
261.7188	-2.4867	-3.5752	-2.8419	-2.3735	-1.6939	-1.6403	-0.5237	-0.1728	-0.084	0.0215	0.7367	0.7332	0.5993	-0.7464	-2.0287	-3.1934	-2.0615	-2.5045	-2.7824	-1.2212	-1.0808	-1.7281	-1.2291	-0.2866	-0.3346	-0.4092	0.107	-0.0305	-2.731	-1.5436
265.625	-2.5493	-3.838	-2.9265	-2.5902	-1.8979	-1.7917	-0.547	-0.2719	-0.1145	-0.0442	0.7378	0.6972	0.576	-0.9061	-2.1751	-3.4479	-2.1943	-2.5562	-2.9813	-1.5266	-1.3243	-1.8996	-1.2994	-0.3501	-0.3222	-0.3229	0.1013	0.0076	-2.7276	-1.476
269.5312	-2.5752	-4.0709	-2.9855	-2.7724	-2.0801	-1.9252	-0.5559	-0.3795	-0.1558	-0.1301	0.7171	0.6429	0.5487	-1.0554	-2.298	-3.6674	-2.2922	-2.5552	-3.0933	-1.7983	-1.5439	-2.0611	-1.3575	-0.4164	-0.3195	-0.253	0.0825	0.0296	-2.6749	-1.3936
273.4375	-2.583	-4.272	-3.0266	-2.9219	-2.2404	-2.04	-0.5541	-0.4879	-0.2056	-0.2348	0.6711	0.5717	0.5085	-1.1911	-2.3912	-3.843	-2.3593	-2.5083	-3.1276	-2.0299	-1.735	-2.2072	-1.4051	-0.4814	-0.3272	-0.2061	0.0505	0.0357	-2.5839	-1.3053
277.3438	-2.5927	-4.4433	-3.0591	-3.045	-2.3832	-2.1386	-0.5501	-0.5904	-0.2609	-0.3558	0.5987	0.4839	0.447	-1.3131	-2.4523	-3.9704	-2.4016	-2.4284	-3.1032	-2.2185	-1.8966	-2.3328	-1.4461	-0.5423	-0.3444	-0.1864	0.0054	0.027	-2.4704	-1.2206
281.25	-2.6216	-4.5896	-3.0912	-3.1505	-2.5163	-2.2259	-0.5555	-0.6818	-0.3191	-0.4893	0.5023	0.3809	0.358	-1.4235	-2.4824	-4.0507	-2.4252	-2.3311	-3.0444	-2.365	-2.0302	-2.4337	-1.4845	-0.5979	-0.369	-0.194	-0.0516	0.0062	-2.3525	-1.1483
285.1562	-2.6812	-4.7152	-3.1286	-3.2467	-2.6483	-2.3076	-0.5822	-0.7591	-0.3776	-0.6302	0.3881	0.2661	0.2399	-1.5259	-2.4844	-4.0885	-2.4359	-2.2327	-2.9748	-2.4731	-2.1399	-2.5065	-1.5233	-0.648	-0.3969	-0.2252	-0.1181	-0.0228	-2.2473	-1.0944
289.0625	-2.7745	-4.8227	-3.1729	-3.339	-2.7855	-2.3883	-0.6387	-0.8206	-0.4337	-0.7713	0.2656	0.1461	0.0964	-1.6237	-2.4622	-4.0913	-2.4385	-2.147	-2.9121	-2.5488	-2.2302	-2.5504	-1.5639	-0.6929	-0.4231	-0.2727	-0.1899	-0.0547	-2.1685	-1.062
292.9688	-2.8955	-4.91	-3.2212	-3.4279	-2.9292	-2.4694	-0.7273	-0.8651	-0.4841	-0.9034	0.1477	0.0313	-0.0623	-1.7182	-2.4203	-4.067	-2.4368	-2.0845	-2.8659	-2.5983	-2.3055	-2.5667	-1.6052	-0.7325	-0.4421	-0.3272	-0.2606	-0.0835	-2.1236	-1.05
296.875	-3.0304	-4.9701	-3.2668	-3.508	-3.0735	-2.5474	-0.8409	-0.8913	-0.5248	-1.0156	0.0481	-0.0658	-0.2209	-1.807	-2.3634	-4.0217	-2.4325	-2.0499	-2.8367	-2.6262	-2.3677	-2.5589	-1.644	-0.7656	-0.4495	-0.3782	-0.3229	-0.1036	-2.1132	-1.0541
300.7812	-3.1597	-4.9915	-3.3001	-3.5688	-3.2052	-2.6142	-0.9641	-0.8969	-0.5508	-1.0963	-0.0199	-0.133	-0.3606	-1.8835	-2.296	-3.958	-2.4247	-2.0424	-2.8178	-2.6337	-2.4156	-2.531	-1.6752	-0.7902	-0.4425	-0.4162	-0.3692	-0.1114	-2.1305	-1.0671
304.6875	-3.2614	-4.9602	-3.3109	-3.5968	-3.3056	-2.6581	-1.0747	-0.8798	-0.5571	-1.1349	-0.0465	-0.1603	-0.4623	-1.9376	-2.2223	-3.8745	-2.4099	-2.0555	-2.7984	-2.6184	-2.445	-2.4866	-1.6924	-0.803	-0.4212	-0.434	-0.3931	-0.1055	-2.1626	-1.0803
308.5938	-3.3153	-4.8639	-3.2901	-3.5789	-3.3557	-2.6665	-1.1496	-0.8382	-0.5398	-1.1245	-0.0271	-0.1433	-0.5098	-1.9588	-2.1456	-3.7674	-2.3828	-2.078	-2.7674	-2.575	-2.4496	-2.4277	-1.6892	-0.8007	-0.3878	-0.4278	-0.3909	-0.088	-2.1929	-1.0851
312.5	-3.3069	-4.6969	-3.2323	-3.5066	-3.3408	-2.6302	-1.1708	-0.7728	-0.4974	-1.0638	0.0359	-0.0839	-0.494	-1.9392	-2.0679	-3.6331	-2.3388	-2.0971	-2.7173	-2.499	-2.4242	-2.3555	-1.6607	-0.7808	-0.3471	-0.3982	-0.3622	-0.0634	-2.2048	-1.0739
316.4062	-3.2307	-4.4632	-3.1374	-3.3793	-3.2563	-2.5461	-1.1309	-0.6875	-0.432	-0.9587	0.1332	0.0096	-0.4152	-1.8774	-1.9911	-3.4713	-2.2766	-2.1011	-2.6469	-2.3903	-2.3674	-2.2717	-1.6055	-0.743	-0.3055	-0.3498	-0.311	-0.0377	-2.1851	-1.0422
320.3125	-3.0917	-4.1787	-3.0114	-3.206	-3.1101	-2.42	-1.0354	-0.59	-0.3502	-0.8221	0.2496	0.1231	-0.2845	-1.7801	-1.9177	-3.2884	-2.2004	-2.0838	-2.5616	-2.2555	-2.2835	-2.1801	-1.527	-0.6904	-0.2705	-0.2912	-0.2451	-0.0174	-2.1276	-0.9893
324.2188	-2.9054	-3.8702	-2.8659	-3.0049	-2.9227	-2.2661	-0.9017	-0.4906	-0.2621	-0.6729	0.366	0.2393	-0.1226	-1.662	-1.8515	-3.0981	-2.1207	-2.0458	-2.4733	-2.1094	-2.1833	-2.0887	-1.4347	-0.6301	-0.2497	-0.2331	-0.1756	-0.0081	-2.034	-0.9183
328.125	-2.6945	-3.571	-2.7164	-2.8006	-2.7233	-2.105	-0.7552	-0.4008	-0.1799	-0.5329	0.4629	0.3403	0.0431	-1.5436	-1.798	-2.9208	-2.0534	-1.9957	-2.3986	-1.973	-2.083	-2.0096	-1.3432	-0.5727	-0.2494	-0.1875	-0.1151	-0.0137	-1.9134	-0.8354
332.0312	-2.4856	-3.3153	-2.5795	-2.6205	-2.5447	-1.9601	-0.6233	-0.331	-0.1158	-0.4229	0.5235	0.4104	0.1835	-1.4478	-1.7631	-2.7796	-2.017	-1.9469	-2.3561	-1.8697	-2.0012	-1.9571	-1.2706	-0.531	-0.2735	-0.1647	-0.076	-0.0352	-1.7793	-0.7485
335.9375	-2.3036	-3.1305	-2.4704	-2.4892	-2.4163	-1.8534	-0.5297	-0.2886	-0.0789	-0.3596	0.5367	0.4389	0.2732	-1.3952	-1.7509	-2.6959	-2.0285	-1.9149	-2.3634	-1.8204	-1.9557	-1.9447	-1.2347	-0.5175	-0.3225	-0.1712	-0.068	-0.0712	-1.646	-0.6646
339.8438	-2.1672	-3.0323	-2.3998	-2.4243	-2.3589	-1.8011	-0.4902	-0.2766	-0.0737	-0.3518	0.4997	0.422	0.2949	-1.4003	-1.7622	-2.6838	-2.099	-1.9119	-2.4335	-1.8392	-1.9595	-1.9817	-1.249	-0.5415	-0.3926	-0.2082	-0.0959	-0.1176	-1.5253	-0.5884
343.75	-2.0862	-3.0212	-2.3724	-2.433	-2.3808	-1.8112	-0.5102	-0.2929	-0.099	-0.3993	0.4181	0.3636	0.2434	-1.4681	-1.7943	-2.7464	-2.2302	-1.944	-2.5726	-1.9292	-2.0179	-2.07	-1.319	-0.6062	-0.4758	-0.2706	-0.1588	-0.1685	-1.4246	-0.5223
347.6562	-2.0601	-3.0836	-2.3867	-2.5105	-2.4768	-1.8818	-0.5845	-0.3315	-0.1475	-0.4929	0.305	0.2744	0.1253	-1.5934	-1.8416	-2.8737	-2.4131	-2.0099	-2.777	-2.0823	-2.1272	-2.2026	-1.441	-0.7075	-0.5608	-0.3481	-0.2492	-0.2171	-1.3471	-0.4667
351.5625	-2.0791	-3.1956	-2.4354	-2.6417	-2.6307	-2.0024	-0.7004	-0.3834	-0.2081	-0.6165	0.1782	0.1695	-0.0429	-1.7616	-1.8978	-3.0449	-2.6289	-2.1017	-3.0341	-2.2805	-2.2756	-2.3658	-1.6019	-0.8347	-0.6356	-0.4273	-0.3555	-0.2569	-1.2917	-0.4206
355.4688	-2.1279	-3.3292	-2.5075	-2.8042	-2.819	-2.1564	-0.8408	-0.4385	-0.2683	-0.7506	0.0565	0.0656	-0.2385	-1.9525	-1.9572	-3.2322	-2.8526	-2.2069	-3.3232	-2.5	-2.4462	-2.5414	-1.7826	-0.9724	-0.6891	-0.4942	-0.4631	-0.2823	-1.2553	-0.3828
359.375	-2.1892	-3.4575	-2.5905	-2.9736	-3.0163	-2.3242	-0.9886	-0.4881	-0.3172	-0.8768	-0.0438	-0.0225	-0.4384	-2.144	-2.0164	-3.4068	-3.0578	-2.312	-3.6196	-2.7158	-2.6202	-2.7107	-1.9614	-1.1041	-0.714	-0.537	-0.5583	-0.2894	-1.2333	-0.352
363.2812	-2.2476	-3.5582	-2.6722	-3.1277	-3.2006	-2.4871	-1.1297	-0.5263	-0.3481	-0.9807	-0.1121	-0.0842	-0.6223	-2.317	-2.0738	-3.5446	-3.2216	-2.4047	-3.8976	-2.9067	-2.7811	-2.8578	-2.1178	-1.2155	-0.7083	-0.548	-0.6301	-0.2765	-1.2213	-0.3268
367.1875	-2.2922	-3.6154	-2.7427	-3.25	-3.3558	-2.6294	-1.2547	-0.5512	-0.3601	-1.0548	-0.1443	-0.1149	-0.7764	-2.4578	-2.1289	-3.6301	-3.328	-2.4757	-4.1342	-3.0575	-2.9161	-2.9714	-2.2359	-1.2964	-0.6757	-0.5246	-0.6716	-0.2437	-1.2153	-0.3055
371.0938	-2.3175	-3.6197	-2.7943	-3.3304	-3.4734	-2.7408	-1.3579	-0.5647	-0.3574	-1.0981	-0.1432	-0.1156	-0.8933	-2.559	-2.1803	-3.6574	-3.3703	-2.5193	-4.3111	-3.1597	-3.0168	-3.0447	-2.3059	-1.3418	-0.6247	-0.4697	-0.681	-0.1934	-1.2125	-0.2863
375	-2.3227	-3.5676	-2.8223	-3.3661	-3.5517	-2.8159	-1.4371	-0.5717	-0.3484	-1.1157	-0.1165	-0.0924	-0.9714	-2.6195	-2.2248	-3.6294	-3.3501	-2.5332	-4.4161	-3.2109	-3.0792	-3.0759	-2.3248	-1.3512	-0.5663	-0.3905	-0.6606	-0.1294	-1.2114	-0.2671
378.9062	-2.3099	-3.4622	-2.8248	-3.3598	-3.5941	-2.8549	-1.4913	-0.5786	-0.3423	-1.1157	-0.0747	-0.0544	-1.0136	-2.6426	-2.2573	-3.5557	-3.2762	-2.5186	-4.4437	-3.2132	-3.1026	-3.0668	-2.2961	-1.3277	-0.5116	-0.2977	-0.6162	-0.057	-1.2115	-0.2457
382.8125	-2.2826	-3.313	-2.8025	-3.3187	-3.6063	-2.8615	-1.5204	-0.5911	-0.3467	-1.1067	-0.0288	-0.0115	-1.0251	-2.6349	-2.2713	-3.4499	-3.1619	-2.4797	-4.3947	-3.1728	-3.0895	-3.0227	-2.2295	-1.2768	-0.4694	-0.2037	-0.5554	0.0175	-1.2136	-0.221
386.7188	-2.2442	-3.1354	-2.7589	-3.2527	-3.5943	-2.8422	-1.524	-0.6123	-0.365	-1.0953	0.0124	0.0276	-1.012	-2.6047	-2.261	-3.3275	-3.0229	-2.4235	-4.2759	-3.0985	-3.0449	-2.9521	-2.1389	-1.2055	-0.4448	-0.1212	-0.4867	0.0873	-1.2193	-0.1927
390.625	-2.1978	-2.9493	-2.6998	-3.1731	-3.563	-2.8044	-1.5013	-0.6415	-0.395	-1.0842	0.0432	0.0562	-0.981	-2.5609	-2.2231	-3.2037	-2.8743	-2.3589	-4.0992	-3.0021	-2.9767	-2.8659	-2.0411	-1.122	-0.439	-0.0615	-0.419	0.1458	-1.2302	-0.1621
394.5312	-2.1457	-2.776	-2.632	-3.0903	-3.5152	-2.7546	-1.4519	-0.6737	-0.4295	-1.0727	0.0617	0.0708	-0.9392	-2.5118	-2.158	-3.0914	-2.7292	-2.2955	-3.8803	-2.8963	-2.8942	-2.7762	-1.9526	-1.0351	-0.4499	-0.033	-0.3599	0.1869	-1.2466	-0.1313
398.4375	-2.0888	-2.6339	-2.562	-3.0122	-3.4518	-2.6979	-1.3759	-0.7011	-0.4578	-1.0572	0.0694	0.0704	-0.8933	-2.4639	-2.0704	-2.9989	-2.5967	-2.2417	-3.6372	-2.7939	-2.8071	-2.6936	-1.8866	-0.953	-0.4731	-0.0396	-0.3158	0.2066	-1.2667	-0.1027
402.3438	-2.0268	-2.535	-2.4937	-2.9422	-3.3721	-2.6369	-1.2748	-0.7149	-0.4693	-1.0328	0.0704	0.0572	-0.8496	-2.4204	-1.9684	-2.9289	-2.4814	-2.2031	-3.3884	-2.7048	-2.7232	-2.6255	-1.8505	-0.8823	-0.5027	-0.0794	-0.2903	0.2031	-1.2853	-0.0781
406.25	-1.9578	-2.4829	-2.4285	-2.8789	-3.2747	-2.572	-1.1522	-0.7077	-0.4555	-0.996	0.0698	0.0357	-0.8128	-2.3812	-1.8619	-2.8774	-2.3832	-2.1808	-3.1504	-2.6347	-2.6473	-2.5743	-1.8442	-0.8265	-0.5323	-0.1451	-0.2833	0.1782	-1.295	-0.0577
410.1562	-1.879	-2.472	-2.3641	-2.817	-3.1584	-2.502	-1.0134	-0.6761	-0.4127	-0.9454	0.0721	0.0125	-0.7853	-2.3428	-1.7602	-2.8354	-2.2982	-2.1713	-2.9368	-2.5834	-2.58	-2.537	-1.8601	-0.7852	-0.5555	-0.2245	-0.2916	0.1367	-1.2876	-0.0408
414.0625	-1.788	-2.4891	-2.2967	-2.749	-3.0234	-2.4255	-0.8657	-0.6215	-0.343	-0.8826	0.0807	-0.0046	-0.7668	-2.299	-1.6708	-2.7913	-2.2201	-2.1668	-2.7563	-2.545	-2.5178	-2.5063	-1.8848	-0.7545	-0.5666	-0.3029	-0.3083	0.0865	-1.2564	-0.0258
417.9688	-1.6847	-2.5157	-2.2221	-2.668	-2.8717	-2.3412	-0.7168	-0.5498	-0.2535	-0.8119	0.0967	-0.0079	-0.7539	-2.2431	-1.5975	-2.7337	-2.1424	-2.157	-2.6133	-2.5092	-2.4548	-2.4726	-1.9022	-0.7281	-0.5612	-0.3653	-0.3249	0.0369	-1.1991	-0.0117
421.875	-1.5729	-2.5319	-2.1378	-2.5694	-2.7071	-2.2491	-0.574	-0.4702	-0.1544	-0.7393	0.1198	0.0085	-0.7411	-2.1689	-1.5408	-2.6546	-2.0596	-2.1315	-2.508	-2.4636	-2.3836	-2.4264	-1.8972	-0.6997	-0.5369	-0.3998	-0.333	-0.0024	-1.1187	0.0012
425.7812	-1.4609	-2.5199	-2.0438	-2.452	-2.5353	-2.1504	-0.4433	-0.3935	-0.0573	-0.6711	0.148	0.0472	-0.7218	-2.0724	-1.4981	-2.5503	-1.9687	-2.0823	-2.4372	-2.3964	-2.2975	-2.3608	-1.859	-0.6642	-0.494	-0.3996	-0.3257	-0.0235	-1.0241	0.0104
429.6875	-1.3599	-2.4673	-1.9435	-2.3186	-2.3624	-2.0473	-0.3293	-0.3298	0.0275	-0.6124	0.1785	0.1067	-0.6899	-1.9528	-1.4638	-2.4226	-1.8695	-2.0059	-2.3959	-2.2992	-2.1918	-2.2727	-1.7833	-0.62	-0.4355	-0.3651	-0.2998	-0.022	-0.928	0.0124
433.5938	-1.2812	-2.3692	-1.8421	-2.1743	-2.1944	-1.9424	-0.2345	-0.2866	0.0926	-0.5665	0.2083	0.1815	-0.6411	-1.8126	-1.4297	-2.2771	-1.7646	-1.9046	-2.3775	-2.1693	-2.0654	-2.1631	-1.6723	-0.5685	-0.367	-0.3029	-0.2561	0.0025	-0.8441	0.0031
437.5	-1.2327	-2.2286	-1.7453	-2.0252	-2.0359	-1.838	-0.1597	-0.2672	0.1347	-0.5336	0.2344	0.2632	-0.5738	-1.6576	-1.3872	-2.1227	-1.6581	-1.7858	-2.3743	-2.0099	-1.9207	-2.0363	-1.5336	-0.5139	-0.2949	-0.2244	-0.1988	0.0468	-0.7843	-0.0204
441.4062	-1.2166	-2.0557	-1.6579	-1.8772	-1.8898	-1.7356	-0.104	-0.2699	0.1546	-0.5115	0.255	0.3433	-0.4899	-1.4962	-1.3289	-1.9691	-1.5552	-1.6601	-2.3776	-1.8298	-1.7638	-1.8988	-1.3781	-0.461	-0.2255	-0.1424	-0.1341	0.1048	-0.7559	-0.0594
445.3125	-1.2287	-1.8658	-1.583	-1.7348	-1.7572	-1.6356	-0.0643	-0.2884	0.1577	-0.4954	0.2701	0.4153	-0.3941	-1.3381	-1.2513	-1.8256	-1.4605	-1.5394	-2.3775	-1.6416	-1.6036	-1.7581	-1.2173	-0.4138	-0.163	-0.0682	-0.0683	0.17	-0.7612	-0.1127
449.2188	-1.2594	-1.6759	-1.5214	-1.6006	-1.6378	-1.5378	-0.0362	-0.3132	0.1526	-0.4791	0.2822	0.4766	-0.2925	-1.1934	-1.1565	-1.6994	-1.3778	-1.4342	-2.3632	-1.4591	-1.4507	-1.6218	-1.0616	-0.3742	-0.1091	-0.009	-0.0059	0.2366	-0.7971	-0.1778
453.125	-1.2967	-1.5018	-1.4722	-1.4759	-1.5305	-1.4415	-0.014	-0.3336	0.1499	-0.4561	0.2967	0.5289	-0.1919	-1.0707	-1.0527	-1.5954	-1.3087	-1.3511	-2.3239	-1.2955	-1.3157	-1.4959	-0.9189	-0.3421	-0.0622	0.0336	0.051	0.3016	-0.8566	-0.2505
457.0312	-1.3281	-1.3555	-1.4328	-1.3605	-1.434	-1.3457	0.0094	-0.3396	0.1607	-0.4199	0.3209	0.5771	-0.0974	-0.9753	-0.9524	-1.5151	-1.2525	-1.292	-2.2512	-1.1604	-1.2064	-1.3848	-0.7937	-0.3151	-0.0188	0.0632	0.1032	0.3648	-0.9305	-0.3261
460.9375	-1.3426	-1.243	-1.3994	-1.2533	-1.3465	-1.2494	0.0417	-0.324	0.1945	-0.366	0.3627	0.628	-0.0107	-0.9077	-0.8689	-1.4565	-1.2054	-1.2534	-2.14	-1.059	-1.1265	-1.2893	-0.6867	-0.2892	0.0263	0.0877	0.1544	0.4289	-1.0082	-0.3994
464.8438	-1.3322	-1.1646	-1.3668	-1.1517	-1.2654	-1.151	0.091	-0.2828	0.2577	-0.2919	0.4282	0.687	0.07	-0.8622	-0.8133	-1.4138	-1.1609	-1.2274	-1.991	-0.9904	-1.0733	-1.2066	-0.5954	-0.2593	0.0781	0.117	0.2097	0.4988	-1.0793	-0.4646
468.75	-1.2923	-1.1157	-1.3288	-1.0525	-1.1873	-1.0487	0.1639	-0.2162	0.3522	-0.1985	0.52	0.7566	0.15	-0.8287	-0.791	-1.379	-1.11	-1.2035	-1.8105	-0.9476	-1.0385	-1.1306	-0.5153	-0.2202	0.1399	0.1605	0.2744	0.5796	-1.1347	-0.5157
472.6562	-1.2229	-1.0884	-1.279	-0.952	-1.1085	-0.9411	0.2637	-0.1278	0.4743	-0.09	0.6355	0.8344	0.2358	-0.7945	-0.8001	-1.3425	-1.0427	-1.1712	-1.6096	-0.9193	-1.0098	-1.0529	-0.4408	-0.1681	0.2122	0.2242	0.3519	0.6744	-1.1667	-0.5471
476.5625	-1.1287	-1.0737	-1.2121	-0.8473	-1.0262	-0.828	0.3885	-0.0247	0.6149	0.0255	0.7665	0.9137	0.3317	-0.7483	-0.831	-1.2961	-0.951	-1.1224	-1.4028	-0.8926	-0.974	-0.9656	-0.3679	-0.1022	0.2911	0.3087	0.4419	0.7821	-1.1703	-0.5542
480.4688	-1.0186	-1.0632	-1.1258	-0.7376	-0.94	-0.7119	0.5306	0.0837	0.7604	0.1379	0.8998	0.984	0.4375	-0.6833	-0.8689	-1.2352	-0.8315	-1.0533	-1.2048	-0.8561	-0.9215	-0.8637	-0.295	-0.0258	0.3695	0.4081	0.5388	0.8966	-1.1436	-0.5349
484.375	-0.9044	-1.0499	-1.022	-0.6248	-0.852	-0.5975	0.6773	0.1869	0.8951	0.2361	1.0194	1.0343	0.5473	-0.5996	-0.8967	-1.1602	-0.6872	-0.9657	-1.0291	-0.8029	-0.8482	-0.7473	-0.2238	0.0532	0.4373	0.5108	0.6331	1.0066	-1.0884	-0.4907
488.2812	-0.7995	-1.029	-0.9074	-0.5133	-0.7666	-0.4915	0.814	0.2749	1.0037	0.3109	1.1096	1.0554	0.6505	-0.5037	-0.9003	-1.0766	-0.5289	-0.8667	-0.8858	-0.7319	-0.7569	-0.6223	-0.1592	0.1245	0.484	0.6014	0.7123	1.0986	-1.0111	-0.4276
492.1875	-0.7166	-0.9981	-0.7923	-0.4093	-0.6891	-0.401	0.9274	0.3397	1.0748	0.3564	1.1588	1.0432	0.7349	-0.4066	-0.8718	-0.9943	-0.3729	-0.767	-0.7809	-0.6473	-0.6564	-0.4993	-0.1076	0.1769	0.5007	0.6637	0.7645	1.1587	-0.9223	-0.3561
496.0938	-0.6659	-0.9564	-0.6888	-0.3195	-0.6237	-0.3322	1.0083	0.3768	1.1026	0.3717	1.1612	0.9993	0.7904	-0.3212	-0.8119	-0.9246	-0.2383	-0.678	-0.7151	-0.5572	-0.5585	-0.3911	-0.0748	0.2017	0.4825	0.6851	0.781	1.1766	-0.8358	-0.2891
500	-0.6537	-0.9045	-0.6081	-0.2493	-0.5731	-0.2888	1.054	0.3854	1.0881	0.3601	1.1188	0.9312	0.8116	-0.2584	-0.7297	-0.8773	-0.1421	-0.6092	-0.6833	-0.471	-0.4755	-0.3093	-0.0643	0.1951	0.4298	0.6586	0.7588	1.1477	-0.7649	-0.2397
503.9062	-0.6807	-0.8436	-0.5578	-0.202	-0.5371	-0.2711	1.0676	0.3683	1.0381	0.3284	1.0398	0.8507	0.7996	-0.2254	-0.6403	-0.8589	-0.095	-0.5656	-0.6741	-0.3972	-0.4174	-0.2613	-0.0753	0.1595	0.3489	0.5855	0.7014	1.0737	-0.7199	-0.2177
507.8125	-0.7413	-0.7745	-0.5404	-0.1776	-0.5136	-0.2763	1.057	0.3308	0.9629	0.2843	0.9367	0.771	0.7613	-0.2246	-0.56	-0.8705	-0.0988	-0.546	-0.6713	-0.3414	-0.3898	-0.2485	-0.1023	0.1036	0.2507	0.4748	0.6182	0.9626	-0.7047	-0.2271
511.7188	-0.8244	-0.6976	-0.5523	-0.1731	-0.4993	-0.2988	1.0327	0.2798	0.8739	0.2353	0.8238	0.7045	0.7076	-0.2528	-0.5027	-0.9077	-0.1451	-0.5434	-0.6571	-0.3052	-0.393	-0.2653	-0.1354	0.0407	0.1496	0.3417	0.5226	0.8271	-0.7159	-0.2652
515.625	-0.9138	-0.6121	-0.5848	-0.182	-0.4898	-0.331	1.0052	0.2223	0.7817	0.1867	0.7147	0.6604	0.6513	-0.3021	-0.4757	-0.9616	-0.2173	-0.5468	-0.6162	-0.2857	-0.4213	-0.3003	-0.162	-0.0137	0.0608	0.205	0.4297	0.6828	-0.7439	-0.3236
519.5312	-0.9913	-0.5168	-0.6259	-0.1956	-0.4803	-0.3642	0.9833	0.1653	0.6944	0.142	0.6202	0.643	0.605	-0.3611	-0.478	-1.0197	-0.2939	-0.5437	-0.5403	-0.2756	-0.4638	-0.3384	-0.1688	-0.0456	-0.0017	0.0834	0.3531	0.5451	-0.7752	-0.3901
523.4375	-1.0396	-0.4107	-0.6621	-0.2036	-0.4663	-0.3893	0.9729	0.1144	0.6175	0.103	0.5473	0.6512	0.579	-0.4162	-0.5006	-1.0678	-0.3529	-0.5231	-0.4307	-0.2647	-0.5062	-0.3636	-0.1445	-0.0445	-0.0279	-0.0072	0.3033	0.4274	-0.7968	-0.4526
527.3438	-1.045	-0.2939	-0.6812	-0.196	-0.4428	-0.3973	0.9765	0.0737	0.554	0.0704	0.4988	0.6786	0.5798	-0.4543	-0.5288	-1.0922	-0.3771	-0.4776	-0.2972	-0.2411	-0.5334	-0.362	-0.0824	-0.0056	-0.0128	-0.056	0.2854	0.3387	-0.7983	-0.5009
531.25	-1.0004	-0.1679	-0.6735	-0.1642	-0.4054	-0.3803	0.9936	0.046	0.5052	0.0449	0.4739	0.7158	0.6098	-0.4649	-0.5464	-1.0814	-0.3569	-0.4045	-0.1556	-0.1944	-0.5322	-0.3241	0.0186	0.0697	0.042	-0.0591	0.2995	0.2826	-0.7744	-0.5286
535.1562	-0.9063	-0.0357	-0.6329	-0.1023	-0.3502	-0.332	1.0219	0.0325	0.4715	0.028	0.4689	0.7524	0.6666	-0.4421	-0.5392	-1.028	-0.2917	-0.3057	-0.0228	-0.1172	-0.4943	-0.2467	0.1532	0.1746	0.1292	-0.019	0.3406	0.2575	-0.7243	-0.5335
539.0625	-0.771	0.0998	-0.5572	-0.0083	-0.2745	-0.2488	1.0581	0.0331	0.4532	0.0218	0.4792	0.7803	0.7443	-0.385	-0.4985	-0.9292	-0.1883	-0.187	0.0873	-0.0069	-0.4174	-0.1326	0.3111	0.2983	0.2369	0.0568	0.401	0.2579	-0.6508	-0.5161
542.9688	-0.6089	0.2359	-0.4483	0.1159	-0.1771	-0.1308	1.0988	0.0465	0.4506	0.0289	0.5003	0.795	0.8341	-0.2978	-0.4227	-0.7877	-0.0582	-0.0562	0.1667	0.1335	-0.3052	0.0108	0.4785	0.4282	0.3509	0.1571	0.4714	0.2765	-0.5589	-0.479
546.875	-0.4382	0.3706	-0.3114	0.2647	-0.0591	0.0176	1.1413	0.0706	0.4643	0.0517	0.5289	0.7972	0.927	-0.188	-0.3166	-0.6114	0.0855	0.0776	0.2137	0.2963	-0.1667	0.1727	0.6409	0.5525	0.4574	0.2699	0.5438	0.3064	-0.4541	-0.4253
550.7812	-0.2768	0.5021	-0.1549	0.4294	0.0762	0.1879	1.1838	0.1032	0.4951	0.0915	0.5634	0.7919	1.0145	-0.0648	-0.1905	-0.4128	0.2306	0.2056	0.2325	0.4706	-0.0139	0.3413	0.7853	0.6615	0.5451	0.3831	0.612	0.3424	-0.3421	-0.3585
554.6875	-0.1394	0.6285	0.0109	0.5996	0.2234	0.3684	1.2252	0.1424	0.543	0.1479	0.6038	0.7868	1.0905	0.0625	-0.0583	-0.2079	0.3679	0.3193	0.2308	0.6447	0.1409	0.5058	0.9023	0.7494	0.6067	0.4856	0.6723	0.3813	-0.2276	-0.2823
558.5938	-0.0345	0.7471	0.1748	0.7644	0.3752	0.5458	1.2646	0.1863	0.6067	0.2182	0.6506	0.7899	1.1506	0.186	0.0655	-0.0137	0.4908	0.4119	0.2176	0.8081	0.286	0.6574	0.9871	0.814	0.64	0.5682	0.723	0.4219	-0.1149	-0.2012
562.5	0.0358	0.855	0.3254	0.914	0.5236	0.7075	1.3005	0.2331	0.6827	0.2971	0.7041	0.8077	1.1925	0.2992	0.1673	0.1536	0.5954	0.4783	0.2012	0.9534	0.4125	0.7903	1.0402	0.8564	0.6479	0.6239	0.7639	0.4635	-0.0078	-0.1208
566.4062	0.0751	0.9498	0.4528	1.0408	0.6601	0.8431	1.3308	0.2803	0.7647	0.3776	0.763	0.8432	1.2152	0.3979	0.2366	0.2818	0.6798	0.5157	0.1875	1.0766	0.5146	0.9018	1.0672	0.8804	0.6372	0.6491	0.7952	0.5054	0.0894	-0.0483
570.3125	0.0907	1.0301	0.5489	1.1398	0.7771	0.9457	1.3523	0.3241	0.8441	0.4515	0.8234	0.8957	1.2185	0.4797	0.2667	0.3644	0.7432	0.5241	0.1802	1.1768	0.5894	0.992	1.0774	0.8905	0.6172	0.6435	0.8176	0.5458	0.1719	0.0081
574.2188	0.0909	1.0961	0.6087	1.2092	0.8681	1.0133	1.3621	0.3602	0.9111	0.5111	0.8798	0.9604	1.2035	0.5437	0.255	0.401	0.7855	0.5064	0.1808	1.2557	0.6371	1.0635	1.0825	0.8916	0.5972	0.6103	0.8312	0.5817	0.2345	0.0401
578.125	0.0829	1.1493	0.6306	1.2497	0.9292	1.0485	1.3581	0.3845	0.956	0.551	0.9254	1.0289	1.1729	0.5912	0.2038	0.3972	0.8068	0.4675	0.1899	1.3166	0.6606	1.1203	1.0937	0.8874	0.5847	0.5556	0.8358	0.609	0.2733	0.0411
582.0312	0.0712	1.1918	0.6168	1.2646	0.9601	1.0583	1.34	0.3944	0.972	0.5691	0.9542	1.0913	1.1318	0.6249	0.1205	0.3632	0.8073	0.4142	0.2078	1.3632	0.6656	1.1675	1.1201	0.8807	0.5835	0.4868	0.8312	0.6226	0.2864	0.0087
585.9375	0.0573	1.2263	0.5738	1.2594	0.9645	1.0527	1.3099	0.3896	0.9566	0.5676	0.963	1.137	1.0883	0.6495	0.0178	0.3115	0.7872	0.3535	0.2344	1.3999	0.6597	1.2104	1.1664	0.8731	0.5933	0.4117	0.8175	0.618	0.276	-0.0543
589.8438	0.0411	1.2551	0.5115	1.242	0.9508	1.0436	1.2719	0.3734	0.9129	0.5531	0.9528	1.158	1.0531	0.6715	-0.0882	0.2556	0.7475	0.2919	0.2686	1.4306	0.6526	1.2537	1.2323	0.8656	0.6104	0.3371	0.7955	0.5926	0.2481	-0.1394
593.75	0.0218	1.2796	0.4423	1.2219	0.9311	1.0425	1.2324	0.3518	0.8499	0.5356	0.9291	1.1502	1.0386	0.6987	-0.1795	0.2078	0.6905	0.2352	0.3077	1.4596	0.6551	1.301	1.3125	0.8593	0.6294	0.2689	0.7679	0.547	0.2116	-0.2337
597.6562	0.0005	1.3009	0.379	1.21	0.9193	1.0588	1.1988	0.3334	0.7806	0.5267	0.9021	1.1153	1.0567	0.7397	-0.24	0.1779	0.6212	0.1876	0.3474	1.4908	0.6784	1.3542	1.3979	0.8557	0.6448	0.2118	0.7396	0.4864	0.1766	-0.3226
601.5625	-0.0204	1.3195	0.3331	1.2164	0.9282	1.0977	1.179	0.3269	0.7201	0.5374	0.884	1.0619	1.1162	0.8016	-0.2579	0.1722	0.5471	0.1527	0.3825	1.5273	0.7317	1.4134	1.4784	0.8576	0.6536	0.17	0.7172	0.4209	0.1514	-0.3927
605.4688	-0.0374	1.3368	0.3128	1.2484	0.966	1.1589	1.1789	0.3391	0.6818	0.5754	0.8871	1.0033	1.2197	0.8886	-0.2289	0.1929	0.4782	0.1329	0.4082	1.571	0.8205	1.4766	1.5447	0.8682	0.6561	0.1474	0.7088	0.3649	0.1408	-0.4344
609.375	-0.0472	1.3554	0.3213	1.3086	1.0342	1.2356	1.2019	0.3727	0.6748	0.643	0.92	0.9556	1.3616	0.9993	-0.1574	0.2374	0.4254	0.13	0.4208	1.6217	0.9441	1.5397	1.5907	0.8906	0.6557	0.148	0.7222	0.3343	0.1459	-0.4432
613.2812	-0.0478	1.3794	0.3565	1.3935	1.126	1.3157	1.2462	0.425	0.7013	0.7356	0.9858	0.9327	1.5275	1.1259	-0.0565	0.2996	0.3993	0.1449	0.4195	1.6763	1.0943	1.5974	1.6147	0.9263	0.6587	0.175	0.7627	0.3438	0.1641	-0.42
617.1875	-0.0385	1.4136	0.4124	1.4935	1.2273	1.3836	1.3054	0.4875	0.7556	0.8427	1.0795	0.9423	1.6959	1.2538	0.0536	0.3696	0.4075	0.1778	0.4061	1.7289	1.255	1.6431	1.6193	0.9739	0.6722	0.2306	0.8311	0.4029	0.1904	-0.37
621.0938	-0.0202	1.4615	0.4792	1.5941	1.3196	1.4232	1.3674	0.5475	0.8252	0.9485	1.189	0.9832	1.8416	1.3644	0.1493	0.4358	0.4532	0.228	0.3856	1.7712	1.4045	1.6701	1.6099	1.0288	0.7017	0.3145	0.9227	0.5129	0.2193	-0.302
625	0.006	1.5236	0.5463	1.6786	1.3835	1.4215	1.4175	0.5905	0.8934	1.0352	1.2964	1.0448	1.9404	1.4376	0.2093	0.4858	0.5332	0.2935	0.3639	1.7935	1.5191	1.6728	1.5924	1.0831	0.75	0.4231	1.0273	0.6657	0.2451	-0.2262
628.9062	0.0382	1.5957	0.6028	1.7311	1.4036	1.3712	1.4403	0.6033	0.9426	1.0864	1.3818	1.1099	1.9739	1.4567	0.2192	0.5082	0.6382	0.3708	0.3472	1.7867	1.5775	1.6479	1.5718	1.1271	0.8152	0.5489	1.1304	0.844	0.2627	-0.153
632.8125	0.074	1.6689	0.6396	1.7394	1.3713	1.272	1.4241	0.5773	0.9589	1.0906	1.4274	1.1591	1.9333	1.4114	0.1758	0.4946	0.7536	0.4555	0.3396	1.7442	1.5657	1.5952	1.5496	1.1507	0.8912	0.6806	1.2158	1.024	0.2686	-0.092
636.7188	0.1101	1.7312	0.6509	1.6982	1.2872	1.1315	1.3637	0.511	0.9353	1.0435	1.4218	1.1761	1.8217	1.3012	0.0887	0.4412	0.8625	0.5425	0.3433	1.6644	1.4803	1.5183	1.5245	1.1457	0.9676	0.8043	1.2686	1.1794	0.2609	-0.0498
640.625	0.1433	1.7707	0.6351	1.6103	1.161	0.9644	1.2622	0.4108	0.8733	0.9499	1.3628	1.1517	1.6537	1.1362	-0.0206	0.3498	0.9493	0.6282	0.3586	1.5515	1.3303	1.4252	1.4929	1.1086	1.0328	0.9054	1.2787	1.2873	0.2409	-0.0294
644.5312	0.1711	1.7787	0.5964	1.487	1.0101	0.7898	1.1311	0.2898	0.7826	0.8225	1.2578	1.085	1.4537	0.9356	-0.1235	0.2287	1.0035	0.7115	0.3852	1.4163	1.1358	1.3268	1.4515	1.0418	1.0757	0.9717	1.243	1.3323	0.2131	-0.0287
648.4375	0.1932	1.7529	0.5441	1.3463	0.8562	0.6291	0.9879	0.1656	0.6782	0.6792	1.1219	0.9838	1.2511	0.725	-0.1906	0.0912	1.022	0.7945	0.4225	1.2745	0.9249	1.2359	1.3995	0.954	1.0889	0.9959	1.1668	1.3105	0.1854	-0.0412
652.3438	0.2123	1.6985	0.4911	1.2098	0.7209	0.5016	0.8521	0.0559	0.5766	0.5397	0.9738	0.8612	1.0748	0.5315	-0.1993	-0.0459	1.0096	0.8814	0.471	1.1436	0.728	1.165	1.3397	0.8586	1.0702	0.9774	1.0625	1.2301	0.1667	-0.0575
656.25	0.233	1.6271	0.4516	1.0977	0.6214	0.4212	0.7412	-0.0253	0.4919	0.4205	0.8318	0.7328	0.9473	0.3783	-0.1405	-0.1666	0.977	0.9763	0.5314	1.0395	0.5719	1.1234	1.2782	0.7707	1.0232	0.9227	0.947	1.1093	0.1649	-0.0676
660.1562	0.2603	1.5542	0.4371	1.0254	0.567	0.394	0.6669	-0.0704	0.4323	0.3322	0.7101	0.6128	0.8799	0.2807	-0.0212	-0.2579	0.9376	1.0799	0.6044	0.9733	0.4742	1.1156	1.2228	0.7029	0.9559	0.8444	0.838	0.9727	0.1839	-0.0642
664.0625	0.2977	1.496	0.4543	1.0007	0.5578	0.4174	0.6335	-0.0799	0.399	0.2776	0.6171	0.5128	0.871	0.2434	0.1368	-0.3129	0.9044	1.1881	0.6892	0.949	0.4414	1.1408	1.1802	0.6623	0.8785	0.758	0.7501	0.846	0.2224	-0.0445
667.9688	0.3454	1.4668	0.5031	1.0236	0.5863	0.4812	0.6372	-0.0615	0.3868	0.2527	0.5555	0.44	0.9074	0.2612	0.3026	-0.3308	0.8874	1.291	0.7829	0.964	0.4686	1.1933	1.1545	0.6488	0.8011	0.6785	0.6925	0.7505	0.2741	-0.0108
671.875	0.3999	1.4766	0.5772	1.0875	0.6402	0.5709	0.6686	-0.0275	0.386	0.2488	0.5231	0.3984	0.9688	0.3213	0.4448	-0.3162	0.8921	1.3756	0.8796	1.01	0.5425	1.2645	1.1462	0.6557	0.7316	0.6177	0.6677	0.6995	0.3296	0.0309
675.7812	0.4547	1.5307	0.6664	1.1822	0.7062	0.671	0.7159	0.0084	0.3859	0.2562	0.5155	0.3893	1.0333	0.4073	0.5394	-0.277	0.9189	1.4291	0.9718	1.0766	0.646	1.3444	1.1521	0.673	0.6748	0.5817	0.6722	0.6963	0.3798	0.0727
679.6875	0.5024	1.6286	0.7588	1.2962	0.7734	0.7687	0.7684	0.0345	0.3782	0.2665	0.5273	0.4117	1.0839	0.5034	0.5757	-0.2226	0.9633	1.4424	1.0515	1.1529	0.7623	1.4239	1.1666	0.69	0.6324	0.571	0.6983	0.7341	0.4185	0.108
683.5938	0.5364	1.7645	0.8438	1.4188	0.8357	0.8559	0.8196	0.0435	0.3588	0.275	0.5541	0.4625	1.1119	0.5969	0.5578	-0.1622	1.0167	1.4132	1.1119	1.2297	0.8778	1.4962	1.1834	0.6991	0.6035	0.581	0.7365	0.7986	0.4444	0.1328
687.5	0.5528	1.9269	0.9135	1.5416	0.8919	0.9303	0.8676	0.034	0.3287	0.2805	0.592	0.5362	1.1186	0.6803	0.5021	-0.1041	1.067	1.3466	1.1486	1.3004	0.9836	1.5568	1.1965	0.6973	0.5856	0.6045	0.7776	0.871	0.4604	0.1468
691.4062	0.552	2.0998	0.9641	1.6587	0.9457	0.9943	0.9147	0.0097	0.2931	0.2848	0.6382	0.6247	1.114	0.7511	0.4314	-0.0548	1.1006	1.254	1.1607	1.3612	1.0761	1.6044	1.2016	0.6867	0.5754	0.6335	0.8143	0.9321	0.472	0.1522
695.3125	0.5389	2.2647	0.996	1.7671	1.0039	1.0538	0.9651	-0.0223	0.2591	0.2909	0.6899	0.7177	1.1138	0.8119	0.3684	-0.0182	1.1056	1.1502	1.1505	1.4117	1.1564	1.6407	1.1969	0.6738	0.57	0.6614	0.8427	0.9666	0.4853	0.1527
699.2188	0.5219	2.4038	1.0128	1.8661	1.0746	1.1161	1.0222	-0.0532	0.2336	0.3019	0.7439	0.8038	1.1348	0.8688	0.33	0.0052	1.075	1.0506	1.1233	1.4545	1.2298	1.6704	1.1835	0.6671	0.5678	0.6832	0.8618	0.9653	0.505	0.152
703.125	0.5114	2.5029	1.0208	1.9573	1.1657	1.1877	1.0872	-0.0756	0.2209	0.3196	0.7958	0.8725	1.1913	0.9303	0.3245	0.0187	1.0091	0.9682	1.0861	1.4957	1.305	1.7005	1.1659	0.676	0.5683	0.6963	0.8735	0.926	0.5335	0.1526
707.0312	0.5174	2.5546	1.0265	2.0429	1.2825	1.273	1.1573	-0.0853	0.2216	0.3437	0.8404	0.9155	1.291	1.0057	0.3508	0.0284	0.9164	0.9114	1.0462	1.5442	1.3925	1.7399	1.1512	0.708	0.5723	0.6996	0.8816	0.8538	0.5707	0.1552
710.9375	0.5475	2.5587	1.0352	2.1249	1.426	1.3726	1.2271	-0.0824	0.2321	0.3721	0.8713	0.9282	1.4337	1.1028	0.4	0.0414	0.8121	0.8826	1.0102	1.6097	1.5027	1.797	1.1484	0.7674	0.5816	0.6936	0.8904	0.7589	0.6137	0.158
714.8438	0.6041	2.5209	1.0486	2.2037	1.5922	1.4828	1.29	-0.0708	0.2461	0.401	0.8825	0.9101	1.6108	1.2263	0.4591	0.0638	0.715	0.8783	0.9829	1.7007	1.6432	1.8789	1.1664	0.854	0.5982	0.6801	0.9036	0.6543	0.6574	0.1572
718.75	0.6829	2.451	1.0643	2.2776	1.7712	1.5963	1.3405	-0.0575	0.2559	0.4253	0.8688	0.8639	1.8067	1.3752	0.5137	0.0985	0.6425	0.8897	0.9664	1.8215	1.8161	1.9884	1.2123	0.9626	0.6242	0.6626	0.9235	0.5535	0.695	0.1471
722.6562	0.7724	2.3592	1.0753	2.3423	1.9492	1.7034	1.3763	-0.0499	0.2546	0.4398	0.828	0.7946	2.0011	1.5428	0.5522	0.1439	0.606	0.9046	0.9605	1.9701	2.0159	2.1231	1.289	1.0831	0.6608	0.6463	0.9499	0.468	0.7175	0.1207
726.5625	0.8548	2.2547	1.0713	2.3921	2.1097	1.7936	1.3982	-0.0542	0.2378	0.4401	0.7606	0.7079	2.1725	1.7162	0.5672	0.1936	0.6076	0.9093	0.9617	2.1377	2.2292	2.2746	1.3943	1.2018	0.7081	0.6379	0.9803	0.4056	0.7155	0.0706
730.4688	0.909	2.144	1.0408	2.4205	2.2371	1.858	1.4094	-0.0731	0.204	0.4236	0.6716	0.6094	2.3017	1.8788	0.5565	0.2375	0.6389	0.8907	0.9641	2.3091	2.4365	2.4288	1.5204	1.3042	0.7645	0.6437	1.0105	0.3692	0.6794	-0.0094
734.375	0.9151	2.0317	0.9732	2.4217	2.3192	1.8907	1.4138	-0.1056	0.1553	0.3899	0.5693	0.5044	2.3752	2.0136	0.5222	0.2634	0.6825	0.8384	0.9596	2.466	2.6159	2.5689	1.6551	1.3775	0.8268	0.6687	1.0354	0.3571	0.6013	-0.1233
738.2812	0.8589	1.921	0.8612	2.3912	2.3491	1.8894	1.4133	-0.1462	0.0969	0.3417	0.4649	0.3978	2.3875	2.1064	0.4678	0.2597	0.7168	0.7462	0.9394	2.5902	2.7477	2.6775	1.7834	1.4131	0.8906	0.7147	1.0505	0.3637	0.4768	-0.2718
742.1875	0.7352	1.8144	0.7019	2.3273	2.3268	1.8556	1.4076	-0.1867	0.0358	0.2843	0.3705	0.2947	2.3423	2.1491	0.3963	0.2176	0.7208	0.6128	0.8956	2.6672	2.8184	2.7407	1.8897	1.4083	0.9509	0.7793	1.0529	0.3815	0.3057	-0.4516
746.0938	0.549	1.7144	0.4981	2.2308	2.2588	1.7933	1.3941	-0.2178	-0.0201	0.2245	0.2969	0.2	2.2515	2.1409	0.3087	0.1328	0.68	0.442	0.8237	2.6886	2.8232	2.7499	1.9603	1.3659	1.0026	0.8562	1.0417	0.4019	0.0929	-0.6557
750	0.3136	1.6234	0.2582	2.1051	2.1563	1.7078	1.3684	-0.2308	-0.0637	0.1696	0.2514	0.1174	2.1327	2.0875	0.2032	0.0066	0.5893	0.2423	0.724	2.6536	2.7665	2.7028	1.9846	1.293	1.0411	0.9351	1.0175	0.4171	-0.152	-0.874
753.9062	0.048	1.543	-0.0049	1.9559	2.0331	1.6048	1.3262	-0.2199	-0.0901	0.1256	0.2361	0.0484	2.0053	1.9992	0.0772	-0.1546	0.4538	0.025	0.6015	2.5681	2.6601	2.6028	1.9563	1.1986	1.0619	1.0034	0.9816	0.4196	-0.4155	-1.0948
757.8125	-0.2271	1.4735	-0.2754	1.7903	1.9029	1.489	1.2648	-0.1831	-0.0978	0.0965	0.2475	-0.0082	1.8858	1.8886	-0.0709	-0.3403	0.2859	-0.1973	0.464	2.443	2.5202	2.457	1.8738	1.0912	1.0611	1.0486	0.9348	0.4035	-0.682	-1.3055
761.7188	-0.4917	1.4123	-0.5371	1.6154	1.7768	1.3645	1.1839	-0.1227	-0.0882	0.0829	0.2774	-0.0563	1.7849	1.7672	-0.2395	-0.5382	0.101	-0.4131	0.3192	2.291	2.3633	2.2751	1.7404	0.9778	1.0358	1.0604	0.8772	0.3645	-0.9348	-1.4943
765.625	-0.7279	1.3534	-0.7752	1.4377	1.6615	1.2343	1.0863	-0.0451	-0.0657	0.0829	0.3147	-0.101	1.706	1.645	-0.4229	-0.7355	-0.0873	-0.6134	0.1731	2.1241	2.2042	2.0679	1.5635	0.8635	0.9848	1.0336	0.8085	0.3007	-1.1572	-1.6507
769.5312	-0.921	1.286	-0.9783	1.2623	1.5588	1.1007	0.9782	0.0411	-0.0358	0.0925	0.348	-0.1472	1.6456	1.529	-0.6116	-0.9218	-0.2712	-0.7924	0.0284	1.9507	2.053	1.8462	1.3538	0.7515	0.91	0.9684	0.7289	0.2138	-1.3347	-1.7662
773.4375	-1.0598	1.1952	-1.1394	1.0915	1.4663	0.9659	0.868	0.126	-0.0045	0.1073	0.3683	-0.1984	1.5959	1.4233	-0.7933	-1.0897	-0.4499	-0.948	-0.1147	1.7745	1.9152	1.6208	1.1242	0.6445	0.8163	0.8711	0.6398	0.1089	-1.4561	-1.8351
777.3438	-1.1369	1.064	-1.2569	0.9254	1.3785	0.8314	0.7658	0.201	0.0236	0.1234	0.3706	-0.2554	1.5468	1.3302	-0.9555	-1.2362	-0.6292	-1.0817	-0.2577	1.5952	1.7916	1.4009	0.8874	0.5448	0.7113	0.7522	0.5441	-0.0055	-1.5155	-1.855
781.25	-1.1497	0.8769	-1.3338	0.7618	1.289	0.6988	0.6807	0.26	0.0456	0.1381	0.3542	-0.3167	1.4897	1.2497	-1.0883	-1.3621	-0.8182	-1.1972	-0.4023	1.4093	1.6792	1.1936	0.6542	0.4544	0.604	0.6238	0.4458	-0.1198	-1.5135	-1.8273
785.1562	-1.1014	0.6248	-1.3771	0.5974	1.1922	0.5686	0.6193	0.3004	0.0606	0.1505	0.3223	-0.3796	1.4183	1.1804	-1.1866	-1.4717	-1.0258	-1.3003	-0.55	1.2123	1.5732	1.0022	0.4316	0.3742	0.5024	0.4969	0.3491	-0.2251	-1.4575	-1.7577
789.0625	-1.0022	0.3085	-1.3967	0.4289	1.0848	0.4406	0.5828	0.3236	0.0692	0.1607	0.28	-0.4416	1.3305	1.1195	-1.2517	-1.5711	-1.2572	-1.3973	-0.7014	1.0012	1.4683	0.8257	0.2218	0.3035	0.411	0.379	0.2566	-0.3166	-1.3601	-1.6556
792.9688	-0.8688	-0.06	-1.404	0.2543	0.966	0.3135	0.5672	0.3342	0.0734	0.1691	0.2322	-0.5015	1.2271	1.063	-1.2914	-1.6668	-1.5123	-1.494	-0.8574	0.7756	1.3601	0.6596	0.0227	0.2392	0.3305	0.2724	0.1687	-0.3942	-1.2377	-1.533
796.875	-0.7223	-0.4584	-1.4101	0.0735	0.838	0.1855	0.5632	0.3382	0.0751	0.1761	0.1832	-0.5601	1.1123	1.0063	-1.3181	-1.7642	-1.7849	-1.5951	-1.0182	0.5392	1.2464	0.497	-0.1707	0.1768	0.2574	0.1752	0.0833	-0.4627	-1.1075	-1.4038
