time	FP1	F3	F7	FC3	C3	C5	P3	P7	PO7	PO3	O1	Oz	Pz	CPz	FP2	Fz	F4	F8	FC4	FCz	Cz	C4	C6	P4	P8	PO8	PO4	O2	HEOG_left	HEOG_right
-199.2188	-2.8044	-2.6448	-1.9135	-2.1062	-1.2918	-1.0139	-0.0631	-0.1079	0.4704	0.0749	0.3942	0.0451	-0.1435	-0.8814	-2.3911	-2.985	-2.564	-2.3694	-1.9092	-2.8478	-1.8717	-1.778	-1.4151	-0.6716	-0.254	-0.2431	-0.7221	-0.2214	-2.3167	-2.1427
-195.3125	-2.5866	-2.3933	-1.774	-1.9014	-1.187	-0.8731	0.0573	-0.0577	0.5672	0.1353	0.4851	0.1779	-0.087	-0.8003	-2.4691	-2.6852	-2.421	-2.2534	-1.8197	-2.6648	-1.7107	-1.5573	-1.1262	-0.375	-0.04	-0.0446	-0.3583	0.0185	-2.1706	-1.9736
-191.4062	-2.3741	-2.1559	-1.6417	-1.6948	-1.0775	-0.7312	0.1677	-0.0075	0.6549	0.1906	0.5639	0.2932	-0.0351	-0.7146	-2.4947	-2.39	-2.2735	-2.1259	-1.7229	-2.4756	-1.5471	-1.3499	-0.8573	-0.1053	0.1433	0.1234	-0.0334	0.2303	-2.0203	-1.8058
-187.5	-2.1729	-1.9398	-1.5214	-1.4869	-0.9615	-0.5929	0.258	0.0407	0.7225	0.234	0.6192	0.3758	0.0081	-0.6216	-2.4382	-2.1035	-2.1186	-1.9813	-1.6118	-2.2748	-1.3802	-1.1661	-0.6262	0.1144	0.2728	0.2375	0.2204	0.391	-1.8622	-1.6397
-183.5938	-1.9848	-1.7462	-1.4164	-1.2785	-0.8387	-0.4627	0.3214	0.0848	0.7608	0.2607	0.644	0.4161	0.0404	-0.5201	-2.2858	-1.8299	-1.9555	-1.8192	-1.4823	-2.06	-1.2101	-1.0113	-0.4446	0.2692	0.3365	0.2869	0.383	0.4866	-1.695	-1.4764
-179.6875	-1.8053	-1.5704	-1.327	-1.07	-0.711	-0.345	0.3552	0.1226	0.7642	0.2686	0.6363	0.4115	0.0624	-0.4104	-2.0425	-1.5729	-1.7859	-1.6448	-1.3344	-1.8314	-1.0381	-0.8851	-0.316	0.3549	0.3353	0.2751	0.4494	0.5138	-1.52	-1.3167
-175.7812	-1.6235	-1.4031	-1.2499	-0.8625	-0.5817	-0.2434	0.3608	0.1521	0.7309	0.2583	0.5992	0.3666	0.0769	-0.2939	-1.7291	-1.3356	-1.6146	-1.4671	-1.1724	-1.5923	-0.8666	-0.7813	-0.2358	0.3778	0.282	0.2179	0.4291	0.4798	-1.341	-1.1614
-171.875	-1.4252	-1.234	-1.1786	-0.659	-0.4561	-0.1617	0.3432	0.1719	0.6638	0.2328	0.5396	0.2917	0.0877	-0.1734	-1.3782	-1.1207	-1.449	-1.2965	-1.0041	-1.3482	-0.6986	-0.6898	-0.1933	0.3526	0.1985	0.1394	0.3436	0.4003	-1.1629	-1.0114
-167.9688	-1.1995	-1.0555	-1.1048	-0.4652	-0.3407	-0.1041	0.3087	0.181	0.5692	0.1964	0.4664	0.2006	0.099	-0.0529	-1.0283	-0.9304	-1.2981	-1.1432	-0.839	-1.1064	-0.5384	-0.5998	-0.1755	0.2992	0.1098	0.0651	0.2212	0.2954	-0.9911	-0.8674
-164.0625	-0.9443	-0.8663	-1.021	-0.2902	-0.2435	-0.0749	0.2641	0.1792	0.4563	0.1537	0.3889	0.1079	0.1132	0.0618	-0.7178	-0.7671	-1.171	-1.0154	-0.6866	-0.8753	-0.3911	-0.5031	-0.1709	0.2375	0.0387	0.0161	0.0912	0.1864	-0.8311	-0.7313
-160.1562	-0.6716	-0.672	-0.923	-0.1448	-0.1725	-0.0779	0.2144	0.1668	0.3356	0.1091	0.3153	0.0261	0.1304	0.1636	-0.479	-0.6328	-1.0746	-0.9184	-0.5539	-0.6639	-0.2627	-0.3961	-0.1718	0.1838	0.001	0.0048	-0.0217	0.0907	-0.6872	-0.6056
-156.25	-0.4066	-0.4854	-0.8108	-0.0391	-0.1339	-0.1144	0.1628	0.1445	0.2172	0.0663	0.2513	-0.0362	0.1484	0.245	-0.3332	-0.529	-1.0109	-0.8528	-0.4447	-0.4803	-0.1588	-0.2806	-0.1759	0.1484	0.0024	0.0323	-0.1008	0.0197	-0.5629	-0.4937
-152.3438	-0.1826	-0.3226	-0.6898	0.0213	-0.1308	-0.1818	0.1107	0.1139	0.1101	0.0281	0.2006	-0.0755	0.1631	0.2995	-0.2867	-0.4555	-0.9759	-0.8151	-0.3589	-0.3307	-0.0837	-0.1631	-0.1852	0.1337	0.0381	0.0894	-0.1396	-0.023	-0.4603	-0.3991
-148.4375	-0.0333	-0.2001	-0.5689	0.0373	-0.1616	-0.2723	0.0583	0.0776	0.0218	-0.0033	0.1643	-0.0929	0.17	0.3227	-0.3288	-0.4101	-0.9587	-0.797	-0.2929	-0.2182	-0.0391	-0.0529	-0.2033	0.1358	0.0951	0.1597	-0.1413	-0.0406	-0.3802	-0.3249
-144.5312	0.0168	-0.1299	-0.459	0.0173	-0.2198	-0.3737	0.0061	0.0396	-0.0428	-0.0267	0.1417	-0.0938	0.1648	0.3142	-0.4342	-0.3877	-0.9431	-0.787	-0.2406	-0.1422	-0.0232	0.0408	-0.2335	0.1458	0.1553	0.2239	-0.1164	-0.0417	-0.3219	-0.2727
-140.625	-0.0406	-0.1161	-0.3703	-0.0234	-0.2943	-0.4707	-0.0445	0.0045	-0.0813	-0.0418	0.1302	-0.0856	0.1451	0.2771	-0.5678	-0.3802	-0.9104	-0.7717	-0.1945	-0.098	-0.0304	0.1107	-0.2763	0.1524	0.2001	0.2644	-0.0796	-0.0365	-0.283	-0.2412
-136.7188	-0.1932	-0.1527	-0.3098	-0.0662	-0.3715	-0.5478	-0.0907	-0.0222	-0.0944	-0.0495	0.1259	-0.0761	0.1106	0.2179	-0.692	-0.3775	-0.8429	-0.738	-0.1466	-0.0778	-0.0522	0.1526	-0.329	0.145	0.2146	0.269	-0.0459	-0.035	-0.2592	-0.2264
-132.8125	-0.4084	-0.224	-0.2793	-0.0928	-0.4371	-0.5912	-0.1286	-0.0353	-0.0855	-0.0522	0.1238	-0.0718	0.0634	0.1452	-0.7736	-0.3693	-0.7285	-0.6753	-0.091	-0.0715	-0.0786	0.166	-0.3849	0.1158	0.1906	0.2325	-0.0274	-0.0441	-0.2442	-0.2213
-128.9062	-0.6388	-0.3081	-0.2742	-0.0895	-0.478	-0.5916	-0.1535	-0.0305	-0.0605	-0.0532	0.119	-0.0766	0.0081	0.0684	-0.7898	-0.347	-0.5643	-0.5775	-0.0239	-0.0687	-0.0995	0.1542	-0.4354	0.0614	0.1283	0.1573	-0.0317	-0.0671	-0.2308	-0.2171
-125	-0.8325	-0.3815	-0.2847	-0.0499	-0.4848	-0.544	-0.1616	-0.0056	-0.0262	-0.0561	0.1072	-0.0913	-0.0495	-0.0037	-0.7312	-0.306	-0.3581	-0.445	0.0545	-0.0607	-0.1067	0.1231	-0.4717	-0.0159	0.0352	0.0524	-0.0604	-0.1036	-0.2116	-0.2056
-121.0938	-0.9444	-0.4243	-0.2969	0.0236	-0.4529	-0.4489	-0.1505	0.0391	0.0104	-0.0639	0.0853	-0.1142	-0.1028	-0.0639	-0.6031	-0.2469	-0.1281	-0.2851	0.1408	-0.0424	-0.0958	0.0806	-0.4861	-0.1091	-0.0751	-0.0689	-0.1102	-0.1501	-0.1809	-0.1808
-117.1875	-0.9477	-0.4251	-0.2961	0.1208	-0.3834	-0.3115	-0.1207	0.0998	0.0427	-0.0792	0.0515	-0.1422	-0.1464	-0.1082	-0.4239	-0.1757	0.1006	-0.1117	0.2284	-0.0133	-0.0668	0.0356	-0.4737	-0.2074	-0.1865	-0.1915	-0.1736	-0.2018	-0.1354	-0.1401
-113.2812	-0.8393	-0.3819	-0.2695	0.2266	-0.2825	-0.1412	-0.0762	0.17	0.0649	-0.1034	0.005	-0.1726	-0.1768	-0.1358	-0.2212	-0.1017	0.3001	0.0574	0.3091	0.0227	-0.0247	-0.0031	-0.4328	-0.2985	-0.2828	-0.301	-0.2409	-0.2537	-0.0741	-0.0844
-109.375	-0.6396	-0.3014	-0.2084	0.3249	-0.1606	0.0495	-0.0242	0.2403	0.0723	-0.1373	-0.0543	-0.2037	-0.1938	-0.1491	-0.0256	-0.0354	0.4459	0.2046	0.3747	0.058	0.0214	-0.0284	-0.3643	-0.371	-0.3509	-0.386	-0.3018	-0.3021	0.0021	-0.0165
-105.4688	-0.3853	-0.1961	-0.1095	0.4021	-0.0304	0.2457	0.0254	0.3	0.0603	-0.1811	-0.1266	-0.2359	-0.2003	-0.1536	0.135	0.0147	0.5222	0.3164	0.42	0.0844	0.0601	-0.035	-0.2711	-0.416	-0.382	-0.4395	-0.3475	-0.3447	0.0914	0.0598
-101.5625	-0.1202	-0.0809	0.0247	0.45	0.0945	0.4319	0.0619	0.3382	0.0254	-0.2343	-0.2118	-0.2704	-0.2022	-0.1562	0.2417	0.0445	0.5263	0.3873	0.4436	0.095	0.0805	-0.0211	-0.1581	-0.4292	-0.373	-0.4593	-0.3716	-0.3806	0.1912	0.1418
-97.6562	0.1141	0.0303	0.1866	0.4661	0.2017	0.5927	0.0752	0.3456	-0.0347	-0.2957	-0.3094	-0.3087	-0.2071	-0.1644	0.2883	0.056	0.4705	0.4208	0.4489	0.0871	0.0744	0.0118	-0.0318	-0.4107	-0.326	-0.4482	-0.3714	-0.4097	0.2984	0.2274
-93.75	0.2866	0.1267	0.3647	0.4527	0.2807	0.7144	0.058	0.3155	-0.1199	-0.363	-0.4172	-0.3509	-0.2222	-0.1846	0.2826	0.0565	0.3798	0.4288	0.4426	0.0626	0.0386	0.0588	0.0995	-0.3647	-0.2483	-0.4128	-0.348	-0.4316	0.409	0.315
-89.8438	0.3829	0.2025	0.5457	0.4159	0.3246	0.7864	0.0066	0.2455	-0.2271	-0.4319	-0.531	-0.3951	-0.2522	-0.2209	0.2443	0.0571	0.2871	0.4282	0.4331	0.0283	-0.0244	0.1122	0.2268	-0.2985	-0.1504	-0.3615	-0.3055	-0.4451	0.5175	0.403
-85.9375	0.4084	0.2573	0.7162	0.3634	0.3314	0.8031	-0.0773	0.138	-0.3493	-0.4961	-0.6438	-0.437	-0.2977	-0.2735	0.2012	0.0702	0.2253	0.4372	0.4284	-0.0055	-0.1059	0.1638	0.3414	-0.2205	-0.0452	-0.3032	-0.2497	-0.448	0.6178	0.4892
-82.0312	0.3879	0.297	0.8649	0.304	0.3045	0.7649	-0.187	0.0007	-0.476	-0.5479	-0.7464	-0.4707	-0.3543	-0.3384	0.183	0.1066	0.2203	0.4708	0.435	-0.0264	-0.1922	0.2064	0.4364	-0.1387	0.0547	-0.245	-0.1865	-0.437	0.7042	0.5711
-78.125	0.3588	0.3325	0.984	0.247	0.2533	0.679	-0.3112	-0.1541	-0.5942	-0.5786	-0.8287	-0.489	-0.4127	-0.4073	0.215	0.174	0.2854	0.5389	0.456	-0.0221	-0.2662	0.2362	0.5081	-0.0595	0.1385	-0.1912	-0.1202	-0.4087	0.7726	0.6468
-74.2188	0.3603	0.3779	1.0703	0.2026	0.1925	0.5582	-0.4349	-0.3112	-0.6904	-0.5807	-0.8811	-0.4859	-0.4609	-0.4677	0.3126	0.2753	0.4196	0.6449	0.4915	0.0181	-0.3097	0.2542	0.5569	0.0131	0.1991	-0.1429	-0.0531	-0.3607	0.8221	0.715
-70.3125	0.4209	0.4476	1.1245	0.1803	0.139	0.4199	-0.5418	-0.4541	-0.7533	-0.5493	-0.8965	-0.4572	-0.486	-0.5051	0.4779	0.4093	0.6088	0.7859	0.5381	0.1014	-0.3064	0.2658	0.5863	0.0774	0.2338	-0.0987	0.0145	-0.2929	0.8557	0.7756
-66.4062	0.5502	0.5522	1.151	0.1877	0.1096	0.2825	-0.6166	-0.5676	-0.7758	-0.4838	-0.872	-0.4027	-0.4775	-0.5052	0.6993	0.571	0.8305	0.9537	0.5903	0.2307	-0.2445	0.2802	0.6017	0.1332	0.2441	-0.0564	0.0826	-0.2084	0.8795	0.8296
-62.5	0.7365	0.6952	1.1552	0.2285	0.1166	0.1631	-0.6482	-0.6404	-0.7568	-0.3887	-0.8095	-0.3261	-0.4299	-0.4568	0.9546	0.7524	1.0588	1.1362	0.6413	0.4038	-0.1191	0.3074	0.6091	0.181	0.2341	-0.0145	0.1501	-0.1142	0.9014	0.8781
-58.5938	0.9529	0.8701	1.1427	0.3004	0.1647	0.0735	-0.6316	-0.6662	-0.7011	-0.2735	-0.7152	-0.235	-0.3443	-0.3556	1.2159	0.9441	1.2697	1.3195	0.6841	0.6129	0.0659	0.3552	0.6125	0.2203	0.2094	0.0262	0.2133	-0.0203	0.9285	0.9222
-54.6875	1.1662	1.0613	1.1181	0.3954	0.2502	0.0191	-0.5692	-0.6446	-0.6186	-0.1506	-0.5987	-0.1395	-0.2287	-0.2053	1.4555	1.1348	1.4441	1.4884	0.7125	0.8447	0.2969	0.4258	0.6135	0.2489	0.1739	0.0617	0.2657	0.0617	0.965	0.9621
-50.7812	1.3482	1.2464	1.0853	0.5005	0.3611	-0.0016	-0.4701	-0.5801	-0.5211	-0.0332	-0.4708	-0.0498	-0.0968	-0.0193	1.6512	1.3125	1.57	1.6282	0.7218	1.0815	0.5522	0.5143	0.6107	0.2625	0.1298	0.0861	0.2993	0.121	1.0107	0.9964
-46.875	1.4819	1.4016	1.0473	0.6002	0.4804	0.005	-0.3481	-0.4816	-0.4204	0.0677	-0.3413	0.026	0.0348	0.1821	1.7889	1.4652	1.6419	1.7245	0.7093	1.3035	0.8045	0.6092	0.6006	0.2562	0.0768	0.0934	0.3066	0.1508	1.0613	1.0226
-42.9688	1.5646	1.5075	1.0063	0.6805	0.5904	0.0301	-0.2188	-0.3603	-0.3248	0.1457	-0.2177	0.0843	0.1503	0.375	1.8636	1.582	1.6609	1.7652	0.6753	1.4912	1.0254	0.6948	0.5799	0.2258	0.0141	0.08	0.2836	0.1497	1.1085	1.0368
-39.0625	1.6056	1.5538	0.9635	0.7311	0.6773	0.0657	-0.0954	-0.2282	-0.2389	0.2001	-0.104	0.1262	0.2386	0.5372	1.8778	1.6544	1.6337	1.7421	0.6242	1.629	1.1913	0.756	0.5465	0.1707	-0.0582	0.0468	0.2319	0.1239	1.1422	1.0347
-35.1562	1.6199	1.5416	0.9187	0.7476	0.7339	0.1062	0.0134	-0.0964	-0.1626	0.236	-0.0016	0.1578	0.2953	0.6533	1.84	1.6779	1.571	1.654	0.5634	1.7076	1.2878	0.7821	0.5018	0.0949	-0.1367	-0.0001	0.1596	0.0857	1.1521	1.0124
-31.25	1.6224	1.4831	0.8698	0.7308	0.7621	0.1495	0.1051	0.0257	-0.0929	0.2625	0.0903	0.188	0.3243	0.7184	1.7618	1.6525	1.4862	1.509	0.503	1.726	1.3131	0.7693	0.4502	0.0076	-0.2143	-0.0493	0.0804	0.0515	1.1303	0.9673
-27.3438	1.6226	1.398	0.8143	0.686	0.7709	0.1965	0.1833	0.1316	-0.0253	0.2898	0.1728	0.2255	0.3365	0.7391	1.6571	1.584	1.3933	1.3253	0.4536	1.692	1.2776	0.7219	0.3981	-0.0776	-0.2807	-0.0863	0.0109	0.0376	1.0727	0.8988
-23.4375	1.6231	1.3085	0.7505	0.6208	0.7744	0.2489	0.256	0.2175	0.0441	0.3269	0.2461	0.2765	0.3472	0.7319	1.5407	1.4834	1.306	1.1294	0.4255	1.6204	1.2019	0.6511	0.3529	-0.1449	-0.3239	-0.096	-0.0319	0.0569	0.9802	0.8095
-19.5312	1.6216	1.2335	0.6784	0.5434	0.7877	0.3082	0.333	0.2828	0.1176	0.379	0.3093	0.3431	0.3724	0.7191	1.4267	1.3662	1.2367	0.9511	0.428	1.5316	1.1122	0.5727	0.3212	-0.1793	-0.3328	-0.065	-0.0345	0.1159	0.8591	0.7052
-15.625	1.6133	1.1841	0.6008	0.4621	0.8233	0.3739	0.4229	0.3292	0.1949	0.4466	0.3607	0.4225	0.4257	0.7235	1.3276	1.2512	1.1964	0.8174	0.4691	1.4476	1.0352	0.5041	0.3077	-0.1692	-0.2999	0.0156	0.0111	0.2135	0.7198	0.5949
-11.7188	1.594	1.1614	0.5227	0.3844	0.8884	0.4429	0.5307	0.3601	0.2731	0.5259	0.3989	0.5086	0.5145	0.7631	1.2528	1.1575	1.1937	0.7462	0.5561	1.3888	0.9931	0.4622	0.3143	-0.1086	-0.2226	0.1484	0.1056	0.3413	0.5752	0.4892
-7.8125	1.5621	1.1567	0.4497	0.3172	0.9833	0.5104	0.656	0.3789	0.3467	0.6095	0.4235	0.5932	0.6389	0.8473	1.2079	1.1013	1.2339	0.7416	0.6937	1.3708	1	0.4601	0.3398	0.0017	-0.1049	0.3294	0.2422	0.486	0.4376	0.3979
-3.9062	1.5186	1.1545	0.3859	0.2659	1.1018	0.5695	0.7925	0.3878	0.4088	0.6887	0.4356	0.6685	0.7915	0.9748	1.1939	1.0927	1.3164	0.7923	0.8831	1.4008	1.0601	0.5056	0.3793	0.1543	0.0442	0.5483	0.4075	0.632	0.316	0.3276
0	1.467	1.1379	0.3326	0.2337	1.2322	0.6128	0.9289	0.3866	0.4515	0.7554	0.4385	0.7288	0.9586	1.1351	1.2074	1.1334	1.4334	0.8738	1.1192	1.4772	1.1674	0.5999	0.4247	0.3364	0.2117	0.79	0.5843	0.7651	0.2135	0.2795
3.9062	1.4121	1.0941	0.2866	0.221	1.3593	0.6328	1.051	0.3721	0.4679	0.8036	0.4362	0.772	1.1241	1.3112	1.2402	1.2156	1.5703	0.9544	1.3901	1.5891	1.3077	0.7381	0.4662	0.5328	0.3831	1.0372	0.754	0.8753	0.1266	0.2486
7.8125	1.3586	1.0196	0.2412	0.2255	1.4685	0.6236	1.1448	0.3401	0.4539	0.8312	0.4338	0.7999	1.2726	1.4839	1.2814	1.3246	1.7087	1.003	1.6772	1.72	1.4617	0.9103	0.4944	0.7279	0.5446	1.273	0.9004	0.958	0.0466	0.2256
11.7188	1.3096	0.9221	0.1882	0.2433	1.5479	0.5826	1.1998	0.2867	0.4097	0.8405	0.4367	0.8181	1.3927	1.636	1.3186	1.4417	1.831	0.9973	1.9577	1.8513	1.6094	1.1036	0.5031	0.9084	0.6855	1.4835	1.012	1.015	-0.0368	0.1992
15.625	1.2671	0.82	0.1217	0.2709	1.5918	0.5119	1.2114	0.2109	0.3415	0.8376	0.4502	0.8344	1.4792	1.7559	1.3412	1.549	1.9251	0.9305	2.2086	1.9665	1.7336	1.3042	0.4911	1.0647	0.7985	1.659	1.0829	1.0523	-0.1316	0.1602
19.5312	1.232	0.7382	0.0406	0.3068	1.6009	0.4191	1.1818	0.1162	0.2602	0.831	0.4788	0.857	1.5332	1.8389	1.3419	1.6333	1.9872	0.8129	2.4102	2.0552	1.8226	1.4985	0.463	1.1912	0.8809	1.7949	1.113	1.0783	-0.2402	0.1043
23.4375	1.2051	0.703	-0.0484	0.3522	1.5823	0.3166	1.1196	0.0105	0.1802	0.8295	0.5258	0.8921	1.5607	1.8866	1.3186	1.6891	2.0215	0.6696	2.549	2.1143	1.8719	1.6741	0.4287	1.2856	0.9333	1.8905	1.1069	1.101	-0.357	0.0338
27.3438	1.1884	0.7367	-0.1315	0.4117	1.5485	0.2195	1.0373	-0.0952	0.116	0.8393	0.5921	0.9429	1.5706	1.9054	1.2754	1.7198	2.0389	0.5342	2.62	2.1482	1.8837	1.8206	0.4003	1.3487	0.9594	1.9478	1.0725	1.1267	-0.4692	-0.0422
31.25	1.1849	0.8529	-0.1889	0.4918	1.5143	0.1432	0.9489	-0.1889	0.0796	0.8628	0.6755	1.0082	1.5722	1.9041	1.2233	1.737	2.0532	0.441	2.6273	2.1677	1.8653	1.9298	0.3899	1.3828	0.9644	1.9703	1.0193	1.1591	-0.5585	-0.1102
35.1562	1.1994	1.0538	-0.1993	0.5999	1.4952	0.1003	0.8669	-0.2606	0.0776	0.8975	0.7702	1.0828	1.5733	1.8918	1.1798	1.7586	2.0776	0.4172	2.5832	2.187	1.8282	1.9965	0.4061	1.3918	0.9542	1.9617	0.9568	1.1988	-0.6051	-0.1543
39.0625	1.2388	1.3299	-0.1441	0.7421	1.5043	0.0983	0.8009	-0.3046	0.1099	0.9366	0.8671	1.1585	1.5789	1.8767	1.1673	1.805	2.1224	0.4775	2.5069	2.2214	1.785	2.0191	0.453	1.3801	0.9337	1.9257	0.8934	1.2436	-0.5925	-0.1605
42.9688	1.3111	1.661	-0.0123	0.9213	1.5511	0.1385	0.7565	-0.3208	0.1697	0.9715	0.9539	1.225	1.5909	1.8653	1.2091	1.8947	2.1937	0.6207	2.4214	2.2839	1.7487	2	0.5287	1.3524	0.906	1.866	0.835	1.289	-0.5113	-0.119
46.875	1.4238	2.0198	0.1965	1.1362	1.64	0.2162	0.7356	-0.3147	0.2449	0.9935	1.0174	1.272	1.6091	1.8623	1.324	2.0407	2.2929	0.8308	2.3503	2.383	1.7307	1.9461	0.6254	1.3136	0.8718	1.7867	0.7847	1.3292	-0.3626	-0.0279
50.7812	1.5798	2.3765	0.4701	1.38	1.7704	0.3216	0.7377	-0.2963	0.3204	0.9964	1.0452	1.291	1.6315	1.871	1.5191	2.2465	2.4175	1.0801	2.3133	2.5211	1.7396	1.8672	0.7307	1.2684	0.8305	1.6923	0.7425	1.3575	-0.1588	0.1069
54.6875	1.7751	2.7026	0.7844	1.6403	1.9363	0.4411	0.7599	-0.2778	0.3811	0.9775	1.0279	1.2764	1.6558	1.8928	1.7857	2.5041	2.5616	1.3341	2.3229	2.6929	1.7794	1.7751	0.8281	1.2214	0.781	1.5883	0.7059	1.3678	0.0778	0.2714
58.5938	1.9957	2.9746	1.1058	1.8992	2.1262	0.5588	0.7975	-0.2708	0.414	0.9374	0.9612	1.2265	1.679	1.9264	2.0963	2.7935	2.7163	1.5568	2.3808	2.8849	1.8481	1.6803	0.8992	1.1757	0.7234	1.4805	0.6704	1.3561	0.3177	0.446
62.5	2.218	3.1752	1.3952	2.1336	2.3232	0.6585	0.8428	-0.2841	0.4105	0.8788	0.8462	1.1427	1.6964	1.9662	2.4076	3.0829	2.8685	1.716	2.4768	3.0753	1.9356	1.5893	0.9261	1.1322	0.6599	1.3751	0.6304	1.3201	0.5297	0.6084
66.4062	2.41	3.2922	1.6131	2.3163	2.504	0.724	0.8851	-0.322	0.367	0.8042	0.6901	1.0289	1.7003	2.0007	2.6663	3.3317	3.0005	1.7861	2.5888	3.2352	2.0228	1.502	0.8941	1.0882	0.5948	1.2765	0.5791	1.2601	0.6847	0.7366
70.3125	2.5347	3.3161	1.725	2.4168	2.6401	0.7409	0.9095	-0.3835	0.2858	0.7143	0.5045	0.8894	1.6781	2.0107	2.8186	3.4942	3.0889	1.7513	2.6841	3.3302	2.0816	1.4097	0.7938	1.0359	0.533	1.1862	0.5086	1.1769	0.7604	0.8118
74.2188	2.556	3.2377	1.7059	2.4049	2.6995	0.6976	0.898	-0.4626	0.1744	0.6072	0.3036	0.7276	1.6122	1.9705	2.8199	3.5257	3.1048	1.6068	2.7237	3.3243	2.0771	1.2959	0.6227	0.9626	0.4785	1.1013	0.4095	1.0713	0.7439	0.8206
78.125	2.4464	3.0477	1.5448	2.2547	2.6518	0.5868	0.8322	-0.5494	0.0446	0.479	0.1022	0.5456	1.482	1.8513	2.6447	3.3898	3.0172	1.3597	2.6678	3.1855	1.9728	1.1392	0.3866	0.8533	0.4319	1.0144	0.2717	0.9425	0.6331	0.7565
82.0312	2.195	2.739	1.2464	1.9515	2.4744	0.4081	0.6975	-0.6313	-0.0883	0.326	-0.0861	0.3448	1.269	1.6273	2.2927	3.0663	2.7991	1.0294	2.4848	2.8934	1.739	0.9196	0.0992	0.6935	0.3906	0.9153	0.0867	0.7892	0.437	0.6213
85.9375	1.8116	2.3105	0.8318	1.4975	2.1589	0.169	0.488	-0.6956	-0.208	0.1476	-0.2497	0.1278	0.9628	1.2842	1.7899	2.5583	2.4355	0.646	2.1594	2.4455	1.361	0.6253	-0.2183	0.4751	0.349	0.7934	-0.149	0.6104	0.1737	0.4249
89.8438	1.3275	1.7726	0.3364	0.9158	1.7167	-0.1152	0.2094	-0.7304	-0.2994	-0.051	-0.3799	-0.0997	0.5673	0.8265	1.1849	1.8953	1.9306	0.2473	1.6998	1.8619	0.8465	0.2584	-0.5399	0.2004	0.3004	0.642	-0.4303	0.4086	-0.1318	0.1843
93.75	0.7884	1.1512	-0.1954	0.2499	1.1788	-0.4228	-0.1187	-0.7276	-0.351	-0.2577	-0.4714	-0.3279	0.1038	0.2811	0.5404	1.1318	1.3116	-0.127	1.1395	1.1856	0.2288	-0.1612	-0.8379	-0.1155	0.2398	0.4613	-0.7417	0.1911	-0.4511	-0.0786
97.6562	0.2461	0.4885	-0.7156	-0.441	0.5929	-0.7301	-0.4659	-0.6836	-0.3572	-0.4545	-0.5217	-0.5425	-0.3894	-0.3033	-0.0775	0.341	0.6284	-0.4415	0.5343	0.4781	-0.4356	-0.5978	-1.0869	-0.4455	0.1656	0.26	-1.0572	-0.0288	-0.7564	-0.3405
101.5625	-0.2513	-0.1595	-1.1803	-1.0908	0.0167	-1.015	-0.7951	-0.6011	-0.3192	-0.6198	-0.5311	-0.7263	-0.8621	-0.8632	-0.6096	-0.3958	-0.0529	-0.6716	-0.0463	-0.1895	-1.0748	-1.0042	-1.2672	-0.7544	0.0807	0.0548	-1.3442	-0.2326	-1.0242	-0.5799
105.4688	-0.6643	-0.7299	-1.5542	-1.6353	-0.4917	-1.26	-1.0689	-0.4889	-0.245	-0.7325	-0.5015	-0.8615	-1.26	-1.33	-1.0109	-1.0012	-0.6596	-0.806	-0.5307	-0.7465	-1.6134	-1.3298	-1.3677	-1.0048	-0.0081	-0.1327	-1.5686	-0.3994	-1.2369	-0.7796
109.375	-0.9628	-1.1617	-1.8139	-2.0217	-0.8806	-1.4524	-1.2556	-0.3611	-0.1473	-0.7758	-0.4362	-0.9327	-1.5338	-1.642	-1.2541	-1.4129	-1.1235	-0.8463	-0.8567	-1.1333	-1.9845	-1.5289	-1.3855	-1.1637	-0.0912	-0.2807	-1.7017	-0.5095	-1.3832	-0.9267
113.2812	-1.1236	-1.4052	-1.9474	-2.2138	-1.1115	-1.5832	-1.3338	-0.2343	-0.0407	-0.7403	-0.3394	-0.9299	-1.6477	-1.7553	-1.3295	-1.5911	-1.392	-0.8033	-0.981	-1.3087	-2.1407	-1.5678	-1.3249	-1.208	-0.1589	-0.3723	-1.7258	-0.5487	-1.4565	-1.012
117.1875	-1.1286	-1.4295	-1.9527	-2.1952	-1.1621	-1.6443	-1.2942	-0.1242	0.0611	-0.6256	-0.2162	-0.8505	-1.5848	-1.6497	-1.2416	-1.5225	-1.4354	-0.6912	-0.8851	-1.2548	-2.0604	-1.43	-1.1943	-1.1282	-0.2028	-0.3994	-1.6376	-0.5105	-1.4533	-1.0288
121.0938	-0.9666	-1.2271	-1.8348	-1.9692	-1.0273	-1.6277	-1.1407	-0.0427	0.148	-0.4405	-0.0737	-0.7009	-1.3496	-1.3325	-1.0065	-1.2197	-1.2502	-0.5234	-0.5766	-0.9773	-1.7502	-1.1187	-1.0038	-0.9297	-0.2185	-0.3643	-1.4491	-0.3985	-1.3715	-0.9726
125	-0.6372	-0.815	-1.6048	-1.5573	-0.7193	-1.5258	-0.889	0.0045	0.2145	-0.2019	0.0787	-0.4967	-0.9672	-0.8358	-0.6481	-0.7179	-0.8591	-0.3094	-0.0872	-0.5031	-1.2425	-0.6565	-0.7639	-0.6317	-0.2059	-0.2793	-1.1859	-0.2259	-1.2111	-0.8426
128.9062	-0.1562	-0.2326	-1.2785	-0.9969	-0.2659	-1.3346	-0.564	0.0187	0.2593	0.0668	0.2288	-0.261	-0.4788	-0.2117	-0.1968	-0.0695	-0.3066	-0.0562	0.5324	0.123	-0.5897	-0.0834	-0.4855	-0.2651	-0.1694	-0.1638	-0.8821	-0.0136	-0.9758	-0.6429
132.8125	0.4409	0.4618	-0.8766	-0.3373	0.2917	-1.0564	-0.1976	0.0068	0.2839	0.3392	0.3624	-0.0221	0.0634	0.4752	0.312	0.6623	0.3474	0.2295	1.2193	0.8443	0.1427	0.5485	-0.1812	0.1325	-0.117	-0.04	-0.5761	0.2124	-0.6752	-0.3845
136.7188	1.0989	1.1978	-0.4244	0.3636	0.9021	-0.7037	0.1757	-0.0203	0.291	0.5886	0.4649	0.1909	0.6036	1.1559	0.8394	1.4093	1.0348	0.5369	1.9051	1.5969	0.8839	1.18	0.1331	0.5213	-0.059	0.0711	-0.3044	0.4252	-0.3257	-0.0862
140.625	1.7478	1.8995	0.0482	1.0439	1.508	-0.2989	0.5218	-0.0499	0.284	0.7915	0.5238	0.3526	1.0886	1.7648	1.3437	2.1046	1.6858	0.8496	2.5226	2.3149	1.5642	1.7518	0.4382	0.8643	-0.0062	0.1527	-0.0972	0.6006	0.0487	0.2267
144.5312	2.3113	2.4933	0.5082	1.6422	2.051	0.1259	0.8103	-0.0699	0.2653	0.9306	0.5303	0.4447	1.4741	2.2456	1.7826	2.6863	2.2353	1.1448	3.0121	2.935	2.1209	2.2108	0.7113	1.1308	0.031	0.1936	0.0242	0.7196	0.4181	0.5244
148.4375	2.7183	2.9147	0.9214	2.1026	2.4769	0.5326	1.0168	-0.0715	0.2368	0.996	0.4814	0.4587	1.7277	2.5557	2.1163	3.1018	2.6282	1.3955	3.3267	3.4005	2.5026	2.5151	0.9283	1.2991	0.0437	0.1879	0.0488	0.7701	0.7502	0.7766
152.3438	2.9152	3.1154	1.2553	2.3796	2.7412	0.8824	1.1249	-0.0506	0.1992	0.9858	0.3797	0.3959	1.8308	2.6692	2.3107	3.3107	2.8239	1.5752	3.4362	3.6662	2.6732	2.6376	1.0665	1.3564	0.0248	0.1334	-0.0242	0.7479	1.0151	0.9573
156.25	2.8746	3.0679	1.4817	2.4425	2.8147	1.1411	1.1269	-0.0084	0.1523	0.9051	0.2327	0.2665	1.7794	2.5776	2.3409	3.2882	2.8	1.662	3.3302	3.7021	2.6143	2.5688	1.1084	1.2996	-0.0298	0.0306	-0.187	0.6558	1.1893	1.0493
160.1562	2.599	2.7694	1.5803	2.2798	2.6867	1.2843	1.0244	0.049	0.0949	0.7647	0.051	0.0867	1.5821	2.29	2.1946	3.027	2.5536	1.6436	3.0183	3.4972	2.3275	2.3161	1.0444	1.1339	-0.1208	-0.1179	-0.4251	0.5029	1.2598	1.0468
164.0625	2.1184	2.2419	1.5409	1.8999	2.3674	1.3013	0.8271	0.1117	0.0263	0.5782	-0.1534	-0.1243	1.2591	1.8315	1.8746	2.5393	2.1014	1.5187	2.5277	3.0609	1.8345	1.9025	0.8746	0.8723	-0.245	-0.3072	-0.7192	0.3028	1.2254	0.9553
167.9688	1.4822	1.5298	1.3651	1.3311	1.8863	1.1959	0.5517	0.1684	-0.0536	0.3602	-0.3688	-0.3478	0.8385	1.24	1.3992	1.8557	1.4771	1.2977	1.8992	2.423	1.1745	1.3627	0.6088	0.5336	-0.3954	-0.5293	-1.0478	0.0719	1.0963	0.7901
171.875	0.7497	0.6927	1.0663	0.6172	1.2873	0.9845	0.2196	0.2078	-0.1437	0.1239	-0.5854	-0.5687	0.3532	0.562	0.8015	1.0222	0.7272	1.0002	1.1808	1.6296	0.4001	0.7381	0.2643	0.1413	-0.5622	-0.7738	-1.3896	-0.1734	0.8908	0.5721
175.7812	-0.0205	-0.2031	0.6678	-0.1884	0.623	0.6931	-0.1467	0.2208	-0.2411	-0.1203	-0.7959	-0.7771	-0.1628	-0.153	0.1253	0.096	-0.0951	0.6516	0.4212	0.738	-0.4295	0.0718	-0.1364	-0.279	-0.7338	-1.0282	-1.725	-0.4188	0.6326	0.3247
179.6875	-0.7784	-1.0944	0.1998	-1.0293	-0.0535	0.3514	-0.5259	0.2014	-0.3426	-0.3659	-0.9968	-0.9694	-0.6786	-0.8578	-0.5807	-0.8622	-0.9356	0.2798	-0.3358	-0.1906	-1.2556	-0.596	-0.5685	-0.7016	-0.8978	-1.279	-2.0382	-0.6535	0.3467	0.0706
183.5938	-1.4867	-1.9297	-0.3054	-1.8542	-0.6957	-0.0123	-0.9014	0.1469	-0.4456	-0.6112	-1.1882	-1.1477	-1.1689	-1.5129	-1.2694	-1.7947	-1.7461	-0.0889	-1.0554	-1.0985	-2.0271	-1.2313	-1.0072	-1.1035	-1.0425	-1.5138	-2.3189	-0.8714	0.0566	-0.1713
187.5	-2.1222	-2.674	-0.8168	-2.6221	-1.2699	-0.376	-1.2628	0.0575	-0.5499	-0.8585	-1.3743	-1.3186	-1.6167	-2.0899	-1.9015	-2.6542	-2.4889	-0.4324	-1.7139	-1.9382	-2.7053	-1.8085	-1.4297	-1.4669	-1.1581	-1.7226	-2.5628	-1.0712	-0.2185	-0.3868
191.4062	-2.6744	-3.3108	-1.3082	-3.306	-1.7581	-0.7264	-1.6063	-0.0644	-0.6582	-1.113	-1.5615	-1.4906	-2.0136	-2.5733	-2.4491	-3.408	-3.1399	-0.7351	-2.2983	-2.676	-3.2669	-2.3101	-1.8165	-1.7806	-1.238	-1.8987	-2.7716	-1.255	-0.4648	-0.5671
195.3125	-3.1412	-3.8397	-1.7592	-3.8931	-2.1588	-1.0595	-1.9332	-0.2151	-0.7747	-1.3806	-1.7558	-1.6715	-2.3588	-2.9597	-2.8964	-4.0401	-3.6886	-0.9888	-2.8041	-3.2939	-3.7034	-2.7263	-2.1522	-2.0409	-1.2799	-2.0398	-2.9512	-1.4271	-0.6738	-0.7086
199.2188	-3.5254	-4.2713	-2.1557	-4.3825	-2.4835	-1.378	-2.2477	-0.3894	-0.9036	-1.6645	-1.9607	-1.8653	-2.6567	-3.2557	-3.2392	-4.549	-4.136	-1.1921	-3.2329	-3.788	-4.0193	-3.0541	-2.4266	-2.2502	-1.2861	-2.1462	-3.1087	-1.5909	-0.8412	-0.8116
203.125	-3.8311	-4.6212	-2.4891	-4.7813	-2.7526	-1.6884	-2.5539	-0.581	-1.0464	-1.9631	-2.1738	-2.07	-2.9133	-3.4733	-3.483	-4.9444	-4.4906	-1.3495	-3.5887	-4.1653	-4.228	-3.2957	-2.6351	-2.4149	-1.2623	-2.22	-3.2496	-1.7466	-0.9666	-0.879
207.0312	-4.0621	-4.9029	-2.7554	-5.1003	-2.9887	-1.9974	-2.8525	-0.7826	-1.2002	-2.2684	-2.3867	-2.277	-3.1338	-3.6272	-3.6401	-5.241	-4.7644	-1.4702	-3.8755	-4.4392	-4.3478	-3.4581	-2.7791	-2.5425	-1.2161	-2.2622	-3.3749	-1.8892	-1.0521	-0.9152
210.9375	-4.2223	-5.1245	-2.9549	-5.3508	-3.2112	-2.3087	-3.1398	-0.9853	-1.3568	-2.5659	-2.5848	-2.4711	-3.32	-3.7305	-3.7265	-5.4542	-4.9684	-1.5661	-4.0954	-4.6249	-4.3978	-3.5524	-2.8656	-2.6386	-1.1546	-2.2715	-3.4797	-2.0086	-1.1016	-0.9251
214.8438	-4.3167	-5.2868	-3.0918	-5.5433	-3.4322	-2.6214	-3.4065	-1.1789	-1.5035	-2.836	-2.7497	-2.6334	-3.4701	-3.7926	-3.7597	-5.5961	-5.1108	-1.6502	-4.2484	-4.737	-4.3948	-3.5922	-2.9075	-2.7053	-1.0821	-2.2433	-3.554	-2.0902	-1.1212	-0.9141
218.75	-4.3525	-5.3865	-3.1738	-5.6866	-3.6548	-2.9302	-3.6389	-1.3525	-1.6255	-3.0572	-2.8626	-2.7447	-3.5786	-3.8189	-3.7562	-5.6749	-5.1964	-1.7348	-4.3335	-4.7871	-4.3527	-3.5926	-2.921	-2.7407	-0.9997	-2.1711	-3.5845	-2.1186	-1.1184	-0.888
222.6562	-4.3387	-5.4208	-3.2125	-5.7891	-3.8733	-3.2261	-3.8215	-1.4955	-1.7082	-3.2094	-2.9075	-2.7895	-3.639	-3.8105	-3.7303	-5.6964	-5.2286	-1.8298	-4.3514	-4.7848	-4.2817	-3.5684	-2.9243	-2.7398	-0.906	-2.0482	-3.5578	-2.0805	-1.1026	-0.8529
226.5625	-4.2847	-5.3927	-3.2226	-5.8587	-4.0763	-3.4986	-3.9392	-1.5983	-1.7403	-3.2775	-2.8754	-2.7592	-3.6452	-3.7665	-3.693	-5.6664	-5.2113	-1.9416	-4.3075	-4.7391	-4.1902	-3.5328	-2.9345	-2.6967	-0.7978	-1.871	-3.4637	-1.9686	-1.0846	-0.8152
230.4688	-4.1994	-5.3143	-3.2202	-5.9039	-4.2498	-3.7373	-3.9805	-1.6542	-1.7155	-3.2535	-2.7656	-2.6536	-3.5942	-3.6862	-3.6523	-5.594	-5.1524	-2.0724	-4.2144	-4.6602	-4.0865	-3.4962	-2.9642	-2.6062	-0.673	-1.6405	-3.2978	-1.7834	-1.0757	-0.7814
234.375	-4.0916	-5.2074	-3.2216	-5.9344	-4.3816	-3.9342	-3.9396	-1.6601	-1.6332	-3.1379	-2.5866	-2.4815	-3.4871	-3.5709	-3.6132	-5.4929	-5.0654	-2.2195	-4.0923	-4.5613	-3.9793	-3.4663	-3.0201	-2.4666	-0.5318	-1.3646	-3.0636	-1.534	-1.0858	-0.7577
238.2812	-3.9717	-5.1005	-3.2412	-5.9601	-4.4637	-4.0843	-3.818	-1.6171	-1.4989	-2.9397	-2.3543	-2.259	-3.3303	-3.4261	-3.5783	-5.3824	-4.9697	-2.3766	-3.9686	-4.4587	-3.8789	-3.4485	-3.1019	-2.2813	-0.3785	-1.0578	-2.7728	-1.238	-1.1223	-0.7491
242.1875	-3.8535	-5.0237	-3.2896	-5.9911	-4.4941	-4.187	-3.6242	-1.531	-1.3224	-2.6746	-2.0899	-2.0071	-3.1348	-3.2615	-3.5492	-5.2861	-4.8896	-2.5358	-3.8733	-4.3716	-3.7967	-3.4469	-3.2046	-2.0603	-0.2217	-0.7404	-2.4448	-0.919	-1.1878	-0.7596
246.0938	-3.755	-5.0024	-3.3722	-6.0362	-4.4769	-4.2446	-3.3733	-1.4112	-1.1166	-2.3627	-1.8157	-1.7496	-2.9154	-3.0909	-3.528	-5.2279	-4.8506	-2.6918	-3.8345	-4.3194	-3.7444	-3.465	-3.3202	-1.8199	-0.0735	-0.4362	-2.1046	-0.6045	-1.2792	-0.7908
250	-3.6956	-5.0522	-3.4873	-6.101	-4.4201	-4.2615	-3.0842	-1.2694	-0.8956	-2.0266	-1.5531	-1.5093	-2.6886	-2.9299	-3.5186	-5.2285	-4.8739	-2.844	-3.8719	-4.3189	-3.7324	-3.5056	-3.4409	-1.5812	0.0522	-0.1695	-1.7797	-0.3214	-1.3878	-0.8413
253.9062	-3.6924	-5.175	-3.6258	-6.1862	-4.3339	-4.2419	-2.7776	-1.1175	-0.6732	-1.6882	-1.3195	-1.3056	-2.4706	-2.7935	-3.5269	-5.2998	-4.9712	-2.9971	-3.9923	-4.3804	-3.7676	-3.5703	-3.5595	-1.3669	0.1425	0.038	-1.496	-0.0933	-1.4996	-0.9061
257.8125	-3.7547	-5.3588	-3.7714	-6.2871	-4.2276	-4.1888	-2.473	-0.9665	-0.4617	-1.3673	-1.1271	-1.1524	-2.2754	-2.6936	-3.5603	-5.442	-5.14	-3.1582	-4.1867	-4.5052	-3.8522	-3.658	-3.6705	-1.1978	0.1875	0.1705	-1.2743	0.0626	-1.5976	-0.9762
261.7188	-3.8803	-5.5807	-3.9031	-6.3942	-4.1095	-4.1037	-2.1873	-0.8247	-0.2716	-1.0804	-0.9832	-1.0565	-2.1138	-2.6376	-3.6265	-5.6429	-5.3638	-3.3335	-4.4326	-4.6857	-3.9835	-3.7642	-3.769	-1.089	0.1826	0.2201	-1.1277	0.1378	-1.6648	-1.0401
265.625	-4.0552	-5.812	-3.9991	-6.4966	-3.9862	-3.9888	-1.9343	-0.698	-0.1123	-0.8403	-0.89	-1.0177	-1.9924	-2.6276	-3.7308	-5.8811	-5.6153	-3.5238	-4.6993	-4.9067	-4.1544	-3.8814	-3.8512	-1.047	0.1294	0.1887	-1.0604	0.1327	-1.6881	-1.086
269.5312	-4.2569	-6.0251	-4.0423	-6.5848	-3.8642	-3.8491	-1.7244	-0.5903	0.0085	-0.6558	-0.8461	-1.0292	-1.914	-2.6609	-3.8738	-6.1308	-5.864	-3.7235	-4.9555	-5.1494	-4.3558	-3.9995	-3.9146	-1.0691	0.0358	0.0875	-1.0685	0.0565	-1.6616	-1.1049
273.4375	-4.4599	-6.1979	-4.0235	-6.6534	-3.7503	-3.6941	-1.565	-0.5044	0.0849	-0.5316	-0.8466	-1.0787	-1.8776	-2.7315	-4.0494	-6.3677	-6.0833	-3.9209	-5.176	-5.3957	-4.5776	-4.108	-3.9587	-1.1439	-0.0857	-0.0641	-1.1406	-0.0742	-1.5884	-1.0928
277.3438	-4.642	-6.3167	-3.9444	-6.7011	-3.6517	-3.5374	-1.4598	-0.4425	0.1135	-0.467	-0.8837	-1.1505	-1.8788	-2.8307	-4.2445	-6.5726	-6.2558	-4.0999	-5.3463	-5.63	-4.8103	-4.1977	-3.9856	-1.2532	-0.2196	-0.2416	-1.2602	-0.2369	-1.4801	-1.0524
281.25	-4.7876	-6.3763	-3.8162	-6.7293	-3.5745	-3.3952	-1.4084	-0.4063	0.0954	-0.456	-0.9469	-1.2269	-1.9102	-2.9485	-4.441	-6.7336	-6.3749	-4.2431	-5.4627	-5.8411	-5.0441	-4.2614	-3.9988	-1.3751	-0.35	-0.4186	-1.4072	-0.4068	-1.3541	-0.9915
285.1562	-4.8883	-6.3774	-3.6568	-6.7389	-3.5225	-3.2822	-1.4063	-0.3972	0.0363	-0.4876	-1.0237	-1.291	-1.9619	-3.074	-4.6179	-6.8447	-6.4425	-4.3351	-5.5302	-6.021	-5.2681	-4.2951	-4.0024	-1.4879	-0.4629	-0.5712	-1.5609	-0.5592	-1.2294	-0.9211
289.0625	-4.9413	-6.3243	-3.4868	-6.7285	-3.4958	-3.2091	-1.4449	-0.4152	-0.0537	-0.5477	-1.1006	-1.3285	-2.0224	-3.1968	-4.7552	-6.9046	-6.4652	-4.3653	-5.5572	-6.1642	-5.4701	-4.298	-3.9993	-1.5735	-0.5488	-0.6819	-1.7023	-0.6738	-1.1225	-0.8525
292.9688	-4.9475	-6.2224	-3.3251	-6.6943	-3.4904	-3.1799	-1.5133	-0.4587	-0.1612	-0.6215	-1.1654	-1.3304	-2.0812	-3.3081	-4.8373	-6.9147	-6.4508	-4.33	-5.5514	-6.2666	-5.6371	-4.273	-3.9902	-1.6209	-0.6038	-0.7423	-1.8167	-0.7375	-1.045	-0.7949
296.875	-4.9093	-6.0787	-3.1864	-6.6316	-3.4992	-3.192	-1.6002	-0.5239	-0.2723	-0.6963	-1.2091	-1.2947	-2.1297	-3.4016	-4.8561	-6.8788	-6.4058	-4.2331	-5.5171	-6.3262	-5.7574	-4.2259	-3.9728	-1.6276	-0.6302	-0.7542	-1.8968	-0.7472	-1.0014	-0.7544
300.7812	-4.8307	-5.9017	-3.0792	-6.538	-3.5144	-3.237	-1.6957	-0.6053	-0.375	-0.7642	-1.2277	-1.2264	-2.1637	-3.475	-4.8127	-6.8029	-6.3353	-4.0856	-5.4547	-6.3432	-5.8234	-4.1649	-3.9429	-1.5999	-0.6361	-0.7292	-1.943	-0.7094	-0.9907	-0.7337
304.6875	-4.7171	-5.7023	-3.0058	-6.4152	-3.5292	-3.3035	-1.793	-0.6965	-0.4616	-0.8225	-1.2235	-1.1371	-2.1831	-3.529	-4.7175	-6.6952	-6.2433	-3.9039	-5.3626	-6.3211	-5.8332	-4.0991	-3.8958	-1.5508	-0.6336	-0.6851	-1.9636	-0.6386	-1.0078	-0.7329
308.5938	-4.5757	-5.4942	-2.9623	-6.2698	-3.5394	-3.379	-1.8879	-0.7903	-0.5294	-0.8736	-1.2041	-1.0425	-2.1923	-3.567	-4.5883	-6.5655	-6.1334	-3.7075	-5.2402	-6.2653	-5.7915	-4.0375	-3.8287	-1.497	-0.6362	-0.6422	-1.9721	-0.5537	-1.0461	-0.7509
312.5	-4.4168	-5.2912	-2.9404	-6.1116	-3.5441	-3.4515	-1.9789	-0.8801	-0.58	-0.9223	-1.1807	-0.9588	-2.1978	-3.5937	-4.4466	-6.4233	-6.009	-3.5166	-5.09	-6.1832	-5.7086	-3.9874	-3.7431	-1.455	-0.6554	-0.6184	-1.984	-0.4736	-1.0987	-0.7855
316.4062	-4.2532	-5.1056	-2.9289	-5.9509	-3.5443	-3.5118	-2.0652	-0.9604	-0.6184	-0.9738	-1.165	-0.9004	-2.2065	-3.6136	-4.3127	-6.2765	-5.8732	-3.3492	-4.9188	-6.0818	-5.5986	-3.953	-3.6447	-1.4375	-0.6989	-0.6257	-2.0125	-0.4138	-1.1598	-0.8341
320.3125	-4.0996	-4.9448	-2.9161	-5.7966	-3.5423	-3.5532	-2.146	-1.0272	-0.6504	-1.0315	-1.1668	-0.8767	-2.2237	-3.6299	-4.2016	-6.1302	-5.7286	-3.2194	-4.7378	-5.967	-5.4765	-3.9353	-3.5436	-1.4515	-0.7682	-0.668	-2.0649	-0.3832	-1.2241	-0.8933
324.2188	-3.9702	-4.8102	-2.8921	-5.6542	-3.54	-3.573	-2.2193	-1.0783	-0.6815	-1.0956	-1.1915	-0.8912	-2.2516	-3.6445	-4.1207	-5.9874	-5.5779	-3.1355	-4.5615	-5.8441	-5.3559	-3.9323	-3.4514	-1.497	-0.8593	-0.7414	-2.1418	-0.3844	-1.2866	-0.959
328.125	-3.8761	-4.698	-2.8504	-5.5272	-3.5383	-3.5717	-2.2813	-1.1132	-0.7149	-1.1628	-1.2388	-0.941	-2.2885	-3.6569	-4.0703	-5.8499	-5.4246	-3.1004	-4.4056	-5.7173	-5.2476	-3.9405	-3.3784	-1.5682	-0.9637	-0.8364	-2.2364	-0.4136	-1.3428	-1.0262
332.0312	-3.8222	-4.6006	-2.7897	-5.4172	-3.5367	-3.5524	-2.3267	-1.1322	-0.7515	-1.2265	-1.3029	-1.0172	-2.3288	-3.6652	-4.0471	-5.72	-5.2739	-3.1115	-4.2847	-5.5912	-5.1585	-3.9555	-3.3314	-1.6547	-1.0702	-0.9402	-2.3372	-0.4624	-1.3884	-1.0904
335.9375	-3.8062	-4.5103	-2.7136	-5.3262	-3.5339	-3.5197	-2.3491	-1.1361	-0.7888	-1.2786	-1.3733	-1.1068	-2.3639	-3.6654	-4.0464	-5.6013	-5.1331	-3.1623	-4.2102	-5.4705	-5.0908	-3.9733	-3.3119	-1.744	-1.168	-1.0401	-2.4305	-0.5202	-1.4215	-1.1482
339.8438	-3.8195	-4.4209	-2.63	-5.2564	-3.5271	-3.4773	-2.3416	-1.1254	-0.8218	-1.3102	-1.4365	-1.1946	-2.3836	-3.6523	-4.0646	-5.4977	-5.011	-3.2432	-4.1876	-5.3597	-5.0422	-3.9901	-3.3169	-1.8235	-1.2484	-1.1261	-2.5036	-0.5751	-1.4424	-1.1982
343.75	-3.8494	-4.3297	-2.549	-5.21	-3.5125	-3.4272	-2.2984	-1.0998	-0.8438	-1.314	-1.4791	-1.2652	-2.3777	-3.6198	-4.098	-5.4124	-4.9161	-3.3422	-4.2149	-5.2613	-5.0065	-4.0021	-3.3392	-1.8823	-1.3061	-1.1914	-2.5467	-0.6163	-1.4541	-1.2417
347.6562	-3.8811	-4.2367	-2.4804	-5.1877	-3.4846	-3.3686	-2.2156	-1.0584	-0.8477	-1.2855	-1.4901	-1.3058	-2.3383	-3.5619	-4.1416	-5.3455	-4.8538	-3.445	-4.2825	-5.175	-4.9744	-4.0046	-3.37	-1.9119	-1.34	-1.2337	-2.5546	-0.635	-1.4612	-1.2811
351.5625	-3.8993	-4.1435	-2.4316	-5.1872	-3.4365	-3.298	-2.0929	-1.0003	-0.8279	-1.2241	-1.4637	-1.3082	-2.261	-3.4742	-4.188	-5.293	-4.8246	-3.5358	-4.3743	-5.0964	-4.9348	-3.992	-3.4003	-1.9072	-1.3526	-1.2537	-2.5259	-0.6258	-1.469	-1.3195
355.4688	-3.8899	-4.0513	-2.4058	-5.202	-3.3605	-3.2107	-1.9337	-0.9254	-0.7822	-1.1334	-1.4006	-1.2699	-2.1463	-3.3549	-4.2262	-5.2466	-4.8223	-3.599	-4.4698	-5.0178	-4.8769	-3.9583	-3.4224	-1.8665	-1.3491	-1.2547	-2.4635	-0.587	-1.4815	-1.3584
359.375	-3.8408	-3.9599	-2.4025	-5.2213	-3.2498	-3.1026	-1.7463	-0.8354	-0.7123	-1.0214	-1.3081	-1.1946	-2.0002	-3.206	-4.2431	-5.1943	-4.8346	-3.6214	-4.5481	-4.9292	-4.7914	-3.8981	-3.4309	-1.7915	-1.3357	-1.2417	-2.3732	-0.5216	-1.5011	-1.3976
363.2812	-3.7453	-3.8669	-2.4181	-5.2307	-3.0999	-2.9718	-1.5425	-0.7339	-0.6246	-0.8992	-1.1985	-1.0912	-1.8332	-3.0329	-4.2249	-5.1232	-4.8441	-3.5949	-4.5897	-4.8203	-4.672	-3.8077	-3.4229	-1.6872	-1.3186	-1.2201	-2.2634	-0.4365	-1.5279	-1.4351
367.1875	-3.6035	-3.7672	-2.4469	-5.2141	-2.9103	-2.8195	-1.3362	-0.6266	-0.5285	-0.779	-1.0867	-0.9711	-1.6584	-2.8438	-4.1594	-5.0206	-4.8308	-3.5183	-4.5791	-4.6817	-4.5156	-3.6854	-3.3973	-1.5612	-1.3024	-1.1954	-2.1438	-0.3414	-1.5595	-1.4676
371.0938	-3.4238	-3.6532	-2.482	-5.1555	-2.6845	-2.6491	-1.1411	-0.5199	-0.4347	-0.6723	-0.9865	-0.846	-1.4887	-2.6476	-4.0377	-4.8758	-4.7743	-3.3979	-4.5048	-4.5058	-4.322	-3.5309	-3.3537	-1.4224	-1.2892	-1.1724	-2.0246	-0.2466	-1.5916	-1.4913
375	-3.2203	-3.5146	-2.515	-5.0403	-2.4295	-2.4655	-0.9679	-0.4196	-0.3522	-0.5874	-0.9076	-0.7256	-1.3339	-2.4514	-3.8555	-4.6807	-4.656	-3.2444	-4.3592	-4.2865	-4.0927	-3.3449	-3.291	-1.2795	-1.2784	-1.1549	-1.9147	-0.1612	-1.6181	-1.5026
378.9062	-3.0083	-3.3395	-2.5362	-4.8574	-2.1535	-2.2731	-0.8225	-0.3298	-0.2865	-0.5279	-0.8535	-0.6164	-1.1985	-2.2582	-3.6137	-4.4293	-4.4609	-3.0697	-4.1385	-4.0186	-3.8293	-3.1279	-3.2065	-1.1394	-1.2674	-1.145	-1.8203	-0.0918	-1.6318	-1.4983
382.8125	-2.7989	-3.1167	-2.5342	-4.6007	-1.8641	-2.0753	-0.7054	-0.2523	-0.2383	-0.4927	-0.8216	-0.522	-1.0817	-2.0666	-3.3192	-4.1181	-4.1799	-2.8824	-3.8428	-3.6978	-3.5325	-2.8806	-3.0957	-1.0061	-1.2522	-1.1424	-1.745	-0.0415	-1.6249	-1.4753
386.7188	-2.5941	-2.8377	-2.4969	-4.2701	-1.568	-1.8747	-0.6136	-0.1875	-0.205	-0.4773	-0.8057	-0.4446	-0.9784	-1.8708	-2.9837	-3.7466	-3.8125	-2.6852	-3.4771	-3.3215	-3.2024	-2.6052	-2.9546	-0.8813	-1.2292	-1.1445	-1.6895	-0.0107	-1.5901	-1.4304
390.625	-2.3855	-2.5004	-2.4122	-3.8719	-1.2709	-1.6734	-0.5426	-0.1359	-0.182	-0.4759	-0.7981	-0.3866	-0.8827	-1.6641	-2.6239	-3.3182	-3.3677	-2.4748	-3.0526	-2.8907	-2.8398	-2.3072	-2.7815	-0.7653	-1.1959	-1.1474	-1.6531	0.0011	-1.5216	-1.3602
394.5312	-2.1574	-2.1111	-2.2701	-3.4198	-0.9791	-1.4755	-0.4893	-0.0994	-0.1658	-0.4842	-0.7935	-0.3516	-0.7905	-1.4421	-2.259	-2.8424	-2.8655	-2.2443	-2.5866	-2.4128	-2.4482	-1.9968	-2.58	-0.6586	-1.1521	-1.147	-1.6356	-0.0054	-1.4163	-1.2621
398.4375	-1.8929	-1.686	-2.0652	-2.9336	-0.7014	-1.2875	-0.454	-0.0819	-0.1558	-0.5009	-0.7905	-0.3444	-0.7025	-1.2065	-1.9081	-2.3353	-2.3354	-1.9878	-2.1027	-1.9029	-2.0368	-1.6893	-2.3603	-0.5637	-1.0998	-1.1407	-1.6378	-0.0303	-1.2741	-1.135
402.3438	-1.5822	-1.2498	-1.7984	-2.4385	-0.4502	-1.1196	-0.4412	-0.0889	-0.1546	-0.5283	-0.7922	-0.3701	-0.6249	-0.9667	-1.5877	-1.8206	-1.8128	-1.7044	-1.6288	-1.3851	-1.6212	-1.4041	-2.1388	-0.4853	-1.0436	-1.1288	-1.6623	-0.0748	-1.0994	-0.9809
406.25	-1.2291	-0.8331	-1.4788	-1.9631	-0.2418	-0.9844	-0.4583	-0.1258	-0.168	-0.5719	-0.805	-0.4329	-0.5687	-0.7404	-1.308	-1.3275	-1.3347	-1.4011	-1.1935	-0.89	-1.2236	-1.1616	-1.936	-0.431	-0.9898	-1.1146	-1.7125	-0.1404	-0.9002	-0.806
410.1562	-0.853	-0.467	-1.1238	-1.5368	-0.0946	-0.8952	-0.514	-0.1966	-0.2033	-0.639	-0.8367	-0.534	-0.548	-0.5509	-1.0729	-0.8879	-0.934	-1.0938	-0.823	-0.4516	-0.871	-0.98	-1.7718	-0.4095	-0.945	-1.1047	-1.7916	-0.228	-0.6883	-0.6205
414.0625	-0.4867	-0.1782	-0.7579	-1.1871	-0.0258	-0.8628	-0.6152	-0.3018	-0.2666	-0.7363	-0.8938	-0.6709	-0.5763	-0.4232	-0.8811	-0.5316	-0.635	-0.8049	-0.5372	-0.1023	-0.591	-0.872	-1.6616	-0.4288	-0.9153	-1.1066	-1.9007	-0.3367	-0.4777	-0.4379
417.9688	-0.1691	0.0151	-0.4093	-0.9356	-0.0471	-0.8922	-0.7649	-0.4375	-0.3614	-0.8676	-0.9802	-0.8371	-0.6634	-0.3786	-0.7296	-0.2823	-0.4499	-0.558	-0.3474	0.1325	-0.4081	-0.8422	-1.6121	-0.4939	-0.9042	-1.1272	-2.0374	-0.4639	-0.2831	-0.2728
421.875	0.0645	0.1059	-0.1062	-0.7953	-0.1606	-0.9807	-0.9592	-0.5949	-0.4866	-1.0319	-1.0956	-1.0225	-0.812	-0.4298	-0.6175	-0.1538	-0.3778	-0.3718	-0.2556	0.2375	-0.3395	-0.887	-1.6206	-0.605	-0.9127	-1.1706	-2.1958	-0.6044	-0.1183	-0.1376
425.7812	0.1909	0.0982	0.128	-0.7687	-0.356	-1.1165	-1.1872	-0.761	-0.6362	-1.2221	-1.2353	-1.215	-1.0169	-0.578	-0.5473	-0.1483	-0.4065	-0.2559	-0.2551	0.2105	-0.3915	-0.9955	-1.6754	-0.7561	-0.9388	-1.2374	-2.3665	-0.7515	0.0066	-0.0405
429.6875	0.2051	0.0046	0.2778	-0.8474	-0.6114	-1.2807	-1.4313	-0.9203	-0.7997	-1.4256	-1.3912	-1.4018	-1.2642	-0.8113	-0.5253	-0.2572	-0.5157	-0.2088	-0.3331	0.0613	-0.559	-1.1518	-1.7603	-0.9354	-0.9783	-1.3239	-2.538	-0.8977	0.0863	0.0164
433.5938	0.1205	-0.157	0.338	-1.0141	-0.897	-1.45	-1.67	-1.0577	-0.9643	-1.6258	-1.5527	-1.5711	-1.5342	-1.1076	-0.5587	-0.4631	-0.6821	-0.22	-0.4737	-0.1898	-0.826	-1.3378	-1.8582	-1.127	-1.0261	-1.424	-2.699	-1.0358	0.1209	0.0369
437.5	-0.0354	-0.3677	0.3131	-1.2458	-1.1811	-1.602	-1.8819	-1.1612	-1.1166	-1.8059	-1.7088	-1.7141	-1.8049	-1.4389	-0.6531	-0.7434	-0.8835	-0.2745	-0.6606	-0.5165	-1.1685	-1.5366	-1.9561	-1.314	-1.0773	-1.5304	-2.8401	-1.1603	0.1156	0.0297
441.4062	-0.2298	-0.6118	0.2158	-1.5183	-1.437	-1.7201	-2.0496	-1.2244	-1.2459	-1.9515	-1.8504	-1.8261	-2.0563	-1.7765	-0.8093	-1.0736	-1.1017	-0.357	-0.8791	-0.8899	-1.5581	-1.7336	-2.0468	-1.4817	-1.1283	-1.6367	-2.9556	-1.2679	0.0794	0.0054
445.3125	-0.4333	-0.8781	0.0643	-1.8099	-1.6482	-1.7968	-2.1634	-1.2482	-1.3459	-2.054	-1.9711	-1.9072	-2.2741	-2.0967	-1.0207	-1.43	-1.3234	-0.4551	-1.1176	-1.2825	-1.9658	-1.9176	-2.1287	-1.6196	-1.1766	-1.7386	-3.0442	-1.3579	0.0238	-0.0249
449.2188	-0.6268	-1.1605	-0.1201	-2.1028	-1.8105	-1.8345	-2.2227	-1.24	-1.4154	-2.1114	-2.0684	-1.9615	-2.4512	-2.3829	-1.2727	-1.7919	-1.5406	-0.5605	-1.3684	-1.671	-2.3661	-2.0808	-2.2036	-1.7226	-1.2216	-1.8342	-3.1082	-1.4322	-0.0393	-0.0526
453.125	-0.8031	-1.455	-0.3159	-2.3846	-1.9305	-1.8435	-2.2347	-1.2119	-1.4582	-2.1283	-2.1434	-1.9959	-2.5877	-2.6272	-1.5442	-2.1428	-1.7504	-0.6684	-1.6274	-2.038	-2.7384	-2.2183	-2.2739	-1.7913	-1.2633	-1.9235	-3.1529	-1.4934	-0.0988	-0.0724
457.0312	-0.9646	-1.7563	-0.5032	-2.6458	-2.0209	-1.8377	-2.2122	-1.1777	-1.4813	-2.1142	-2.1989	-2.0184	-2.6884	-2.8282	-1.8102	-2.4706	-1.9545	-0.7762	-1.8928	-2.3726	-3.0684	-2.3274	-2.3399	-1.8304	-1.3023	-2.0072	-3.1844	-1.5445	-0.1458	-0.0827
460.9375	-1.1171	-2.054	-0.6648	-2.8789	-2.0947	-1.8292	-2.1703	-1.15	-1.4937	-2.0813	-2.2391	-2.0355	-2.7603	-2.9888	-2.0467	-2.767	-2.1574	-0.8822	-2.1638	-2.6688	-3.3472	-2.408	-2.3987	-1.8466	-1.3389	-2.0855	-3.2076	-1.5872	-0.1746	-0.0852
464.8438	-1.264	-2.3312	-0.7886	-3.0759	-2.1603	-1.8252	-2.1233	-1.138	-1.504	-2.0419	-2.2679	-2.0514	-2.8098	-3.113	-2.235	-3.0264	-2.3641	-0.9844	-2.4381	-2.9245	-3.5704	-2.4618	-2.4446	-1.8473	-1.3725	-2.1569	-3.225	-1.6216	-0.1825	-0.0834
468.75	-1.402	-2.5664	-0.8681	-3.229	-2.219	-1.8261	-2.0828	-1.146	-1.5195	-2.007	-2.2888	-2.0672	-2.8411	-3.2042	-2.3643	-3.245	-2.5769	-1.0799	-2.71	-3.139	-3.7363	-2.4924	-2.4706	-1.8383	-1.4018	-2.2187	-3.2362	-1.6465	-0.1703	-0.0807
472.6562	-1.5202	-2.7376	-0.9032	-3.3309	-2.266	-1.8268	-2.0569	-1.1739	-1.5452	-1.9851	-2.3048	-2.0815	-2.8568	-3.2645	-2.4331	-3.4195	-2.7927	-1.1651	-2.9688	-3.3115	-3.8456	-2.5048	-2.4704	-1.824	-1.4249	-2.2679	-3.2389	-1.6597	-0.1413	-0.0793
476.5625	-1.6022	-2.8279	-0.8996	-3.3778	-2.2938	-1.8203	-2.0512	-1.2181	-1.5833	-1.9817	-2.3183	-2.0917	-2.8582	-3.2957	-2.447	-3.5475	-3.002	-1.2361	-3.1995	-3.441	-3.9012	-2.5044	-2.4411	-1.8075	-1.4395	-2.3018	-3.2303	-1.659	-0.1011	-0.0795
480.4688	-1.6302	-2.8295	-0.867	-3.3702	-2.2958	-1.8007	-2.0689	-1.2733	-1.6338	-1.9995	-2.3317	-2.0951	-2.8477	-3.3003	-2.4165	-3.6276	-3.1886	-1.2891	-3.3838	-3.5255	-3.9077	-2.4968	-2.3845	-1.7914	-1.4443	-2.3189	-3.2092	-1.6434	-0.0563	-0.0801
484.375	-1.5917	-2.7464	-0.8171	-3.3142	-2.2704	-1.7671	-2.1123	-1.3351	-1.6952	-2.0389	-2.3475	-2.0904	-2.8296	-3.2833	-2.3543	-3.6591	-3.3322	-1.3217	-3.5037	-3.5629	-3.8718	-2.4867	-2.3085	-1.7785	-1.4384	-2.3186	-3.1765	-1.6127	-0.0144	-0.079
488.2812	-1.4841	-2.5934	-0.7618	-3.2198	-2.222	-1.7241	-2.1823	-1.401	-1.7658	-2.0988	-2.3677	-2.0773	-2.8105	-3.2514	-2.2734	-3.6421	-3.4115	-1.3329	-3.5445	-3.5512	-3.8013	-2.4774	-2.2254	-1.7719	-1.4217	-2.3004	-3.1355	-1.5674	0.0176	-0.0742
492.1875	-1.3184	-2.3934	-0.712	-3.0989	-2.1602	-1.6816	-2.278	-1.4716	-1.8436	-2.1763	-2.3937	-2.0567	-2.7975	-3.2121	-2.1852	-3.5776	-3.4092	-1.3227	-3.4987	-3.4892	-3.7042	-2.4702	-2.1501	-1.774	-1.3941	-2.2626	-3.0895	-1.5081	0.0339	-0.0645
496.0938	-1.1172	-2.1721	-0.6766	-2.9626	-2.0963	-1.6515	-2.396	-1.5494	-1.9271	-2.2667	-2.425	-2.0296	-2.7967	-3.1714	-2.0981	-3.4669	-3.3153	-1.2925	-3.3675	-3.3761	-3.5866	-2.4637	-2.096	-1.7857	-1.3548	-2.2013	-3.0406	-1.4344	0.0307	-0.0497
500	-0.9089	-1.9523	-0.6615	-2.8178	-2.0399	-1.6443	-2.5283	-1.6366	-2.0141	-2.3629	-2.4584	-1.9957	-2.8102	-3.1311	-2.016	-3.3113	-3.13	-1.2446	-3.1609	-3.2121	-3.4514	-2.4541	-2.0722	-1.8044	-1.3021	-2.111	-2.9875	-1.3449	0.007	-0.0309
503.9062	-0.7186	-1.7492	-0.668	-2.6664	-1.9949	-1.6649	-2.6623	-1.7326	-2.0998	-2.4551	-2.487	-1.9527	-2.8338	-3.0874	-1.9374	-3.1127	-2.8641	-1.1828	-2.8959	-2.9985	-3.2971	-2.4351	-2.0805	-1.824	-1.2337	-1.9853	-2.9256	-1.2371	-0.0351	-0.0097
507.8125	-0.5605	-1.5675	-0.6915	-2.5044	-1.9572	-1.71	-2.7802	-1.8314	-2.176	-2.5305	-2.5001	-1.8965	-2.8573	-3.0311	-1.8552	-2.8738	-2.5365	-1.1115	-2.5934	-2.7382	-3.1184	-2.3991	-2.1151	-1.8355	-1.1485	-1.8196	-2.8474	-1.108	-0.0904	0.0118
511.7188	-0.4336	-1.4013	-0.7208	-2.3245	-1.9152	-1.7672	-2.8612	-1.9208	-2.2303	-2.574	-2.4847	-1.8214	-2.8648	-2.9493	-1.759	-2.5987	-2.1716	-1.0352	-2.2742	-2.4369	-2.9079	-2.339	-2.164	-1.828	-1.0469	-1.6129	-2.7448	-0.9558	-0.1508	0.0322
515.625	-0.3244	-1.2376	-0.7394	-2.1181	-1.8519	-1.8174	-2.8838	-1.9836	-2.2471	-2.5704	-2.4274	-1.7221	-2.8382	-2.8287	-1.6378	-2.294	-1.796	-0.9576	-1.9565	-2.1038	-2.6591	-2.2497	-2.2123	-1.7913	-0.9326	-1.37	-2.6112	-0.781	-0.2066	0.0505
519.5312	-0.2131	-1.0612	-0.7293	-1.8799	-1.75	-1.8388	-2.8302	-2.0006	-2.2104	-2.5058	-2.318	-1.5955	-2.7606	-2.6592	-1.4843	-1.9696	-1.4355	-0.8805	-1.6549	-1.752	-2.3695	-2.1296	-2.2462	-1.718	-0.8121	-1.1025	-2.4441	-0.5876	-0.248	0.0662
523.4375	-0.0838	-0.8609	-0.6758	-1.6106	-1.5956	-1.8123	-2.6896	-1.9549	-2.1074	-2.3707	-2.1522	-1.442	-2.6201	-2.4371	-1.2983	-1.6383	-1.1133	-0.8042	-1.3802	-1.3979	-2.0423	-1.982	-2.2565	-1.6051	-0.6943	-0.8279	-2.2459	-0.3837	-0.267	0.079
527.3438	0.0687	-0.6334	-0.5721	-1.3185	-1.3827	-1.7263	-2.4608	-1.8357	-1.9323	-2.1608	-1.9332	-1.2662	-2.4121	-2.1659	-1.0883	-1.3157	-0.8476	-0.7283	-1.1398	-1.0593	-1.6877	-1.8137	-2.24	-1.4545	-0.5883	-0.567	-2.0233	-0.181	-0.2597	0.088
531.25	0.2357	-0.3857	-0.4222	-1.0188	-1.1147	-1.5793	-2.1528	-1.6412	-1.6876	-1.8789	-1.6717	-1.0764	-2.1402	-1.8567	-0.8707	-1.0176	-0.6491	-0.6526	-0.9379	-0.7529	-1.3216	-1.6338	-2.1987	-1.2719	-0.5019	-0.3404	-1.7864	0.0074	-0.2273	0.0913
535.1562	0.3973	-0.1341	-0.2412	-0.7315	-0.8045	-1.3803	-1.7833	-1.3801	-1.385	-1.5341	-1.3843	-0.8822	-1.815	-1.5249	-0.6668	-0.7579	-0.5197	-0.5786	-0.7743	-0.4915	-0.963	-1.4506	-2.1368	-1.0657	-0.4394	-0.1648	-1.5464	0.1694	-0.1768	0.0864
539.0625	0.5297	0.0987	-0.0525	-0.4776	-0.4723	-1.1474	-1.3764	-1.07	-1.0435	-1.1416	-1.0905	-0.6935	-1.452	-1.1884	-0.4993	-0.5462	-0.451	-0.5093	-0.644	-0.2822	-0.6315	-1.2695	-2.0579	-0.8448	-0.4013	-0.0492	-1.313	0.296	-0.1199	0.0702
542.9688	0.6134	0.2884	0.1168	-0.2749	-0.1425	-0.9031	-0.9589	-0.7355	-0.6863	-0.7217	-0.8101	-0.5185	-1.0692	-0.8638	-0.3868	-0.3864	-0.4258	-0.449	-0.5372	-0.1254	-0.3438	-1.0911	-1.9626	-0.6169	-0.384	0.0057	-1.0936	0.3832	-0.0713	0.0403
546.875	0.6408	0.414	0.2414	-0.1347	0.1604	-0.6707	-0.5569	-0.4042	-0.3377	-0.2981	-0.5599	-0.3632	-0.685	-0.564	-0.3398	-0.2759	-0.4217	-0.4014	-0.4402	-0.0158	-0.1111	-0.9116	-1.8488	-0.3885	-0.3808	0.0078	-0.892	0.4329	-0.0458	-0.0042
550.7812	0.6177	0.4635	0.303	-0.0597	0.4166	-0.4688	-0.1933	-0.1033	-0.0204	0.1036	-0.3526	-0.231	-0.3163	-0.2968	-0.3574	-0.2069	-0.4154	-0.3676	-0.3379	0.0567	0.0624	-0.7241	-1.7125	-0.1642	-0.3834	-0.0286	-0.7094	0.4515	-0.0551	-0.062
554.6875	0.5619	0.437	0.2949	-0.0432	0.6138	-0.3082	0.1148	0.1439	0.247	0.459	-0.1961	-0.1231	0.0223	-0.0651	-0.4259	-0.1665	-0.3879	-0.3456	-0.2164	0.1055	0.1809	-0.5213	-1.5513	0.0527	-0.3834	-0.0859	-0.5448	0.4488	-0.1043	-0.1292
558.5938	0.4964	0.3488	0.223	-0.0697	0.75	-0.1911	0.3565	0.3209	0.4512	0.7464	-0.0937	-0.0395	0.3193	0.1328	-0.5217	-0.1394	-0.3275	-0.3298	-0.0664	0.1453	0.2552	-0.2981	-1.3661	0.2593	-0.3736	-0.1464	-0.3967	0.4357	-0.1904	-0.1995
562.5	0.4435	0.2255	0.1054	-0.1178	0.8325	-0.1116	0.5275	0.419	0.5844	0.9504	-0.0443	0.0214	0.566	0.3005	-0.6155	-0.1094	-0.2314	-0.3135	0.1148	0.1905	0.3013	-0.0545	-1.163	0.4523	-0.3488	-0.195	-0.2643	0.4225	-0.3023	-0.2656
566.4062	0.4197	0.1022	-0.0313	-0.164	0.8764	-0.0587	0.6294	0.4379	0.6448	1.063	-0.0433	0.0618	0.7573	0.4423	-0.6782	-0.0623	-0.1052	-0.2908	0.3227	0.2537	0.3364	0.2032	-0.9531	0.6279	-0.3064	-0.2211	-0.1482	0.4173	-0.4229	-0.3197
570.3125	0.4342	0.0156	-0.157	-0.1864	0.901	-0.0197	0.669	0.3849	0.6364	1.086	-0.0825	0.0848	0.8915	0.5616	-0.6874	0.012	0.0394	-0.2592	0.5461	0.3434	0.3759	0.4634	-0.7506	0.781	-0.2468	-0.2195	-0.051	0.4252	-0.5328	-0.356
574.2188	0.49	-0.0027	-0.2445	-0.1688	0.9256	0.0165	0.6575	0.2741	0.5686	1.0309	-0.1511	0.0946	0.9711	0.6607	-0.6323	0.1184	0.1889	-0.2194	0.7695	0.4637	0.4307	0.7111	-0.5701	0.9065	-0.1732	-0.1899	0.0241	0.448	-0.6149	-0.3709
578.125	0.5867	0.0677	-0.2738	-0.1027	0.966	0.0575	0.6091	0.124	0.456	0.9177	-0.236	0.0959	1.0026	0.7418	-0.5152	0.2558	0.3313	-0.1752	0.9769	0.6136	0.507	0.9315	-0.4221	1.0002	-0.0915	-0.1365	0.0741	0.4847	-0.6575	-0.3644
582.0312	0.7223	0.2323	-0.2354	0.0124	1.0321	0.1061	0.5395	-0.0446	0.3163	0.7726	-0.3227	0.0942	0.9965	0.8076	-0.3501	0.4189	0.4593	-0.1302	1.1557	0.788	0.6058	1.1144	-0.311	1.0599	-0.0089	-0.0667	0.0976	0.5326	-0.6569	-0.3393
585.9375	0.8937	0.4807	-0.1305	0.1693	1.1262	0.1604	0.4636	-0.212	0.1687	0.6235	-0.3974	0.095	0.9659	0.8619	-0.1585	0.5994	0.5713	-0.0865	1.2997	0.9792	0.7249	1.2563	-0.2332	1.0869	0.0671	0.0105	0.0964	0.588	-0.6173	-0.3013
589.8438	1.0952	0.7894	0.03	0.356	1.2437	0.2143	0.394	-0.3618	0.0313	0.4958	-0.448	0.1032	0.9244	0.9097	0.0363	0.788	0.6702	-0.0426	1.4101	1.1785	0.8602	1.3605	-0.179	1.0857	0.1301	0.0854	0.0754	0.6469	-0.5491	-0.2576
593.75	1.3169	1.1253	0.2283	0.5576	1.3741	0.2595	0.339	-0.4831	-0.0812	0.4082	-0.466	0.1225	0.884	0.9554	0.2147	0.9758	0.7617	0.0057	1.4951	1.3777	1.0066	1.4351	-0.1356	1.0635	0.1757	0.1489	0.0425	0.7061	-0.4664	-0.2163
597.6562	1.5445	1.452	0.4433	0.7592	1.5037	0.2865	0.3022	-0.571	-0.1591	0.3705	-0.4475	0.1553	0.8526	1.002	0.3634	1.155	0.8516	0.0639	1.5667	1.5691	1.1584	1.489	-0.0914	1.0284	0.2021	0.1942	0.0072	0.7634	-0.3845	-0.185
601.5625	1.7601	1.7353	0.6538	0.9474	1.619	0.2878	0.2829	-0.6259	-0.1982	0.3828	-0.393	0.2023	0.8336	1.05	0.4773	1.3199	0.9441	0.1357	1.6374	1.7462	1.3099	1.5282	-0.0397	0.9881	0.2101	0.2176	-0.0204	0.8177	-0.3169	-0.1697
605.4688	1.9456	1.9492	0.8411	1.1118	1.709	0.2593	0.2777	-0.6521	-0.199	0.4363	-0.3075	0.2626	0.8257	1.0971	0.5574	1.4659	1.0405	0.221	1.716	1.9032	1.4546	1.554	0.0197	0.9487	0.2028	0.2194	-0.0316	0.8695	-0.2741	-0.1745
609.375	2.0859	2.0794	0.9909	1.2453	1.7679	0.2023	0.2823	-0.6551	-0.1665	0.5168	-0.1993	0.3342	0.8249	1.1396	0.6087	1.5896	1.138	0.3142	1.8052	2.0341	1.5857	1.5622	0.0809	0.9143	0.1855	0.2044	-0.0201	0.9205	-0.2622	-0.2007
613.2812	2.172	2.1246	1.0935	1.3426	1.7951	0.1229	0.2923	-0.6406	-0.1087	0.607	-0.0795	0.4132	0.8264	1.173	0.6356	1.687	1.2298	0.4038	1.8999	2.1318	1.6955	1.546	0.1338	0.887	0.1646	0.1807	0.0167	0.9725	-0.2835	-0.2473
617.1875	2.2021	2.0944	1.143	1.3999	1.7932	0.03	0.3039	-0.6142	-0.0365	0.6893	0.0388	0.4938	0.8259	1.1933	0.6395	1.7526	1.305	0.474	1.987	2.1882	1.7757	1.4979	0.1668	0.867	0.1462	0.1584	0.0765	1.0257	-0.3374	-0.3116
621.0938	2.1807	2.0055	1.1366	1.412	1.7657	-0.0673	0.3132	-0.5807	0.0372	0.7485	0.1404	0.5677	0.8203	1.1964	0.6166	1.7787	1.35	0.5074	2.0474	2.1935	1.8174	1.4122	0.1701	0.8523	0.1355	0.1464	0.1521	1.0778	-0.421	-0.3895
625	2.1163	1.8756	1.074	1.3728	1.7139	-0.1626	0.3155	-0.5454	0.0981	0.7722	0.2098	0.6243	0.8069	1.1783	0.5598	1.7557	1.3512	0.4884	2.0585	2.1376	1.8121	1.2868	0.1371	0.8384	0.1349	0.1507	0.2314	1.123	-0.5304	-0.477
628.9062	2.0174	1.7191	0.9573	1.2749	1.6358	-0.254	0.3054	-0.5133	0.1328	0.7527	0.2326	0.652	0.7829	1.1348	0.461	1.6739	1.2975	0.4071	1.9989	2.0121	1.7522	1.123	0.0661	0.819	0.1438	0.172	0.2986	1.1526	-0.6608	-0.5703
632.8125	1.8899	1.544	0.7924	1.1121	1.526	-0.344	0.2769	-0.4893	0.1308	0.6874	0.1981	0.6404	0.7448	1.0615	0.3157	1.5264	1.1832	0.2619	1.8527	1.8122	1.633	0.9255	-0.0405	0.7864	0.1585	0.2057	0.3362	1.1563	-0.8067	-0.6666
636.7188	1.7351	1.3513	0.5885	0.8819	1.3785	-0.4373	0.2256	-0.4769	0.0873	0.579	0.1025	0.5826	0.6884	0.9545	0.1248	1.3109	1.0088	0.0614	1.6135	1.5392	1.4529	0.7007	-0.1766	0.7332	0.1729	0.2423	0.3285	1.1254	-0.9623	-0.7639
640.625	1.5514	1.1365	0.359	0.5879	1.1887	-0.5394	0.1489	-0.4778	0.0044	0.4358	-0.0498	0.4778	0.6096	0.8117	-0.1042	1.0318	0.7805	-0.1759	1.2866	1.2006	1.2141	0.456	-0.3346	0.6537	0.1804	0.2697	0.2638	1.0541	-1.1215	-0.8612
644.5312	1.3366	0.8933	0.1198	0.2405	0.9562	-0.6549	0.0476	-0.4921	-0.1094	0.2698	-0.2459	0.3321	0.505	0.633	-0.3592	0.7	0.5088	-0.4249	0.8888	0.8101	0.9227	0.1986	-0.5062	0.5454	0.1747	0.2758	0.1377	0.9421	-1.2783	-0.958
648.4375	1.0911	0.6169	-0.112	-0.143	0.6862	-0.7859	-0.0742	-0.5184	-0.2404	0.0959	-0.4656	0.1583	0.3736	0.4221	-0.6261	0.3319	0.2063	-0.6596	0.4457	0.3861	0.5885	-0.0639	-0.684	0.4097	0.152	0.2509	-0.0458	0.7949	-1.4276	-1.0539
652.3438	0.8216	0.3074	-0.3206	-0.5404	0.3891	-0.9315	-0.2097	-0.5542	-0.3733	-0.0705	-0.685	-0.0259	0.2179	0.186	-0.8913	-0.0524	-0.1135	-0.8581	-0.0114	-0.0501	0.2249	-0.3235	-0.8616	0.252	0.1116	0.1904	-0.2744	0.6231	-1.5655	-1.1482
656.25	0.5422	-0.0273	-0.494	-0.9267	0.0799	-1.0877	-0.3495	-0.5969	-0.4934	-0.2148	-0.8804	-0.2012	0.0445	-0.0638	-1.1431	-0.4305	-0.4364	-1.0075	-0.4506	-0.4758	-0.1513	-0.5702	-1.0328	0.0813	0.0558	0.095	-0.529	0.4412	-1.6888	-1.2391
660.1562	0.2744	-0.3706	-0.6248	-1.2764	-0.223	-1.2464	-0.4832	-0.6439	-0.5895	-0.3248	-1.0317	-0.3495	-0.1355	-0.3126	-1.3718	-0.7796	-0.7475	-1.1051	-0.8419	-0.8679	-0.5199	-0.7917	-1.1907	-0.0906	-0.0101	-0.0286	-0.7863	0.2656	-1.7944	-1.3233
664.0625	0.044	-0.6975	-0.7109	-1.5652	-0.4995	-1.3966	-0.5998	-0.6923	-0.6551	-0.392	-1.1262	-0.4566	-0.3071	-0.542	-1.5679	-1.0767	-1.0292	-1.157	-1.1601	-1.2038	-0.8579	-0.9734	-1.3264	-0.2501	-0.0793	-0.169	-1.0218	0.1118	-1.8787	-1.3951
667.9688	-0.123	-0.9764	-0.7547	-1.7722	-0.73	-1.525	-0.6891	-0.7396	-0.6886	-0.4127	-1.1598	-0.5143	-0.4526	-0.7323	-1.7206	-1.3004	-1.2611	-1.174	-1.3859	-1.462	-1.1404	-1.0994	-1.429	-0.3824	-0.1441	-0.3117	-1.213	-0.0071	-1.9372	-1.4474
671.875	-0.2067	-1.1736	-0.761	-1.8809	-0.8973	-1.6186	-0.7434	-0.7834	-0.693	-0.3888	-1.1374	-0.5204	-0.5545	-0.8642	-1.8178	-1.4314	-1.4208	-1.1667	-1.5066	-1.6233	-1.3431	-1.1547	-1.486	-0.474	-0.1966	-0.4411	-1.3421	-0.0823	-1.9643	-1.4723
675.7812	-0.1984	-1.2594	-0.7352	-1.8817	-0.9899	-1.6674	-0.7595	-0.8218	-0.6753	-0.3284	-1.072	-0.4796	-0.5989	-0.9227	-1.8467	-1.4562	-1.4868	-1.1414	-1.5179	-1.6738	-1.4467	-1.1288	-1.4863	-0.5141	-0.2298	-0.5434	-1.398	-0.1104	-1.9547	-1.463
679.6875	-0.1036	-1.2149	-0.6823	-1.774	-1.0045	-1.6684	-0.7403	-0.8545	-0.6458	-0.2463	-0.9829	-0.4025	-0.5792	-0.9002	-1.7976	-1.3694	-1.4441	-1.0986	-1.4242	-1.6074	-1.4405	-1.0192	-1.4228	-0.4975	-0.2388	-0.6092	-1.3784	-0.094	-1.9045	-1.4149
683.5938	0.0595	-1.0385	-0.6068	-1.5687	-0.948	-1.627	-0.6963	-0.8831	-0.6171	-0.1627	-0.8936	-0.3046	-0.4993	-0.8003	-1.668	-1.1771	-1.2885	-1.0344	-1.2394	-1.4296	-1.3273	-0.8333	-1.2956	-0.4271	-0.2217	-0.635	-1.2915	-0.0418	-1.813	-1.3276
687.5	0.264	-0.7496	-0.5132	-1.2889	-0.8378	-1.5576	-0.6448	-0.9113	-0.6031	-0.1012	-0.8281	-0.2054	-0.3747	-0.6388	-1.4665	-0.8988	-1.0303	-0.9433	-0.9859	-1.159	-1.1244	-0.5899	-1.1141	-0.3146	-0.1805	-0.6249	-1.1556	0.0313	-1.6845	-1.2051
691.4062	0.4803	-0.3873	-0.4071	-0.9688	-0.6995	-1.4809	-0.6073	-0.9444	-0.6166	-0.085	-0.8077	-0.1251	-0.2309	-0.4421	-1.214	-0.5656	-0.6941	-0.8226	-0.6923	-0.8258	-0.8625	-0.3168	-0.8965	-0.1802	-0.1218	-0.5894	-0.9973	0.1069	-1.5284	-1.056
695.3125	0.6812	-0.0047	-0.2951	-0.6495	-0.5619	-1.4189	-0.6047	-0.9871	-0.6672	-0.1321	-0.8466	-0.0815	-0.0982	-0.2429	-0.9413	-0.2175	-0.3162	-0.6751	-0.3907	-0.4683	-0.5802	-0.0468	-0.6678	-0.0488	-0.0554	-0.5434	-0.8475	0.1653	-1.3583	-0.8926
699.2188	0.8445	0.341	-0.185	-0.3722	-0.4514	-1.389	-0.6521	-1.0417	-0.758	-0.2506	-0.9488	-0.0863	-0.0055	-0.0732	-0.6827	0.1036	0.0614	-0.5101	-0.1125	-0.1268	-0.3175	0.188	-0.4554	0.0546	0.0068	-0.5019	-0.7352	0.1903	-1.1899	-0.7293
703.125	0.955	0.5996	-0.0856	-0.1714	-0.386	-1.3997	-0.754	-1.1063	-0.8837	-0.4351	-1.1055	-0.1421	0.0267	0.0418	-0.4694	0.36	0.3974	-0.342	0.1152	0.1629	-0.1083	0.3617	-0.2848	0.1103	0.054	-0.4765	-0.6816	0.173	-1.0389	-0.5809
707.0312	1.0043	0.7365	-0.0056	-0.0694	-0.3719	-1.448	-0.9022	-1.1738	-1.0306	-0.6665	-1.2961	-0.2406	-0.0095	0.089	-0.3231	0.5242	0.6569	-0.1884	0.2723	0.3746	0.0255	0.4588	-0.1746	0.1083	0.0782	-0.4722	-0.6957	0.1142	-0.9188	-0.4614
710.9375	0.9912	0.7376	0.0474	-0.0724	-0.4026	-1.5206	-1.0762	-1.2334	-1.1781	-0.9139	-1.4908	-0.3636	-0.1065	0.0696	-0.2529	0.5825	0.8166	-0.0657	0.3484	0.4951	0.0766	0.4767	-0.1337	0.0505	0.0765	-0.4859	-0.7721	0.0259	-0.8395	-0.382
714.8438	0.9203	0.61	0.0682	-0.1709	-0.4613	-1.597	-1.2472	-1.2722	-1.3028	-1.1402	-1.6562	-0.4864	-0.2437	-0.002	-0.2557	0.5364	0.8671	0.0127	0.3436	0.5251	0.0525	0.4256	-0.1596	-0.0488	0.0518	-0.5073	-0.8919	-0.0716	-0.8063	-0.3501
718.75	0.801	0.3783	0.0568	-0.3409	-0.525	-1.6542	-1.3831	-1.278	-1.3822	-1.3073	-1.761	-0.5815	-0.3906	-0.1014	-0.319	0.4017	0.8132	0.0394	0.2689	0.4776	-0.027	0.3262	-0.2391	-0.166	0.0119	-0.5215	-1.0266	-0.153	-0.8196	-0.3681
722.6562	0.646	0.0796	0.0192	-0.5492	-0.5699	-1.6714	-1.4545	-1.2419	-1.3987	-1.3832	-1.7816	-0.6243	-0.5132	-0.1998	-0.4252	0.2044	0.6723	0.0142	0.1443	0.3749	-0.1346	0.2071	-0.3498	-0.272	-0.0317	-0.5123	-1.1429	-0.193	-0.874	-0.433
726.5625	0.4707	-0.2429	-0.0323	-0.758	-0.5758	-1.6338	-1.4403	-1.16	-1.3428	-1.347	-1.7066	-0.5969	-0.5802	-0.2689	-0.5558	-0.023	0.4714	-0.0557	-0.0037	0.2445	-0.2404	0.0994	-0.4642	-0.3379	-0.0661	-0.4668	-1.2097	-0.1721	-0.9596	-0.5367
730.4688	0.2919	-0.546	-0.0815	-0.9318	-0.5303	-1.5352	-1.3313	-1.0341	-1.2148	-1.1931	-1.5383	-0.4925	-0.5691	-0.2865	-0.6936	-0.2477	0.2426	-0.1565	-0.1461	0.1148	-0.317	0.0326	-0.5537	-0.3405	-0.0797	-0.3784	-1.204	-0.0802	-1.0626	-0.6668
734.375	0.1262	-0.792	-0.1124	-1.0425	-0.43	-1.3787	-1.1327	-0.8717	-1.0253	-0.9326	-1.2936	-0.3164	-0.4705	-0.2399	-0.8241	-0.4408	0.0195	-0.2699	-0.2555	0.0112	-0.3432	0.0295	-0.5934	-0.2672	-0.0648	-0.2498	-1.1151	0.0808	-1.1671	-0.8077
738.2812	-0.0118	-0.9527	-0.1136	-1.0734	-0.2811	-1.1767	-0.864	-0.6858	-0.794	-0.5926	-1.001	-0.0867	-0.2896	-0.1276	-0.9359	-0.5804	-0.1672	-0.3756	-0.3108	-0.0467	-0.307	0.1021	-0.5667	-0.1186	-0.019	-0.093	-0.9479	0.2962	-1.2581	-0.9435
742.1875	-0.1106	-1.0124	-0.0815	-1.0212	-0.0969	-0.9486	-0.5561	-0.493	-0.5473	-0.2131	-0.6975	0.1684	-0.046	0.0411	-1.0192	-0.654	-0.2928	-0.4543	-0.2995	-0.0471	-0.2063	0.25	-0.4685	0.0907	0.0534	0.0726	-0.7216	0.5413	-1.3238	-1.0597
746.0938	-0.1627	-0.9698	-0.0213	-0.8951	0.1043	-0.7177	-0.2469	-0.3125	-0.3148	0.1593	-0.4227	0.4152	0.2304	0.2491	-1.0663	-0.6576	-0.3415	-0.4899	-0.2194	0.0137	-0.0484	0.4606	-0.3058	0.3348	0.1426	0.2235	-0.4668	0.7843	-1.3576	-1.1453
750	-0.1645	-0.8374	0.0548	-0.7138	0.3034	-0.5075	0.0254	-0.1623	-0.125	0.4779	-0.2131	0.6195	0.5043	0.4744	-1.0715	-0.5954	-0.3077	-0.4726	-0.0783	0.1321	0.1524	0.7117	-0.0966	0.5815	0.2351	0.3369	-0.2204	0.992	-1.3594	-1.194
753.9062	-0.1163	-0.6403	0.1314	-0.5014	0.483	-0.3373	0.2278	-0.0572	-0.0003	0.7033	-0.0963	0.7524	0.7416	0.6951	-1.0325	-0.478	-0.197	-0.3995	0.1086	0.2972	0.377	0.9766	0.1345	0.7977	0.3167	0.3942	-0.0191	1.1343	-1.3338	-1.2046
757.8125	-0.0226	-0.4121	0.1951	-0.2833	0.6299	-0.2198	0.3388	-0.0059	0.046	0.8102	-0.0865	0.7954	0.9153	0.8919	-0.9523	-0.3218	-0.0252	-0.2762	0.3223	0.4934	0.6054	1.229	0.361	0.956	0.3748	0.3849	0.1066	1.1894	-1.289	-1.1804
761.7188	0.1067	-0.189	0.2386	-0.0828	0.7361	-0.1598	0.3503	-0.0092	0.0124	0.7902	-0.182	0.743	1.0091	1.0509	-0.8413	-0.1474	0.1835	-0.1159	0.5421	0.7007	0.8182	1.4472	0.5592	1.0386	0.4009	0.3079	0.1369	1.1468	-1.2334	-1.1282
765.625	0.2547	-0.0052	0.2622	0.0811	0.798	-0.1544	0.2683	-0.0608	-0.0912	0.6528	-0.3664	0.6028	1.0188	1.1631	-0.7185	0.0219	0.3995	0.0618	0.7485	0.897	0.9987	1.6161	0.7109	1.0394	0.3917	0.1712	0.0652	1.0083	-1.1742	-1.0574
769.5312	0.3989	0.112	0.2732	0.1949	0.8152	-0.1959	0.1095	-0.1485	-0.2461	0.4219	-0.6118	0.3937	0.951	1.224	-0.6108	0.1612	0.5913	0.2326	0.9245	1.0598	1.1336	1.7277	0.8039	0.963	0.3491	-0.0104	-0.102	0.7875	-1.117	-0.9792
773.4375	0.5139	0.1446	0.2829	0.2503	0.7891	-0.2737	-0.1029	-0.2575	-0.4282	0.1301	-0.8846	0.1414	0.8195	1.2314	-0.5492	0.2476	0.7299	0.3706	1.0563	1.1687	1.2135	1.7796	0.8321	0.8221	0.2785	-0.2187	-0.348	0.5062	-1.0659	-0.9056
777.3438	0.5774	0.0845	0.3025	0.2451	0.722	-0.3772	-0.3447	-0.3728	-0.6133	-0.188	-1.1514	-0.1268	0.6422	1.1855	-0.5638	0.2626	0.7927	0.4519	1.1347	1.2082	1.2337	1.7737	0.7939	0.6331	0.1879	-0.4357	-0.6501	0.1899	-1.0244	-0.8478
781.25	0.5747	-0.0671	0.3402	0.1828	0.6172	-0.4975	-0.5946	-0.4823	-0.7814	-0.5023	-1.3855	-0.387	0.4367	1.0888	-0.6768	0.1957	0.767	0.4593	1.1568	1.1705	1.1946	1.7151	0.6915	0.4129	0.0856	-0.6472	-0.9842	-0.1372	-0.9959	-0.8148
785.1562	0.5021	-0.3008	0.3993	0.0719	0.4794	-0.6276	-0.8379	-0.5782	-0.9198	-0.7922	-1.5709	-0.6227	0.2181	0.9467	-0.8971	0.0471	0.6523	0.3855	1.1263	1.0571	1.1025	1.6116	0.5316	0.1759	-0.0211	-0.8445	-1.3293	-0.4564	-0.9826	-0.8116
789.0625	0.3674	-0.5999	0.4788	-0.0748	0.3157	-0.7626	-1.0667	-0.6579	-1.0247	-1.0488	-1.7046	-0.8273	-0.0025	0.7682	-1.217	-0.1724	0.4607	0.2365	1.0535	0.8794	0.9689	1.4745	0.3256	-0.067	-0.1273	-1.0251	-1.6709	-0.7575	-0.9845	-0.8374
792.9688	0.1876	-0.9413	0.5744	-0.2422	0.1352	-0.8986	-1.2797	-0.7231	-1.1009	-1.2737	-1.7955	-1.0033	-0.2182	0.5662	-1.6126	-0.442	0.2148	0.0305	0.9538	0.6573	0.8094	1.3174	0.0895	-0.3085	-0.23	-1.1915	-2.0015	-1.0385	-0.9983	-0.8861
796.875	-0.0149	-1.2982	0.6806	-0.4149	-0.0513	-1.0325	-1.48	-0.7787	-1.1592	-1.4766	-1.861	-1.1605	-0.4256	0.3559	-2.0486	-0.735	-0.0561	-0.2045	0.8445	0.4157	0.6412	1.1557	-0.1571	-0.5436	-0.3284	-1.349	-2.3197	-1.3044	-1.0175	-0.9468
