time	FP1	F3	F7	FC3	C3	C5	P3	P7	PO7	PO3	O1	Oz	Pz	CPz	FP2	Fz	F4	F8	FC4	FCz	Cz	C4	C6	P4	P8	PO8	PO4	O2	HEOG_left	HEOG_right
-199.2188	-0.8495	-1.3021	-0.6408	-1.3103	-0.5506	-0.5148	0.7824	1.1931	1.1065	1.0406	1.3667	0.4996	0.4286	0.1095	-1.0841	-1.2218	-1.1676	-0.664	-1.1524	-0.8476	-0.5935	-1.0555	-1.277	0.1466	-0.6079	-0.7074	0.1717	-0.0582	-0.5592	-0.8825
-195.3125	-0.7492	-1.1429	-0.4471	-1.1312	-0.5246	-0.4866	0.5791	0.9396	0.8658	0.7941	1.0621	0.3702	0.2687	0.0207	-0.9319	-1.0381	-1.0455	-0.6195	-1.0168	-0.7272	-0.5617	-0.8792	-1.1022	0.1121	-0.5516	-0.5638	0.114	-0.0313	-0.4852	-0.7475
-191.4062	-0.6716	-1.0198	-0.2844	-0.9864	-0.5162	-0.4704	0.3836	0.697	0.6401	0.5599	0.7772	0.2466	0.1095	-0.0772	-0.8106	-0.888	-0.9472	-0.5871	-0.8998	-0.6362	-0.5468	-0.7235	-0.9441	0.07	-0.4953	-0.4301	0.052	-0.0102	-0.4265	-0.629
-187.5	-0.6342	-0.9588	-0.1804	-0.9009	-0.5394	-0.4768	0.2019	0.4749	0.4422	0.3478	0.5269	0.1319	-0.0479	-0.1894	-0.7411	-0.7958	-0.8899	-0.5752	-0.8173	-0.5973	-0.5621	-0.6059	-0.8157	0.0136	-0.4397	-0.3144	-0.0181	0.001	-0.3938	-0.5395
-183.5938	-0.6442	-0.9688	-0.1451	-0.8841	-0.5986	-0.5098	0.0405	0.2821	0.2808	0.1662	0.3204	0.0298	-0.1987	-0.3148	-0.7305	-0.7712	-0.8803	-0.5875	-0.7769	-0.62	-0.6117	-0.5347	-0.724	-0.0579	-0.3845	-0.2206	-0.0959	0.0012	-0.39	-0.4842
-179.6875	-0.696	-1.0397	-0.1693	-0.9271	-0.6878	-0.5658	-0.0941	0.126	0.1603	0.0221	0.1609	-0.0557	-0.3347	-0.4448	-0.7707	-0.807	-0.9133	-0.6213	-0.7765	-0.6981	-0.6895	-0.5078	-0.6688	-0.1397	-0.3287	-0.1477	-0.176	-0.0074	-0.4095	-0.4606
-175.7812	-0.7742	-1.1453	-0.2296	-1.0058	-0.7915	-0.6346	-0.1957	0.0121	0.0804	-0.0802	0.0464	-0.1206	-0.4453	-0.5652	-0.8413	-0.8825	-0.9736	-0.6681	-0.8061	-0.813	-0.7811	-0.515	-0.6438	-0.2221	-0.2717	-0.0912	-0.2497	-0.0207	-0.4403	-0.4597
-171.875	-0.8572	-1.2514	-0.2972	-1.0887	-0.8892	-0.7025	-0.2598	-0.0572	0.0375	-0.139	-0.0295	-0.1621	-0.5207	-0.6593	-0.9158	-0.9696	-1.041	-0.7164	-0.8515	-0.9386	-0.8682	-0.541	-0.6387	-0.2936	-0.2137	-0.0456	-0.3073	-0.0338	-0.4682	-0.469
-167.9688	-0.9239	-1.3253	-0.3481	-1.1452	-0.961	-0.756	-0.285	-0.0829	0.0256	-0.1565	-0.0748	-0.1795	-0.5545	-0.7124	-0.9695	-1.0408	-1.096	-0.7551	-0.8984	-1.0488	-0.9339	-0.5707	-0.6428	-0.3441	-0.1568	-0.0063	-0.3416	-0.0431	-0.4815	-0.4766
-164.0625	-0.9592	-1.3447	-0.3702	-1.1545	-0.9926	-0.7855	-0.2739	-0.0698	0.0378	-0.1383	-0.098	-0.1748	-0.5463	-0.7158	-0.9862	-1.0768	-1.1252	-0.7779	-0.9374	-1.1242	-0.9669	-0.5934	-0.6474	-0.3674	-0.1042	0.0292	-0.3493	-0.0469	-0.4742	-0.4747
-160.1562	-0.9577	-1.303	-0.3659	-1.1109	-0.9788	-0.7871	-0.2326	-0.0269	0.067	-0.0936	-0.1063	-0.1525	-0.502	-0.6696	-0.962	-1.0704	-1.1249	-0.7852	-0.9656	-1.1558	-0.964	-0.6054	-0.6478	-0.3632	-0.0601	0.0614	-0.3324	-0.0456	-0.4482	-0.4612
-156.25	-0.9241	-1.2096	-0.3495	-1.0243	-0.9242	-0.7626	-0.1704	0.0341	0.1062	-0.0332	-0.1045	-0.1189	-0.4326	-0.5825	-0.9054	-1.027	-1.1013	-0.7841	-0.9874	-1.1468	-0.9298	-0.6095	-0.644	-0.3362	-0.0284	0.0889	-0.2974	-0.0407	-0.4114	-0.4406
-152.3438	-0.8709	-1.086	-0.3409	-0.9161	-0.8411	-0.7188	-0.0979	0.1002	0.1485	0.0318	-0.0954	-0.0806	-0.3515	-0.4705	-0.8336	-0.9614	-1.0676	-0.7858	-1.0111	-1.1089	-0.8745	-0.6135	-0.6391	-0.295	-0.0115	0.1103	-0.2529	-0.0339	-0.3754	-0.4212
-148.4375	-0.8135	-0.9589	-0.3574	-0.8121	-0.7459	-0.6642	-0.0252	0.1588	0.1875	0.0914	-0.0802	-0.043	-0.2716	-0.353	-0.7666	-0.8922	-1.0389	-0.8009	-1.0454	-1.0585	-0.8104	-0.6265	-0.6382	-0.2499	-0.0102	0.1247	-0.2077	-0.0261	-0.351	-0.4126
-144.5312	-0.7656	-0.852	-0.4078	-0.7342	-0.6546	-0.6077	0.0388	0.1993	0.2169	0.1382	-0.0595	-0.0104	-0.2032	-0.2491	-0.7209	-0.8358	-1.0274	-0.8356	-1.0946	-1.0106	-0.7486	-0.655	-0.6457	-0.2105	-0.0231	0.1317	-0.1686	-0.017	-0.3448	-0.4221
-140.625	-0.7348	-0.7805	-0.4892	-0.6949	-0.5796	-0.5559	0.0875	0.2146	0.2318	0.1672	-0.035	0.0151	-0.1528	-0.1742	-0.7044	-0.8012	-1.037	-0.8881	-1.1561	-0.9747	-0.6968	-0.7011	-0.6639	-0.1846	-0.0478	0.1317	-0.14	-0.0058	-0.357	-0.4516
-136.7188	-0.7215	-0.7473	-0.5884	-0.6946	-0.5276	-0.5128	0.1161	0.202	0.2288	0.1758	-0.0096	0.0324	-0.1232	-0.1372	-0.7141	-0.7888	-1.0624	-0.9484	-1.2199	-0.9525	-0.658	-0.7607	-0.6916	-0.177	-0.0803	0.125	-0.1237	0.0084	-0.3814	-0.4969
-132.8125	-0.7197	-0.7443	-0.6857	-0.7226	-0.4997	-0.4799	0.122	0.163	0.2073	0.1637	0.0124	0.0414	-0.1144	-0.1401	-0.7378	-0.7905	-1.0906	-1	-1.2712	-0.9388	-0.6316	-0.8248	-0.7243	-0.1893	-0.1161	0.1123	-0.1194	0.0267	-0.407	-0.5479
-128.9062	-0.7193	-0.7555	-0.7614	-0.7614	-0.4919	-0.4566	0.1041	0.1026	0.1694	0.1321	0.0263	0.0426	-0.1245	-0.1787	-0.7577	-0.7936	-1.1048	-1.0245	-1.2947	-0.9239	-0.6146	-0.8815	-0.7549	-0.2195	-0.1497	0.0958	-0.1257	0.0494	-0.4219	-0.5912
-125	-0.7101	-0.7623	-0.8008	-0.7922	-0.4981	-0.4414	0.0631	0.0288	0.1198	0.0835	0.0282	0.0373	-0.1512	-0.2438	-0.7564	-0.7854	-1.0908	-1.0068	-1.2789	-0.8977	-0.6034	-0.9186	-0.7756	-0.2628	-0.1751	0.079	-0.1402	0.0766	-0.4165	-0.6136
-121.0938	-0.685	-0.749	-0.7984	-0.8003	-0.5109	-0.433	0.0016	-0.0498	0.0643	0.0213	0.0164	0.0271	-0.1921	-0.3244	-0.7223	-0.7572	-1.0404	-0.9393	-1.2193	-0.8532	-0.5955	-0.9259	-0.7794	-0.3124	-0.186	0.0673	-0.1605	0.108	-0.3866	-0.6049
-117.1875	-0.6406	-0.7063	-0.7585	-0.778	-0.5239	-0.4304	-0.076	-0.125	0.0091	-0.0501	-0.008	0.0143	-0.2443	-0.4091	-0.6524	-0.7063	-0.954	-0.8242	-1.1186	-0.7886	-0.5894	-0.8974	-0.7605	-0.3601	-0.1769	0.0667	-0.1834	0.1425	-0.3346	-0.5609
-113.2812	-0.5778	-0.6322	-0.6926	-0.7251	-0.5313	-0.4324	-0.1633	-0.19	-0.0402	-0.1253	-0.041	0.0017	-0.3042	-0.4874	-0.5521	-0.6359	-0.8389	-0.6724	-0.9844	-0.7063	-0.584	-0.8304	-0.7145	-0.3976	-0.1443	0.0821	-0.2055	0.1788	-0.2678	-0.483
-109.375	-0.4995	-0.5311	-0.6151	-0.6466	-0.5283	-0.4368	-0.2512	-0.2402	-0.0791	-0.1973	-0.0761	-0.007	-0.3657	-0.5498	-0.4326	-0.5517	-0.7052	-0.5001	-0.8256	-0.6112	-0.5769	-0.7252	-0.6378	-0.4168	-0.0874	0.1154	-0.2223	0.215	-0.1962	-0.3778
-105.4688	-0.4088	-0.4104	-0.5385	-0.5499	-0.51	-0.4398	-0.3291	-0.2731	-0.1043	-0.2585	-0.1062	-0.0082	-0.4202	-0.5879	-0.3061	-0.4594	-0.5618	-0.3247	-0.6488	-0.508	-0.5632	-0.5841	-0.527	-0.4114	-0.0093	0.1636	-0.2293	0.248	-0.1289	-0.255
-101.5625	-0.3074	-0.2777	-0.4691	-0.4411	-0.4719	-0.4358	-0.3864	-0.2883	-0.1142	-0.3012	-0.125	0.0009	-0.4576	-0.5946	-0.1823	-0.3615	-0.4133	-0.1607	-0.4568	-0.399	-0.5354	-0.4107	-0.3799	-0.3773	0.0829	0.2188	-0.2222	0.2743	-0.0713	-0.1243
-97.6562	-0.1954	-0.1387	-0.405	-0.3232	-0.4102	-0.4179	-0.4145	-0.2874	-0.1097	-0.3197	-0.129	0.0214	-0.4678	-0.5653	-0.0661	-0.2574	-0.2591	-0.0167	-0.2499	-0.2836	-0.4849	-0.2105	-0.1964	-0.3147	0.1796	0.269	-0.1987	0.2889	-0.0237	0.0058
-93.75	-0.0722	0.0041	-0.338	-0.1966	-0.3228	-0.3798	-0.4095	-0.2743	-0.0943	-0.3119	-0.1184	0.051	-0.4435	-0.4989	0.0423	-0.1441	-0.0957	0.1053	-0.0278	-0.1599	-0.4045	0.0087	0.0197	-0.2279	0.2693	0.3007	-0.1589	0.2868	0.0188	0.1293
-89.8438	0.0619	0.1504	-0.2562	-0.0595	-0.2101	-0.317	-0.3729	-0.2538	-0.074	-0.2804	-0.0971	0.0846	-0.3823	-0.3983	0.1463	-0.0185	0.0806	0.2091	0.2074	-0.026	-0.2907	0.2363	0.2593	-0.1253	0.341	0.3019	-0.1062	0.2637	0.0636	0.2429
-85.9375	0.2043	0.3007	-0.1496	0.0895	-0.0757	-0.2278	-0.3116	-0.2316	-0.0568	-0.2323	-0.0714	0.115	-0.2871	-0.2705	0.2504	0.1204	0.2704	0.3023	0.4489	0.1182	-0.1448	0.4594	0.5079	-0.0176	0.3865	0.2664	-0.0463	0.2176	0.118	0.3451
-82.0312	0.3501	0.455	-0.0138	0.2499	0.0744	-0.1142	-0.2364	-0.2123	-0.0503	-0.1773	-0.0477	0.1347	-0.1662	-0.125	0.358	0.2704	0.4702	0.3935	0.6859	0.2702	0.0266	0.6643	0.7474	0.0837	0.4016	0.1955	0.0141	0.1504	0.1869	0.4353
-78.125	0.4921	0.611	0.1472	0.418	0.232	0.0186	-0.1594	-0.1989	-0.0604	-0.1257	-0.0311	0.1379	-0.0314	0.0276	0.4699	0.4258	0.6715	0.4894	0.904	0.4251	0.2131	0.8381	0.9582	0.1691	0.3868	0.0982	0.0685	0.0678	0.2704	0.513
-74.2188	0.6223	0.7638	0.3211	0.587	0.3883	0.1629	-0.0913	-0.1918	-0.0897	-0.0858	-0.0234	0.1226	0.1037	0.177	0.5832	0.5784	0.8628	0.5922	1.0886	0.5763	0.4022	0.9702	1.1222	0.2318	0.347	-0.0105	0.1121	-0.0204	0.3635	0.577
-70.3125	0.7331	0.9057	0.489	0.7475	0.5346	0.3098	-0.0394	-0.1894	-0.1369	-0.0626	-0.0235	0.0906	0.2264	0.3147	0.691	0.719	1.031	0.6982	1.2267	0.7165	0.5816	1.0534	1.2257	0.2695	0.2904	-0.1132	0.1426	-0.1025	0.457	0.6248
-66.4062	0.8184	1.0267	0.6297	0.8892	0.6637	0.4505	-0.006	-0.1878	-0.1964	-0.0565	-0.0278	0.0476	0.3269	0.4345	0.7839	0.8379	1.1633	0.7979	1.3092	0.8385	0.74	1.0847	1.2619	0.2833	0.2264	-0.1935	0.1608	-0.1671	0.5387	0.653
-62.5	0.8747	1.1167	0.7245	1.0021	0.7702	0.5772	0.0111	-0.1825	-0.2595	-0.0639	-0.0316	0.0021	0.3999	0.5327	0.8514	0.9274	1.2498	0.879	1.3331	0.9358	0.8688	1.0657	1.231	0.2776	0.1637	-0.2395	0.1699	-0.2048	0.5965	0.6582
-58.5938	0.9012	1.1677	0.7621	1.0794	0.8511	0.6844	0.0181	-0.1692	-0.3163	-0.0783	-0.0307	-0.0371	0.4451	0.6077	0.885	0.9823	1.2852	0.9299	1.3012	1.0041	0.9626	1.0025	1.1414	0.2592	0.1097	-0.2458	0.1747	-0.2113	0.6209	0.6384
-54.6875	0.9005	1.1763	0.7418	1.1184	0.9056	0.769	0.0225	-0.1461	-0.3579	-0.0921	-0.0229	-0.0627	0.466	0.6598	0.8812	1.0021	1.2706	0.9437	1.2235	1.0414	1.0196	0.9052	1.0074	0.2353	0.0685	-0.2144	0.1802	-0.1878	0.608	0.5943
-50.7812	0.8784	1.1456	0.6743	1.1221	0.9355	0.8307	0.0311	-0.1141	-0.3786	-0.0986	-0.0094	-0.0707	0.4691	0.6902	0.8434	0.9913	1.2149	0.9209	1.1161	1.0494	1.0415	0.7874	0.8485	0.2124	0.0417	-0.1545	0.1901	-0.1418	0.5607	0.5307
-46.875	0.8436	1.0857	0.5798	1.0991	0.9443	0.8716	0.0481	-0.0777	-0.3774	-0.094	0.0056	-0.0616	0.461	0.7008	0.7827	0.9595	1.1347	0.8705	0.9997	1.0339	1.0337	0.665	0.6862	0.1955	0.0281	-0.08	0.2054	-0.0848	0.4892	0.4566
-42.9688	0.8063	1.0121	0.4831	1.0619	0.9372	0.8959	0.0742	-0.0435	-0.358	-0.0781	0.015	-0.0404	0.4475	0.6939	0.7165	0.9203	1.0513	0.8084	0.8971	1.0043	1.0044	0.5538	0.5419	0.1874	0.0248	-0.007	0.2247	-0.031	0.4082	0.384
-39.0625	0.7765	0.9432	0.4076	1.0249	0.9201	0.9083	0.1064	-0.0192	-0.3274	-0.0547	0.0108	-0.0155	0.4321	0.6719	0.6648	0.8885	0.9871	0.7532	0.829	0.9726	0.9637	0.4682	0.4336	0.1888	0.0287	0.0502	0.2441	0.0068	0.3342	0.3261
-35.1562	0.7626	0.8963	0.3701	1.0019	0.8995	0.9137	0.1393	-0.0107	-0.2937	-0.03	-0.0141	0.0033	0.4162	0.6381	0.6459	0.8777	0.96	0.7221	0.8099	0.9513	0.9223	0.4189	0.3738	0.1992	0.0374	0.0824	0.2589	0.0192	0.2812	0.2947
-31.25	0.7698	0.8853	0.377	1.0035	0.8819	0.9167	0.1671	-0.0209	-0.2638	-0.0114	-0.0636	0.007	0.4	0.5972	0.6721	0.8979	0.9799	0.7267	0.846	0.9527	0.8909	0.4127	0.368	0.2178	0.05	0.0867	0.2656	0.0024	0.2577	0.298
-27.3438	0.8005	0.9181	0.4245	1.0367	0.8745	0.9214	0.1859	-0.0482	-0.2412	-0.0048	-0.1363	-0.0098	0.3842	0.5564	0.7478	0.9544	1.0472	0.7697	0.9344	0.9866	0.8802	0.4518	0.4145	0.2448	0.0673	0.0678	0.2635	-0.0408	0.2654	0.3392
-23.4375	0.8548	0.997	0.5006	1.1047	0.8853	0.9325	0.1959	-0.0861	-0.2254	-0.0121	-0.2246	-0.0468	0.3716	0.5261	0.8686	1.0482	1.1543	0.8443	1.0654	1.0606	0.9011	0.5357	0.5053	0.2817	0.0917	0.0365	0.2564	-0.1015	0.3	0.4161
-19.5312	0.9317	1.1193	0.5904	1.2076	0.9233	0.955	0.2022	-0.1244	-0.2115	-0.0303	-0.3156	-0.0983	0.3683	0.5194	1.0239	1.1771	1.2894	0.9362	1.2262	1.1789	0.9635	0.6618	0.6287	0.3321	0.1261	0.0072	0.252	-0.1666	0.3531	0.5214
-15.625	1.0299	1.2791	0.6805	1.3436	0.9968	0.9945	0.2139	-0.1511	-0.1925	-0.0519	-0.3931	-0.1538	0.3824	0.5504	1.2	1.3366	1.4405	1.0279	1.4048	1.3416	1.0753	0.8263	0.7721	0.4003	0.173	-0.0051	0.2609	-0.2211	0.4159	0.645
-11.7188	1.1481	1.4687	0.7628	1.509	1.112	1.0557	0.2417	-0.1552	-0.1613	-0.0662	-0.4403	-0.2005	0.4235	0.6309	1.3833	1.5205	1.599	1.1036	1.5927	1.5446	1.2404	1.0243	0.9248	0.4904	0.2336	0.0121	0.2944	-0.2513	0.4806	0.7754
-7.8125	1.2853	1.6796	0.8364	1.6986	1.2705	1.1415	0.2951	-0.129	-0.1128	-0.0626	-0.4442	-0.2261	0.4995	0.7676	1.5623	1.722	1.7611	1.1542	1.7858	1.7792	1.4562	1.2499	1.0796	0.6047	0.307	0.0652	0.3615	-0.2469	0.5431	0.902
-3.9062	1.4395	1.9033	0.9072	1.9057	1.4685	1.2517	0.3791	-0.0693	-0.0458	-0.0331	-0.3977	-0.2219	0.6145	0.9587	1.7296	1.9338	1.9273	1.1811	1.9839	2.0332	1.713	1.4951	1.2331	0.7426	0.3901	0.154	0.4662	-0.2034	0.6025	1.017
0	1.6083	2.1318	0.986	2.1228	1.696	1.3828	0.4927	0.022	0.0366	0.0251	-0.302	-0.1843	0.7669	1.1936	1.8815	2.1487	2.1004	1.1955	2.1887	2.2919	1.9943	1.7504	1.3853	0.8994	0.478	0.2707	0.6062	-0.1227	0.6615	1.1164
3.9062	1.7879	2.3583	1.0858	2.3428	1.9391	1.5285	0.6286	0.138	0.1275	0.1087	-0.1668	-0.1157	0.9488	1.4531	2.0182	2.3606	2.2837	1.2161	2.4018	2.5409	2.2789	2.0045	1.5373	1.0664	0.5642	0.402	0.7725	-0.0131	0.7243	1.2002
7.8125	1.974	2.5776	1.2184	2.5596	2.1825	1.6813	0.775	0.2688	0.2178	0.2096	-0.0083	-0.0236	1.1465	1.7136	2.1435	2.5653	2.4786	1.2637	2.6225	2.7682	2.5448	2.2461	1.6903	1.2325	0.6427	0.5317	0.9506	0.1126	0.7959	1.272
11.7188	2.1624	2.7872	1.3918	2.7701	2.4131	1.8344	0.9183	0.4025	0.2983	0.3169	0.1536	0.0812	1.3436	1.9511	2.2627	2.7611	2.6832	1.3544	2.8468	2.9666	2.7734	2.4649	1.845	1.3857	0.7091	0.6444	1.123	0.2394	0.8802	1.3378
15.625	2.3491	2.9871	1.6079	2.9744	2.6229	1.9838	1.047	0.5275	0.3623	0.4204	0.2996	0.1873	1.5244	2.1468	2.3814	2.9483	2.8915	1.4947	3.0668	3.1341	2.953	2.6533	2.001	1.5165	0.7625	0.7285	1.2738	0.3538	0.9785	1.4043
19.5312	2.5305	3.1789	1.8612	3.1745	2.81	2.1294	1.1539	0.6345	0.4072	0.514	0.4156	0.2854	1.6782	2.2905	2.5029	3.1279	3.093	1.6787	3.2706	3.2728	3.0805	2.8067	2.1572	1.6197	0.8065	0.7795	1.3916	0.4468	1.0884	1.4768
23.4375	2.7026	3.3635	2.1379	3.3724	2.9779	2.2745	1.2385	0.7176	0.4362	0.5978	0.4952	0.3711	1.8017	2.3822	2.6261	3.2991	3.2733	1.8878	3.4436	3.387	3.1609	2.9234	2.3112	1.6962	0.8489	0.8016	1.4726	0.5161	1.203	1.5569
27.3438	2.8596	3.5392	2.4165	3.5672	3.1323	2.4243	1.3062	0.7754	0.4573	0.6776	0.5418	0.4457	1.8992	2.4309	2.7445	3.4574	3.4164	2.0953	3.5702	3.4797	3.2051	3.004	2.4585	1.7526	0.9005	0.8077	1.5224	0.5674	1.3109	1.6414
31.25	2.9946	3.7001	2.67	3.7537	3.2781	2.5828	1.3671	0.8108	0.4822	0.7633	0.5672	0.516	1.9812	2.4518	2.8473	3.5947	3.5079	2.2721	3.6379	3.5519	3.226	3.0506	2.5932	1.7995	0.9725	0.8169	1.5541	0.6131	1.3984	1.7223
35.1562	3.1006	3.8376	2.8712	3.9228	3.4176	2.7514	1.433	0.8305	0.5238	0.8659	0.589	0.592	2.0608	2.4625	2.923	3.701	3.5397	2.3943	3.6411	3.6023	3.237	3.0672	2.7088	1.8489	1.073	0.8505	1.5859	0.6691	1.4524	1.7888
39.0625	3.1739	3.9443	3.0004	4.0655	3.5507	2.9279	1.5156	0.8434	0.5933	0.994	0.6271	0.6848	2.151	2.4801	2.9645	3.7703	3.5152	2.45	3.5868	3.6315	3.2502	3.0612	2.8006	1.9119	1.2048	0.9263	1.6368	0.7513	1.4655	1.8313
42.9688	3.2182	4.0194	3.0528	4.178	3.6775	3.1082	1.6245	0.8594	0.6985	1.1531	0.6992	0.8032	2.2624	2.5196	2.9757	3.8059	3.4536	2.4442	3.4975	3.6464	3.2785	3.0452	2.8688	1.9972	1.3633	1.0535	1.7226	0.8708	1.4394	1.8453
46.875	3.2471	4.073	3.0428	4.2663	3.8015	3.2885	1.7658	0.8876	0.8417	1.3438	0.8175	0.952	2.4021	2.5938	2.9735	3.8246	3.3897	2.3993	3.4113	3.6638	3.3361	3.0378	2.9205	2.1097	1.5371	1.2295	1.8527	1.0307	1.3869	1.8351
50.7812	3.2825	4.1253	3.0019	4.3465	3.9303	3.4664	1.9414	0.9345	1.0195	1.5628	0.9858	1.1297	2.5732	2.712	2.9862	3.8548	3.3683	2.3511	3.3758	3.7087	3.4387	3.062	2.9697	2.2505	1.7098	1.4396	2.0283	1.2245	1.3297	1.8136
54.6875	3.3492	4.2015	2.971	4.4404	4.0735	3.6403	2.1471	1.0019	1.222	1.8016	1.197	1.3281	2.7739	2.8784	3.0447	3.9296	3.4332	2.3412	3.4368	3.8087	3.599	3.1388	3.0332	2.4162	1.8634	1.6597	2.2414	1.436	1.2926	1.7992
58.5938	3.4665	4.3226	2.9871	4.5675	4.2374	3.8069	2.3712	1.0848	1.4332	2.0465	1.4328	1.5317	2.9951	3.0882	3.1722	4.0747	3.6135	2.4052	3.6235	3.9832	3.8214	3.2808	3.125	2.5975	1.9815	1.8612	2.4755	1.6421	1.2955	1.8104
62.5	3.6395	4.4956	3.0716	4.7357	4.4195	3.9585	2.5935	1.172	1.6322	2.2779	1.6648	1.7194	3.2194	3.3258	3.3729	4.2981	3.9109	2.5636	3.9367	4.2339	4.0952	3.4843	3.2491	2.7792	2.052	2.0174	2.7071	1.8164	1.3468	1.859
66.4062	3.8537	4.707	3.2222	4.9348	4.6048	4.0811	2.7863	1.2466	1.7947	2.4713	1.858	1.8664	3.4213	3.5629	3.6275	4.582	4.2946	2.8133	4.3426	4.5382	4.3917	3.7259	3.3964	2.9399	2.0691	2.1081	2.9088	1.9341	1.4397	1.9455
70.3125	4.0752	4.9225	3.413	5.1348	4.7649	4.1559	2.9186	1.2898	1.8966	2.5994	1.9766	1.9486	3.5693	3.7612	3.8935	4.8833	4.7031	3.1272	4.776	4.8496	4.6653	3.9648	3.5435	3.0549	2.033	2.1234	3.0533	1.9766	1.5531	2.0572
74.2188	4.256	5.0923	3.6	5.2912	4.8633	4.162	2.9604	1.2854	1.918	2.6367	1.9911	1.9461	3.6311	3.878	4.1138	5.1403	5.0558	3.4574	5.1527	5.1047	4.8604	4.1491	3.6575	3.0995	1.9497	2.064	3.1174	1.9339	1.657	2.1702
78.125	4.344	5.1616	3.7327	5.3532	4.8619	4.0815	2.8896	1.2245	1.847	2.5641	1.8845	1.8474	3.5796	3.8732	4.229	5.2856	5.2702	3.7464	5.3868	5.2358	4.9222	4.2274	3.7033	3.0536	1.8288	1.9398	3.0862	1.8068	1.7197	2.2545
82.0312	4.2952	5.0841	3.7656	5.2766	4.7298	3.9037	2.6962	1.1073	1.6825	2.3735	1.6562	1.6517	3.3985	3.718	4.1918	5.2613	5.2813	3.9394	5.411	5.1857	4.8085	4.1597	3.6519	2.9064	1.6822	1.7663	2.9551	1.6057	1.7169	2.2815
85.9375	4.085	4.8339	3.6696	5.0347	4.4513	3.6284	2.385	0.9443	1.4348	2.0697	1.3231	1.3694	3.0866	3.4007	3.9786	5.0336	5.057	3.9972	5.1918	4.922	4.4997	3.927	3.4878	2.658	1.5213	1.5604	2.7304	1.3482	1.638	2.231
89.8438	3.7157	4.4139	3.4379	4.6269	4.0304	3.2676	1.9754	0.7532	1.1249	1.6715	0.916	1.0208	2.6591	2.931	3.5968	4.6026	4.6077	3.905	4.7388	4.446	4.0055	3.5364	3.2132	2.321	1.3556	1.3369	2.4281	1.0558	1.489	2.0971
93.75	3.2183	3.8583	3.0886	4.0818	3.4929	2.8447	1.4997	0.5553	0.7809	1.2091	0.4748	0.633	2.1461	2.34	3.085	4.0051	3.9856	3.6755	4.1036	3.7963	3.3651	3.0211	2.8485	1.919	1.1915	1.106	2.0716	0.7499	1.292	1.8904
97.6562	2.649	3.2288	2.6616	3.4547	2.8843	2.3929	0.9984	0.372	0.4348	0.7215	0.042	0.2371	1.589	1.6778	2.5067	3.3104	3.2756	3.3453	3.3703	3.0441	2.6426	2.4348	2.4284	1.4838	1.0319	0.8742	1.6892	0.4499	1.0799	1.6362
101.5625	2.0796	2.6042	2.2118	2.8196	2.2644	1.9512	0.5165	0.221	0.1182	0.2517	-0.3428	-0.1356	1.0361	1.0069	1.9392	2.608	2.579	2.9664	2.6397	2.2818	1.9179	1.8437	1.9965	1.0524	0.8775	0.6455	1.3115	0.1717	0.89	1.3697
105.4688	1.585	2.067	1.7999	2.2561	1.6994	1.5605	0.0978	0.1149	-0.1415	-0.1578	-0.6474	-0.4562	0.5369	0.3947	1.4589	1.9922	1.9935	2.595	2.0097	1.6078	1.2739	1.3147	1.5966	0.6622	0.7273	0.4237	0.9692	-0.0725	0.7556	1.1286
109.375	1.2294	1.6878	1.481	1.8358	1.2521	1.2578	-0.2196	0.0598	-0.3241	-0.4703	-0.8499	-0.701	0.1365	-0.096	1.1278	1.5441	1.5949	2.28	1.5582	1.1095	0.7839	0.9052	1.2666	0.3471	0.5805	0.2144	0.6907	-0.2731	0.6993	0.9452
113.2812	1.0547	1.5126	1.2944	1.6092	0.972	1.0712	-0.4075	0.0563	-0.4183	-0.6597	-0.9396	-0.8533	-0.129	-0.4153	0.982	1.3172	1.4237	2.0545	1.3293	0.8479	0.5004	0.6541	1.0319	0.1329	0.4373	0.0253	0.4988	-0.4228	0.7283	0.8397
117.1875	1.074	1.5542	1.2569	1.5973	0.888	1.0155	-0.4512	0.0996	-0.4231	-0.7131	-0.9175	-0.9049	-0.2374	-0.5329	1.0268	1.3285	1.4798	1.9318	1.3289	0.8489	0.4486	0.577	0.9032	0.0343	0.2994	-0.1344	0.4088	-0.5169	0.8338	0.8175
121.0938	1.2699	1.7918	1.3602	1.7884	1.0034	1.0895	-0.3511	0.181	-0.347	-0.6334	-0.7953	-0.8573	-0.182	-0.4424	1.2379	1.5581	1.7257	1.9071	1.5268	1.1006	0.6236	0.6652	0.8765	0.0528	0.1704	-0.2556	0.4254	-0.553	0.993	0.869
125	1.5999	2.1756	1.5737	2.1423	1.2958	1.2762	-0.1229	0.2887	-0.2062	-0.4384	-0.5935	-0.7217	0.026	-0.1611	1.5685	1.9548	2.0978	1.9621	1.8672	1.5576	0.9938	0.8898	0.9361	0.1764	0.0552	-0.3312	0.5428	-0.5323	1.175	0.9737
128.9062	2.0053	2.6382	1.8519	2.5977	1.7205	1.5443	0.2038	0.409	-0.0232	-0.1586	-0.3389	-0.5179	0.3591	0.2723	1.9594	2.4485	2.5212	2.072	2.2814	2.151	1.5066	1.2076	1.0588	0.3822	-0.0405	-0.3574	0.7438	-0.4601	1.347	1.1054
132.8125	2.4228	3.1068	2.1439	3.0838	2.2179	1.8531	0.5888	0.5271	0.1774	0.1668	-0.0615	-0.2727	0.7755	0.8026	2.3508	2.9633	2.9258	2.2119	2.7028	2.8007	2.0965	1.5691	1.2195	0.6392	-0.1108	-0.3351	1.0026	-0.3462	1.4809	1.2387
136.7188	2.7944	3.5155	2.4026	3.5312	2.7215	2.1578	0.9859	0.629	0.3706	0.495	0.2081	-0.0168	1.2235	1.3654	2.691	3.4305	3.2575	2.3609	3.0771	3.4274	2.6945	1.9266	1.395	0.9127	-0.1507	-0.2698	1.287	-0.2052	1.5579	1.3533
140.625	3.0758	3.8138	2.5918	3.8813	3.1672	2.4155	1.348	0.7026	0.5338	0.7853	0.4419	0.218	1.6475	1.8949	2.9427	3.7968	3.4845	2.5038	3.3688	3.9624	3.2354	2.2402	1.5672	1.1691	-0.1572	-0.1718	1.5629	-0.0555	1.5702	1.4368
144.5312	3.2395	3.9714	2.6896	4.093	3.5014	2.5908	1.633	0.7395	0.6489	1.0031	0.6165	0.4027	1.9947	2.3319	3.0845	4.0289	3.5966	2.6294	3.5617	4.3548	3.6652	2.4815	1.7241	1.3794	-0.1297	-0.0546	1.7979	0.0824	1.5204	1.4853
148.4375	3.2757	3.9774	2.6889	4.1451	3.6867	2.6596	1.8083	0.7364	0.7036	1.1243	0.7146	0.5142	2.2221	2.6307	3.1101	4.1134	3.5997	2.7283	3.6549	4.5743	3.9452	2.6347	1.8588	1.5227	-0.0706	0.0662	1.9659	0.1888	1.4186	1.5009
152.3438	3.189	3.8381	2.5946	4.0362	3.7053	2.611	1.8553	0.6949	0.6922	1.1371	0.7267	0.5384	2.3023	2.764	3.0239	4.0534	3.5082	2.7891	3.6561	4.6116	4.0553	2.6954	1.9685	1.5877	0.0149	0.1753	2.05	0.2479	1.2783	1.4891
156.25	2.9945	3.5708	2.4193	3.7813	3.5589	2.4476	1.771	0.6214	0.6163	1.043	0.6522	0.472	2.2267	2.7256	2.8369	3.8636	3.3374	2.7977	3.5753	4.4752	3.9934	2.6676	2.0517	1.573	0.1191	0.2598	2.0441	0.2507	1.1127	1.4552
160.1562	2.7123	3.1984	2.1792	3.4066	3.2665	2.1829	1.5678	0.5258	0.4844	0.8557	0.4997	0.323	2.0063	2.5286	2.5631	3.5646	3.0985	2.7376	3.4201	4.1872	3.774	2.5609	2.1065	1.4858	0.2328	0.3107	1.9534	0.1967	0.9319	1.402
164.0625	2.3638	2.7455	1.8896	2.9446	2.8597	1.8388	1.2717	0.4198	0.311	0.5988	0.287	0.1091	1.669	2.2027	2.217	3.1788	2.797	2.5931	3.1939	3.7781	3.4241	2.3868	2.129	1.3396	0.3464	0.3241	1.7923	0.0934	0.742	1.3285
167.9688	1.9688	2.2351	1.5636	2.4289	2.3774	1.4417	0.9174	0.3146	0.1144	0.3024	0.0392	-0.1447	1.2542	1.7879	1.8138	2.7279	2.4342	2.3542	2.8971	3.2818	2.9788	2.1569	2.1131	1.1517	0.4509	0.3013	1.5813	-0.0448	0.5457	1.231
171.875	1.5445	1.6886	1.2109	1.8917	1.8609	1.0195	0.5433	0.2204	-0.0853	-0.0018	-0.214	-0.41	0.8065	1.3286	1.3698	2.232	2.0116	2.0215	2.5312	2.7319	2.4763	1.8824	2.0511	0.9399	0.5389	0.2474	1.3435	-0.2006	0.3443	1.105
175.7812	1.1072	1.1271	0.8396	1.3616	1.3493	0.5993	0.1866	0.1446	-0.2689	-0.2843	-0.4424	-0.6592	0.3689	0.8678	0.904	1.711	1.5354	1.6088	2.1027	2.1599	1.9541	1.574	1.9358	0.7202	0.6051	0.1702	1.1009	-0.3562	0.1401	0.9478
179.6875	0.6732	0.5732	0.4578	0.8641	0.8759	0.2057	-0.1222	0.0919	-0.4201	-0.522	-0.6197	-0.8695	-0.0235	0.4414	0.4386	1.1859	1.02	1.1435	1.6258	1.5947	1.4453	1.2423	1.7628	0.5057	0.6464	0.0784	0.8717	-0.497	-0.062	0.7614
183.5938	0.2602	0.0515	0.0764	0.4205	0.4658	-0.1413	-0.3623	0.0639	-0.5275	-0.7007	-0.7276	-1.0255	-0.3467	0.075	-0.0022	0.6797	0.4887	0.6625	1.123	1.0618	0.9769	0.8991	1.5325	0.3053	0.662	-0.0195	0.6687	-0.6128	-0.2539	0.5535
187.5	-0.1132	-0.4124	-0.2906	0.0487	0.1344	-0.4271	-0.5248	0.0597	-0.5857	-0.8165	-0.7582	-1.12	-0.5899	-0.2174	-0.3954	0.2158	-0.0291	0.2052	0.6222	0.5833	0.568	0.5563	1.2512	0.1245	0.6532	-0.1152	0.4994	-0.6978	-0.4249	0.3367
191.4062	-0.4291	-0.7945	-0.6262	-0.2388	-0.1128	-0.6442	-0.6128	0.0758	-0.5958	-0.8743	-0.7152	-1.1545	-0.7542	-0.4338	-0.7222	-0.184	-0.5033	-0.1936	0.1514	0.1769	0.2298	0.226	0.9301	-0.0342	0.6235	-0.2007	0.3672	-0.7497	-0.5645	0.126
195.3125	-0.6739	-1.0772	-0.9135	-0.436	-0.2793	-0.7922	-0.6383	0.1074	-0.5645	-0.8858	-0.6118	-1.1363	-0.8497	-0.5812	-0.9723	-0.5038	-0.9096	-0.5112	-0.2667	-0.1462	-0.0345	-0.0815	0.5843	-0.1696	0.5777	-0.2677	0.2729	-0.7684	-0.6648	-0.0643
199.2188	-0.8418	-1.2536	-1.1394	-0.5461	-0.3766	-0.8775	-0.6193	0.1488	-0.5019	-0.8652	-0.4677	-1.0773	-0.8915	-0.6733	-1.1465	-0.7374	-1.2356	-0.7415	-0.6204	-0.3834	-0.229	-0.3588	0.2299	-0.2814	0.5217	-0.3083	0.2164	-0.7548	-0.7239	-0.2248
203.125	-0.9377	-1.3307	-1.2984	-0.5826	-0.4217	-0.9122	-0.5746	0.1947	-0.4197	-0.8257	-0.3042	-0.9899	-0.8961	-0.7267	-1.2577	-0.8911	-1.4844	-0.8955	-0.9114	-0.5423	-0.3644	-0.6031	-0.1185	-0.3693	0.4611	-0.3159	0.1971	-0.7104	-0.747	-0.3535
207.0312	-0.9773	-1.3308	-1.3956	-0.5697	-0.4348	-0.9124	-0.5202	0.2412	-0.3279	-0.7764	-0.1396	-0.8857	-0.8778	-0.7579	-1.3293	-0.9836	-1.6747	-0.9992	-1.1544	-0.641	-0.4564	-0.8165	-0.4495	-0.4335	0.4007	-0.2869	0.2141	-0.6381	-0.7467	-0.4565
210.9375	-0.9851	-1.2883	-1.4464	-0.5391	-0.4369	-0.8955	-0.4668	0.2866	-0.2329	-0.7208	0.0145	-0.7734	-0.8471	-0.7813	-1.3917	-1.0435	-1.8357	-1.0869	-1.373	-0.7056	-0.5238	-1.0052	-0.7563	-0.4743	0.344	-0.2221	0.2656	-0.5418	-0.7408	-0.5469
214.8438	-0.9903	-1.2437	-1.4737	-0.5258	-0.447	-0.8784	-0.4184	0.3318	-0.136	-0.657	0.1547	-0.6582	-0.8097	-0.8067	-1.4755	-1.1036	-2.0008	-1.1932	-1.5929	-0.7658	-0.5856	-1.1771	-1.0364	-0.4922	0.2931	-0.1271	0.3487	-0.4273	-0.7488	-0.6411
218.75	-1.0208	-1.2361	-1.5029	-0.5618	-0.4805	-0.8755	-0.374	0.3798	-0.0347	-0.5797	0.285	-0.5425	-0.7675	-0.8398	-1.6052	-1.1951	-2.1984	-1.3452	-1.8357	-0.8497	-0.6576	-1.3399	-1.2908	-0.4878	0.249	-0.0116	0.4584	-0.3014	-0.7868	-0.7542
222.6562	-1.0986	-1.2953	-1.5565	-0.6707	-0.5481	-0.898	-0.33	0.4342	0.076	-0.4832	0.4137	-0.4268	-0.7207	-0.8819	-1.7933	-1.3408	-2.4458	-1.5567	-2.1125	-0.9781	-0.7507	-1.4989	-1.5225	-0.4629	0.2122	0.1119	0.5878	-0.1719	-0.8644	-0.8965
226.5625	-1.2354	-1.437	-1.6493	-0.8637	-0.6557	-0.9538	-0.2828	0.4977	0.2002	-0.3649	0.5488	-0.3115	-0.6695	-0.9321	-2.0388	-1.5514	-2.7456	-1.8259	-2.4228	-1.1619	-0.8699	-1.6565	-1.7355	-0.4203	0.1821	0.2295	0.7279	-0.0468	-0.9821	-1.0703
230.4688	-1.4317	-1.6607	-1.7857	-1.1382	-0.8044	-1.0468	-0.2315	0.5706	0.3389	-0.2269	0.6941	-0.1978	-0.6163	-0.9882	-2.3274	-1.8241	-3.0854	-2.1369	-2.7539	-1.4003	-1.014	-1.8121	-1.9333	-0.3653	0.1577	0.3285	0.868	0.0666	-1.1315	-1.2697
234.375	-1.6763	-1.9511	-1.9591	-1.4781	-0.9912	-1.1772	-0.1786	0.65	0.4877	-0.0777	0.8464	-0.0889	-0.5657	-1.0486	-2.6355	-2.1437	-3.4415	-2.4639	-3.0851	-1.6825	-1.1778	-1.9628	-2.1173	-0.3056	0.1372	0.3987	0.9965	0.1622	-1.2968	-1.4818
238.2812	-1.95	-2.282	-2.1541	-1.8574	-1.2092	-1.3407	-0.1296	0.7302	0.6375	0.07	0.9954	0.0106	-0.5243	-1.1125	-2.9351	-2.4857	-3.7841	-2.7773	-3.3916	-1.9896	-1.3532	-2.1042	-2.2866	-0.2504	0.1192	0.4341	1.1026	0.2353	-1.459	-1.6894
242.1875	-2.2288	-2.6219	-2.3494	-2.2446	-1.448	-1.5282	-0.0915	0.8044	0.7758	0.2009	1.1261	0.0948	-0.4993	-1.1808	-3.1997	-2.8219	-4.0839	-3.049	-3.65	-2.2993	-1.5314	-2.2318	-2.4379	-0.2095	0.1026	0.4335	1.1775	0.2828	-1.5991	-1.8749
246.0938	-2.4891	-2.9406	-2.5229	-2.6081	-1.6946	-1.7268	-0.0708	0.8656	0.8895	0.3005	1.2222	0.1578	-0.4968	-1.2547	-3.4084	-3.1255	-4.3175	-3.2581	-3.8425	-2.5899	-1.7042	-2.3414	-2.5663	-0.1914	0.0875	0.4004	1.2157	0.3027	-1.7025	-2.0233
250	-2.7122	-3.2144	-2.656	-2.9217	-1.934	-1.9209	-0.0719	0.9081	0.9676	0.3578	1.2704	0.1949	-0.5205	-1.3352	-3.5499	-3.3761	-4.4714	-3.3937	-3.9606	-2.844	-1.865	-2.4298	-2.6667	-0.2019	0.0747	0.342	1.2152	0.2946	-1.7613	-2.1253
253.9062	-2.8871	-3.4299	-2.7374	-3.1681	-2.1515	-2.0951	-0.096	0.928	1.0028	0.367	1.2632	0.203	-0.5711	-1.4227	-3.6234	-3.5629	-4.5449	-3.4555	-4.0059	-3.0512	-2.0097	-2.4952	-2.7349	-0.2424	0.0657	0.2678	1.1779	0.2594	-1.7757	-2.179
257.8125	-3.0119	-3.5846	-2.7648	-3.3413	-2.3336	-2.2361	-0.1411	0.9235	0.9924	0.3283	1.2008	0.182	-0.646	-1.5156	-3.6379	-3.6857	-4.5485	-3.4529	-3.9903	-3.2093	-2.1365	-2.5373	-2.7686	-0.3095	0.0616	0.1877	1.1095	0.2	-1.7531	-2.1894
261.7188	-3.0921	-3.6859	-2.7453	-3.4455	-2.4709	-2.3351	-0.2023	0.895	0.9385	0.2468	1.0909	0.1344	-0.7389	-1.611	-3.6095	-3.7538	-4.5014	-3.4012	-3.9323	-3.3229	-2.2457	-2.5572	-2.7679	-0.3956	0.0626	0.1104	1.018	0.1212	-1.7066	-2.1673
265.625	-3.1388	-3.7473	-2.6935	-3.4936	-2.5591	-2.3893	-0.273	0.8449	0.8471	0.1323	0.9469	0.0657	-0.8408	-1.7048	-3.5581	-3.7824	-4.4269	-3.3172	-3.8534	-3.402	-2.3395	-2.5576	-2.7349	-0.4898	0.0674	0.043	0.9134	0.0301	-1.6518	-2.1273
269.5312	-3.1655	-3.7857	-2.6283	-3.5036	-2.6001	-2.4019	-0.3461	0.7774	0.7269	-0.0034	0.7855	-0.0163	-0.9408	-1.7919	-3.5023	-3.7893	-4.348	-3.2163	-3.7736	-3.4591	-2.4212	-2.5421	-2.6742	-0.5798	0.073	-0.01	0.8066	-0.0647	-1.6041	-2.0844
273.4375	-3.185	-3.817	-2.5687	-3.495	-2.6017	-2.3823	-0.4153	0.6986	0.5887	-0.1469	0.6236	-0.1026	-1.0278	-1.8672	-3.4571	-3.791	-4.2828	-3.1099	-3.7072	-3.5059	-2.4943	-2.5149	-2.5919	-0.6545	0.0755	-0.046	0.708	-0.1534	-1.5757	-2.0521
277.3438	-3.2075	-3.8541	-2.5298	-3.4855	-2.5766	-2.3435	-0.4757	0.616	0.4446	-0.2852	0.4767	-0.1835	-1.0923	-1.9262	-3.4306	-3.8001	-4.2419	-3.005	-3.6611	-3.5522	-2.5621	-2.4805	-2.4953	-0.7054	0.0707	-0.0648	0.6267	-0.227	-1.574	-2.0397
281.25	-3.2386	-3.9042	-2.5191	-3.4883	-2.5399	-2.3002	-0.5244	0.5376	0.3075	-0.4059	0.3564	-0.2508	-1.1278	-1.9653	-3.4241	-3.8235	-4.2276	-2.9056	-3.634	-3.6036	-2.6267	-2.4429	-2.3921	-0.7284	0.0549	-0.0683	0.5689	-0.2783	-1.5998	-2.0514
285.1562	-3.2792	-3.9681	-2.5355	-3.5101	-2.5062	-2.2655	-0.56	0.4713	0.1899	-0.4991	0.2709	-0.2982	-1.1313	-1.9827	-3.433	-3.8626	-4.235	-2.8138	-3.6188	-3.6618	-2.6891	-2.4052	-2.2899	-0.724	0.0259	-0.0604	0.5372	-0.3036	-1.6482	-2.0854
289.0625	-3.326	-4.041	-2.5701	-3.5509	-2.4871	-2.2487	-0.5824	0.4233	0.1034	-0.5579	0.2237	-0.3229	-1.1044	-1.9786	-3.449	-3.9136	-4.2543	-2.7317	-3.6062	-3.725	-2.7496	-2.3697	-2.1957	-0.6967	-0.0163	-0.0469	0.5302	-0.3034	-1.7091	-2.1353
292.9688	-3.3724	-4.1133	-2.6098	-3.6051	-2.4887	-2.2533	-0.5924	0.3977	0.0559	-0.579	0.2147	-0.325	-1.0521	-1.9555	-3.4634	-3.9694	-4.2747	-2.6627	-3.5881	-3.7887	-2.8074	-2.3385	-2.1155	-0.6544	-0.0694	-0.0345	0.5427	-0.2819	-1.7703	-2.1921
296.875	-3.4104	-4.1734	-2.6413	-3.6627	-2.5108	-2.2766	-0.591	0.3957	0.0505	-0.5637	0.2403	-0.3082	-0.9824	-1.9186	-3.4691	-4.0215	-4.2867	-2.6119	-3.5611	-3.8473	-2.8616	-2.3141	-2.0544	-0.6068	-0.1294	-0.0296	0.5668	-0.2469	-1.8194	-2.246
300.7812	-3.4325	-4.2097	-2.6549	-3.7123	-2.5473	-2.3099	-0.5796	0.4156	0.0842	-0.5174	0.2938	-0.2781	-0.9047	-1.8747	-3.4626	-4.0616	-4.285	-2.5853	-3.5277	-3.8948	-2.9101	-2.2993	-2.0169	-0.5639	-0.1905	-0.0367	0.5931	-0.2078	-1.8467	-2.2892
304.6875	-3.4333	-4.2137	-2.6466	-3.7439	-2.5873	-2.3412	-0.559	0.4535	0.148	-0.4486	0.3665	-0.2418	-0.8286	-1.8308	-3.4439	-4.0829	-4.2687	-2.5885	-3.4947	-3.9262	-2.9498	-2.2973	-2.0062	-0.5339	-0.2466	-0.0575	0.6128	-0.1737	-1.8469	-2.3168
308.5938	-3.4106	-4.1816	-2.6186	-3.7505	-2.6185	-2.3574	-0.5299	0.5039	0.2287	-0.368	0.4485	-0.2059	-0.762	-1.7923	-3.4161	-4.0809	-4.2411	-2.6247	-3.4712	-3.9372	-2.9764	-2.3099	-2.0237	-0.5223	-0.2916	-0.0896	0.62	-0.1515	-1.8198	-2.3276
312.5	-3.3662	-4.1154	-2.5776	-3.7297	-2.6295	-2.3479	-0.4929	0.5604	0.3114	-0.286	0.5302	-0.1763	-0.7098	-1.7619	-3.3836	-4.054	-4.2081	-2.6921	-3.4649	-3.9246	-2.9844	-2.3365	-2.0682	-0.53	-0.321	-0.1275	0.6123	-0.1446	-1.7706	-2.3229
316.4062	-3.3043	-4.0218	-2.5321	-3.6828	-2.6127	-2.3067	-0.4483	0.6167	0.3829	-0.2115	0.6034	-0.1567	-0.6737	-1.738	-3.3506	-4.0023	-4.1757	-2.7835	-3.4792	-3.8861	-2.9674	-2.3727	-2.1352	-0.5535	-0.3319	-0.1633	0.592	-0.1522	-1.7072	-2.3054
320.3125	-3.2302	-3.9095	-2.4896	-3.6135	-2.5653	-2.2334	-0.3966	0.6675	0.4343	-0.1499	0.6624	-0.1488	-0.6519	-1.7157	-3.3191	-3.927	-4.1477	-2.8863	-3.5111	-3.8196	-2.9191	-2.4104	-2.2171	-0.5854	-0.3239	-0.1893	0.5651	-0.1705	-1.6389	-2.2771
324.2188	-3.1483	-3.7865	-2.4543	-3.526	-2.4898	-2.1336	-0.3389	0.7087	0.4623	-0.1034	0.7041	-0.152	-0.64	-1.6878	-3.2885	-3.8293	-4.1237	-2.9843	-3.5512	-3.7232	-2.8344	-2.439	-2.3035	-0.6165	-0.2997	-0.1998	0.5392	-0.1931	-1.5732	-2.2386
328.125	-3.0605	-3.6582	-2.4263	-3.4233	-2.3929	-2.0166	-0.2768	0.7382	0.4694	-0.071	0.7278	-0.1643	-0.6329	-1.6473	-3.2553	-3.7102	-4.0989	-3.0604	-3.5856	-3.5963	-2.7107	-2.448	-2.3834	-0.6377	-0.2646	-0.1937	0.5218	-0.2141	-1.5145	-2.1887
332.0312	-2.9664	-3.5265	-2.4027	-3.3077	-2.2838	-1.8942	-0.2133	0.7552	0.4616	-0.0501	0.7337	-0.1832	-0.6264	-1.59	-3.2142	-3.5705	-4.0648	-3.1006	-3.5988	-3.4401	-2.55	-2.4292	-2.446	-0.6428	-0.2263	-0.1743	0.5172	-0.2291	-1.463	-2.1257
335.9375	-2.8645	-3.3911	-2.3787	-3.1811	-2.1729	-1.7779	-0.1531	0.7597	0.4466	-0.0379	0.7218	-0.2065	-0.6192	-1.5163	-3.1594	-3.4117	-4.012	-3.0962	-3.5781	-3.259	-2.3592	-2.3796	-2.483	-0.6306	-0.1938	-0.1501	0.5251	-0.2374	-1.4161	-2.0483
339.8438	-2.7539	-3.2513	-2.351	-3.0474	-2.0694	-1.677	-0.1017	0.7527	0.4303	-0.0328	0.6916	-0.2334	-0.6125	-1.4317	-3.0876	-3.2377	-3.9335	-3.0457	-3.5168	-3.0613	-2.1509	-2.3023	-2.4899	-0.6045	-0.1758	-0.1321	0.5402	-0.2419	-1.37	-1.9574
343.75	-2.6361	-3.1088	-2.3186	-2.9135	-1.9807	-1.5979	-0.0645	0.7353	0.4163	-0.0349	0.6421	-0.2642	-0.6098	-1.3453	-2.9991	-3.0552	-3.8272	-2.9557	-3.4164	-2.859	-1.9416	-2.2056	-2.4663	-0.572	-0.1791	-0.1315	0.5539	-0.2486	-1.3221	-1.8567
347.6562	-2.5162	-2.9692	-2.2838	-2.7887	-1.9112	-1.5426	-0.0452	0.71	0.4055	-0.0447	0.5737	-0.2999	-0.6145	-1.2669	-2.8992	-2.8744	-3.6983	-2.8395	-3.2869	-2.6659	-1.7486	-2.1018	-2.4165	-0.5422	-0.2067	-0.1563	0.5568	-0.2641	-1.2724	-1.753
351.5625	-2.4028	-2.8421	-2.2519	-2.6844	-1.862	-1.5095	-0.0444	0.681	0.3975	-0.0622	0.4893	-0.3407	-0.6282	-1.2043	-2.7977	-2.7079	-3.5591	-2.7149	-3.1455	-2.4959	-1.5874	-2.0038	-2.3484	-0.5227	-0.257	-0.2089	0.5419	-0.2937	-1.2247	-1.6551
355.4688	-2.3069	-2.7396	-2.229	-2.6104	-1.8315	-1.4935	-0.0589	0.6541	0.3924	-0.0855	0.3961	-0.3856	-0.6492	-1.1604	-2.7068	-2.569	-3.4269	-2.6007	-3.0125	-2.3607	-1.468	-1.9224	-2.272	-0.5177	-0.3235	-0.2847	0.507	-0.3385	-1.1855	-1.5725
359.375	-2.2391	-2.6738	-2.2209	-2.5731	-1.8158	-1.488	-0.0822	0.6364	0.3917	-0.1105	0.3051	-0.4314	-0.6721	-1.1325	-2.6383	-2.4692	-3.3205	-2.5138	-2.9078	-2.2672	-1.3934	-1.8648	-2.1977	-0.5265	-0.3962	-0.3731	0.4558	-0.3942	-1.1619	-1.5132
363.2812	-2.2076	-2.6529	-2.2318	-2.5728	-1.8097	-1.4859	-0.1058	0.6344	0.3983	-0.1312	0.2293	-0.4734	-0.6894	-1.1125	-2.6003	-2.4156	-3.2558	-2.4659	-2.8466	-2.2166	-1.359	-1.8333	-2.1341	-0.5441	-0.4639	-0.46	0.397	-0.4521	-1.1598	-1.4821
367.1875	-2.2151	-2.6789	-2.2628	-2.6039	-1.8077	-1.4817	-0.1211	0.652	0.415	-0.1419	0.1814	-0.5062	-0.694	-1.0895	-2.5954	-2.4084	-3.242	-2.4626	-2.8356	-2.2041	-1.3543	-1.8247	-2.0869	-0.5628	-0.5161	-0.5317	0.3422	-0.501	-1.1816	-1.4797
371.0938	-2.2579	-2.7466	-2.3123	-2.655	-1.8049	-1.4719	-0.1215	0.6889	0.4435	-0.1382	0.1699	-0.5261	-0.6809	-1.0522	-2.62	-2.441	-3.279	-2.502	-2.8714	-2.22	-1.3648	-1.8319	-2.0572	-0.5742	-0.5463	-0.5781	0.3022	-0.5305	-1.2252	-1.5019
375	-2.3259	-2.8435	-2.3745	-2.7118	-1.7973	-1.4553	-0.1038	0.7404	0.482	-0.1189	0.1969	-0.5316	-0.6491	-0.9925	-2.665	-2.5002	-3.3564	-2.5759	-2.9409	-2.2519	-1.3761	-1.8441	-2.042	-0.5715	-0.5528	-0.5953	0.2851	-0.5343	-1.2837	-1.5404
378.9062	-2.404	-2.9515	-2.4408	-2.7593	-1.7818	-1.4324	-0.0687	0.7974	0.5258	-0.0865	0.2569	-0.524	-0.6016	-0.9072	-2.7179	-2.5688	-3.4555	-2.671	-3.0232	-2.2868	-1.3755	-1.8492	-2.0342	-0.5509	-0.5388	-0.5859	0.2938	-0.5111	-1.347	-1.5846
382.8125	-2.4749	-3.0504	-2.4999	-2.7848	-1.7563	-1.4038	-0.0204	0.8492	0.5673	-0.0461	0.3377	-0.5075	-0.5449	-0.7994	-2.7651	-2.629	-3.5527	-2.7718	-3.094	-2.3135	-1.3549	-1.8358	-2.0244	-0.5124	-0.5111	-0.5575	0.3261	-0.4656	-1.4032	-1.6235
386.7188	-2.5219	-3.1207	-2.54	-2.7792	-1.7192	-1.3696	0.0347	0.8859	0.598	-0.0045	0.4234	-0.4877	-0.487	-0.6784	-2.795	-2.6654	-3.6246	-2.8633	-3.1302	-2.3251	-1.3119	-1.7954	-2.0033	-0.4592	-0.4782	-0.5198	0.3756	-0.4071	-1.441	-1.6478
390.625	-2.5323	-3.1472	-2.5514	-2.7389	-1.6698	-1.3288	0.0888	0.9005	0.6106	0.0321	0.4972	-0.4704	-0.436	-0.5576	-2.8002	-2.6682	-3.6526	-2.9351	-3.1162	-2.3191	-1.2499	-1.7255	-1.9644	-0.3974	-0.4482	-0.4826	0.4334	-0.347	-1.4528	-1.6523
394.5312	-2.4996	-3.1214	-2.5281	-2.6654	-1.609	-1.2795	0.1346	0.8904	0.601	0.059	0.5456	-0.4605	-0.398	-0.4524	-2.7788	-2.6349	-3.6277	-2.9827	-3.0469	-2.298	-1.1776	-1.6305	-1.9064	-0.3349	-0.4271	-0.4525	0.4903	-0.2966	-1.4354	-1.6366
398.4375	-2.4253	-3.0434	-2.4696	-2.5651	-1.5393	-1.2197	0.1661	0.8576	0.5689	0.0737	0.5606	-0.4604	-0.3765	-0.3771	-2.734	-2.5697	-3.552	-3.0084	-2.9301	-2.2673	-1.1066	-1.5221	-1.8342	-0.2801	-0.4179	-0.4327	0.5384	-0.2646	-1.391	-1.6051
402.3438	-2.3185	-2.9214	-2.3814	-2.4481	-1.4657	-1.1493	0.1793	0.8078	0.5179	0.0757	0.5406	-0.4705	-0.3722	-0.3421	-2.673	-2.4828	-3.4386	-3.0195	-2.7845	-2.2344	-1.0494	-1.417	-1.7583	-0.2404	-0.4207	-0.4225	0.5727	-0.2552	-1.3264	-1.5656
406.25	-2.1941	-2.7706	-2.2747	-2.3271	-1.3958	-1.0703	0.1719	0.7481	0.4535	0.0655	0.4899	-0.4888	-0.3832	-0.3522	-2.605	-2.3872	-3.3086	-3.026	-2.6356	-2.2064	-1.0162	-1.3332	-1.6925	-0.2215	-0.4336	-0.4181	0.5911	-0.2677	-1.2514	-1.5272
410.1562	-2.0698	-2.6105	-2.1652	-2.2156	-1.3389	-0.9889	0.143	0.6854	0.3815	0.0437	0.4168	-0.5115	-0.4064	-0.4063	-2.539	-2.2957	-3.1859	-3.0373	-2.5099	-2.1883	-1.0129	-1.2862	-1.6502	-0.2262	-0.453	-0.4145	0.5945	-0.2959	-1.1766	-1.4987
414.0625	-1.9631	-2.4612	-2.0695	-2.126	-1.3054	-0.9139	0.0929	0.6245	0.307	0.0106	0.3321	-0.5346	-0.4384	-0.4979	-2.4823	-2.219	-3.0918	-3.0597	-2.4291	-2.1828	-1.041	-1.2854	-1.6412	-0.254	-0.4751	-0.4059	0.5859	-0.3301	-1.1112	-1.486
417.9688	-1.8877	-2.3405	-2.0027	-2.0688	-1.304	-0.8565	0.023	0.5685	0.2342	-0.0334	0.2463	-0.5537	-0.4763	-0.6169	-2.4394	-2.1636	-3.0401	-3.0952	-2.4052	-2.1898	-1.0972	-1.3322	-1.6689	-0.3012	-0.4969	-0.3876	0.5693	-0.3589	-1.0623	-1.4921
421.875	-1.8515	-2.2608	-1.9747	-2.0511	-1.3406	-0.8272	-0.0635	0.5183	0.1667	-0.0872	0.1687	-0.5651	-0.5185	-0.7513	-2.4115	-2.1316	-3.0351	-3.1407	-2.4391	-2.2071	-1.1754	-1.42	-1.7297	-0.3612	-0.5167	-0.3565	0.5488	-0.3721	-1.0339	-1.5163
425.7812	-1.8557	-2.2287	-1.9894	-2.0754	-1.4156	-0.8338	-0.1615	0.4746	0.1088	-0.1483	0.1061	-0.5661	-0.5642	-0.8895	-2.3977	-2.1217	-3.0715	-3.1894	-2.5205	-2.2313	-1.2681	-1.5365	-1.8138	-0.4263	-0.5344	-0.3122	0.5276	-0.3636	-1.0276	-1.5555
429.6875	-1.8956	-2.2444	-2.0442	-2.1398	-1.5237	-0.8794	-0.2631	0.4387	0.0661	-0.2116	0.0631	-0.555	-0.6129	-1.0212	-2.3958	-2.1302	-3.1366	-3.2322	-2.6314	-2.2591	-1.3679	-1.6659	-1.9079	-0.4886	-0.5514	-0.2569	0.5076	-0.3324	-1.0435	-1.6052
433.5938	-1.9619	-2.3032	-2.1317	-2.2381	-1.6534	-0.9609	-0.358	0.4127	0.0451	-0.2694	0.0421	-0.5306	-0.6634	-1.1376	-2.4037	-2.153	-3.2145	-3.2607	-2.7504	-2.287	-1.4675	-1.7922	-1.9977	-0.5409	-0.5698	-0.1947	0.4904	-0.2824	-1.081	-1.661
437.5	-2.0428	-2.3963	-2.242	-2.3604	-1.7891	-1.0697	-0.434	0.399	0.052	-0.3122	0.0443	-0.4928	-0.7123	-1.2316	-2.4198	-2.1859	-3.2899	-3.2697	-2.8566	-2.3122	-1.5601	-1.9013	-2.0709	-0.5775	-0.5909	-0.1305	0.4774	-0.221	-1.1389	-1.7191
441.4062	-2.126	-2.5127	-2.3644	-2.4937	-1.9125	-1.1924	-0.4792	0.3988	0.0904	-0.3306	0.0695	-0.4418	-0.7534	-1.2968	-2.4432	-2.2252	-3.3505	-3.258	-2.9337	-2.3316	-1.6383	-1.9824	-2.1184	-0.5937	-0.6142	-0.0691	0.4709	-0.1569	-1.2156	-1.7766
445.3125	-2.2006	-2.6389	-2.4887	-2.6234	-2.0057	-1.3132	-0.4841	0.4114	0.16	-0.3171	0.1163	-0.3791	-0.7782	-1.3274	-2.4728	-2.2676	-3.3892	-3.2287	-2.9724	-2.3418	-1.6946	-2.0284	-2.1351	-0.5862	-0.6368	-0.014	0.4743	-0.0977	-1.3081	-1.8311
449.2188	-2.2574	-2.7601	-2.6051	-2.7336	-2.0534	-1.4158	-0.4438	0.433	0.2554	-0.2692	0.1815	-0.3072	-0.7772	-1.3185	-2.5063	-2.3092	-3.4039	-3.1878	-2.9706	-2.3388	-1.7211	-2.0362	-2.1197	-0.5532	-0.6537	0.0322	0.4912	-0.0494	-1.4116	-1.8802
453.125	-2.2898	-2.8607	-2.7047	-2.8091	-2.0452	-1.4858	-0.36	0.4576	0.3662	-0.1899	0.2597	-0.2304	-0.7422	-1.2671	-2.5399	-2.3454	-3.3968	-3.1418	-2.933	-2.3187	-1.7115	-2.0064	-2.0745	-0.4952	-0.6596	0.0686	0.524	-0.0154	-1.5188	-1.9203
457.0312	-2.2935	-2.9255	-2.7789	-2.8368	-1.9766	-1.5125	-0.2418	0.4786	0.4791	-0.089	0.3437	-0.1547	-0.6692	-1.1739	-2.5686	-2.3712	-3.3729	-3.0958	-2.8688	-2.278	-1.6627	-1.9429	-2.0054	-0.4159	-0.6501	0.0945	0.5726	0.003	-1.6206	-1.9475
460.9375	-2.2663	-2.9418	-2.82	-2.8076	-1.8499	-1.4896	-0.1043	0.4895	0.5795	0.0188	0.4239	-0.0871	-0.5604	-1.0438	-2.5865	-2.3816	-3.3375	-3.0518	-2.7895	-2.2147	-1.5763	-1.853	-1.9206	-0.3224	-0.624	0.1101	0.6331	0.006	-1.7073	-1.957
464.8438	-2.2073	-2.9007	-2.8217	-2.7173	-1.6736	-1.4156	0.0331	0.4863	0.6535	0.1154	0.4897	-0.0353	-0.4254	-0.8873	-2.5881	-2.3719	-3.295	-3.0075	-2.7053	-2.1286	-1.4593	-1.7455	-1.8297	-0.2253	-0.5828	0.1158	0.6976	-0.0053	-1.7696	-1.9444
468.75	-2.1173	-2.7987	-2.7795	-2.5675	-1.4611	-1.2939	0.1502	0.467	0.6902	0.1826	0.5296	-0.0066	-0.2804	-0.7186	-2.5684	-2.3379	-3.2464	-2.9568	-2.6224	-2.0214	-1.3225	-1.6297	-1.7412	-0.1363	-0.531	0.1133	0.7553	-0.0291	-1.8008	-1.9054
472.6562	-1.998	-2.6382	-2.691	-2.3652	-1.2286	-1.1315	0.2301	0.4329	0.683	0.2058	0.5337	-0.0066	-0.1448	-0.5537	-2.5237	-2.2767	-3.1887	-2.891	-2.5411	-1.8954	-1.1784	-1.513	-1.66	-0.0659	-0.474	0.1054	0.7954	-0.0627	-1.7972	-1.8373
476.5625	-1.8521	-2.4266	-2.5569	-2.1205	-0.9918	-0.9384	0.2622	0.3872	0.6311	0.1766	0.495	-0.0385	-0.0375	-0.4069	-2.4513	-2.186	-3.1152	-2.8011	-2.4558	-1.753	-1.0372	-1.3989	-1.5854	-0.0207	-0.417	0.0967	0.81	-0.1028	-1.7587	-1.7388
480.4688	-1.6832	-2.1752	-2.3811	-1.8459	-0.7641	-0.7263	0.2445	0.3352	0.5393	0.0947	0.4116	-0.102	0.0276	-0.2879	-2.3496	-2.0645	-3.0172	-2.6803	-2.3564	-1.5953	-0.9045	-1.2862	-1.5105	-0.0016	-0.3636	0.0926	0.7962	-0.1448	-1.6886	-1.6111
484.375	-1.4961	-1.8969	-2.1706	-1.5539	-0.5539	-0.5079	0.184	0.283	0.4185	-0.0316	0.2881	-0.1936	0.045	-0.2001	-2.2187	-1.9122	-2.8866	-2.5264	-2.2321	-1.4224	-0.7802	-1.1703	-1.4243	-0.0031	-0.3156	0.0985	0.7574	-0.1843	-1.5929	-1.4578
488.2812	-1.2964	-1.6052	-1.9348	-1.2569	-0.3649	-0.295	0.095	0.2372	0.2839	-0.187	0.1355	-0.3062	0.0188	-0.1399	-2.0616	-1.731	-2.7189	-2.3429	-2.0747	-1.234	-0.6595	-1.0447	-1.3149	-0.0147	-0.2732	0.1181	0.7024	-0.2173	-1.4796	-1.2851
492.1875	-1.0905	-1.3132	-1.685	-0.9658	-0.1969	-0.0985	-0.0039	0.2038	0.1529	-0.3518	-0.0305	-0.43	-0.0383	-0.099	-1.884	-1.525	-2.5151	-2.1383	-1.8821	-1.0311	-0.5351	-0.9042	-1.174	-0.0235	-0.2363	0.1514	0.6438	-0.2413	-1.3574	-1.1018
496.0938	-0.8855	-1.0324	-1.4336	-0.6912	-0.0477	0.0724	-0.0937	0.1875	0.0419	-0.5051	-0.1924	-0.5538	-0.1079	-0.0667	-1.6949	-1.3013	-2.2827	-1.9248	-1.6589	-0.8162	-0.4009	-0.7466	-0.9995	-0.0173	-0.2045	0.195	0.5945	-0.2562	-1.2353	-0.9178
500	-0.6886	-0.7736	-1.1933	-0.4423	0.0847	0.2107	-0.1588	0.1906	-0.0362	-0.6291	-0.3336	-0.6655	-0.1705	-0.0334	-1.5055	-1.069	-2.0345	-1.716	-1.4162	-0.5945	-0.2541	-0.5745	-0.797	0.0123	-0.1781	0.2417	0.5652	-0.2638	-1.1211	-0.7434
503.9062	-0.506	-0.5451	-0.9766	-0.2274	0.2004	0.3112	-0.1903	0.2125	-0.0751	-0.7117	-0.4422	-0.7546	-0.2103	0.0077	-1.3271	-0.8385	-1.7854	-1.525	-1.1689	-0.3728	-0.0966	-0.3951	-0.579	0.0679	-0.158	0.2824	0.5616	-0.2669	-1.0212	-0.5877
507.8125	-0.3424	-0.3526	-0.794	-0.0521	0.2973	0.3713	-0.187	0.2487	-0.076	-0.7487	-0.5133	-0.8135	-0.2187	0.0584	-1.1691	-0.6198	-1.55	-1.3625	-0.932	-0.1584	0.0654	-0.2186	-0.3622	0.1455	-0.1458	0.3076	0.5833	-0.2691	-0.9389	-0.4566
511.7188	-0.1996	-0.1977	-0.6519	0.0815	0.372	0.3919	-0.1555	0.2918	-0.047	-0.7444	-0.5488	-0.839	-0.196	0.1165	-1.0364	-0.42	-1.3388	-1.2354	-0.7177	0.0428	0.2236	-0.0565	-0.1646	0.2352	-0.1431	0.31	0.6239	-0.2733	-0.8743	-0.3523
515.625	-0.0761	-0.0764	-0.5514	0.1765	0.4218	0.378	-0.1068	0.3325	-0.0007	-0.7089	-0.5565	-0.8327	-0.1501	0.177	-0.9283	-0.242	-1.156	-1.1465	-0.533	0.2274	0.3698	0.0808	-0.0016	0.3237	-0.151	0.2855	0.6722	-0.2811	-0.8234	-0.2727
519.5312	0.0331	0.0199	-0.4872	0.2416	0.4475	0.3399	-0.0533	0.3619	0.0496	-0.6553	-0.5464	-0.8001	-0.0931	0.2342	-0.8381	-0.0838	-0.9989	-1.0945	-0.3789	0.3953	0.4984	0.1856	0.1162	0.3976	-0.1702	0.2343	0.7151	-0.2925	-0.7796	-0.2128
523.4375	0.1349	0.1034	-0.448	0.2893	0.4542	0.2923	-0.0052	0.3738	0.093	-0.5959	-0.5272	-0.7499	-0.0376	0.2845	-0.7554	0.0602	-0.8592	-1.0748	-0.2514	0.5494	0.607	0.2546	0.185	0.4465	-0.2001	0.1611	0.7404	-0.3061	-0.7348	-0.1655
527.3438	0.2365	0.1866	-0.4195	0.3336	0.4514	0.2524	0.0325	0.3664	0.1238	-0.5391	-0.5033	-0.6909	0.0073	0.3273	-0.6686	0.1973	-0.726	-1.0801	-0.1432	0.694	0.6968	0.2893	0.2074	0.4657	-0.2387	0.0737	0.7397	-0.3195	-0.6816	-0.1243
531.25	0.3434	0.2793	-0.3868	0.3865	0.4509	0.2359	0.0602	0.3427	0.1414	-0.488	-0.4741	-0.6309	0.038	0.3655	-0.5687	0.3343	-0.5893	-1.1019	-0.0467	0.8335	0.7717	0.2952	0.192	0.4568	-0.2824	-0.0183	0.7101	-0.3298	-0.6157	-0.084
535.1562	0.4578	0.386	-0.3379	0.4549	0.4639	0.2539	0.0826	0.3093	0.1496	-0.4412	-0.4357	-0.5745	0.0575	0.4051	-0.4519	0.4754	-0.4432	-1.1312	0.0449	0.9709	0.8372	0.2818	0.1523	0.428	-0.3267	-0.105	0.6552	-0.3346	-0.5373	-0.0421
539.0625	0.5787	0.5053	-0.2655	0.5398	0.4983	0.3096	0.1065	0.274	0.1538	-0.3945	-0.3829	-0.5238	0.0739	0.453	-0.3204	0.6218	-0.2871	-1.1591	0.1367	1.1084	0.8998	0.2607	0.1044	0.3918	-0.3655	-0.178	0.5847	-0.3324	-0.4509	0.0023
542.9688	0.7026	0.6322	-0.1684	0.6373	0.5576	0.3978	0.1384	0.244	0.1591	-0.3429	-0.312	-0.478	0.0988	0.5161	-0.1806	0.7728	-0.1248	-1.1763	0.2327	1.2475	0.9669	0.2452	0.0657	0.3631	-0.3926	-0.231	0.5123	-0.3229	-0.3639	0.0489
546.875	0.8254	0.7604	-0.0498	0.7416	0.6412	0.5073	0.1829	0.2238	0.1693	-0.2828	-0.2228	-0.435	0.144	0.5999	-0.04	0.927	0.0381	-1.174	0.3367	1.3899	1.0468	0.2486	0.0525	0.3556	-0.4018	-0.2601	0.4534	-0.3063	-0.2838	0.098
550.7812	0.9441	0.8859	0.0851	0.848	0.7461	0.6252	0.2421	0.2147	0.1859	-0.2124	-0.1184	-0.3918	0.2192	0.707	0.0954	1.0838	0.1966	-1.1435	0.4525	1.5385	1.1473	0.2826	0.0775	0.3799	-0.3882	-0.2636	0.4221	-0.2827	-0.2159	0.1508
554.6875	1.0581	1.0083	0.2305	0.9558	0.8688	0.7406	0.3159	0.2151	0.2095	-0.1317	-0.004	-0.3455	0.3293	0.8375	0.2233	1.2436	0.348	-1.0783	0.5839	1.6962	1.2746	0.3556	0.1479	0.441	-0.3498	-0.2422	0.4285	-0.2524	-0.162	0.2092
558.5938	1.1686	1.1301	0.3823	1.0678	1.0064	0.8482	0.4026	0.2217	0.2407	-0.0419	0.1143	-0.294	0.4737	0.9878	0.3449	1.4069	0.4923	-0.9748	0.7332	1.8649	1.4313	0.471	0.264	0.5379	-0.2877	-0.1988	0.4766	-0.2155	-0.1199	0.2754
562.5	1.2778	1.255	0.5372	1.1895	1.1571	0.9493	0.4998	0.2312	0.2805	0.0553	0.2311	-0.2367	0.6457	1.1516	0.4635	1.5734	0.6307	-0.834	0.9004	2.0435	1.6148	0.6264	0.4187	0.6632	-0.2071	-0.1385	0.5633	-0.1724	-0.085	0.3505
566.4062	1.3875	1.3859	0.6925	1.3258	1.3193	1.0501	0.6047	0.2409	0.3305	0.1576	0.3422	-0.1741	0.8335	1.3205	0.5829	1.7408	0.7646	-0.6618	1.0823	2.2271	1.8164	0.8137	0.5994	0.8054	-0.1157	-0.0678	0.679	-0.1248	-0.0518	0.434
570.3125	1.4981	1.5231	0.8456	1.479	1.491	1.1595	0.7133	0.25	0.3919	0.2621	0.444	-0.1088	1.022	1.4844	0.7058	1.9042	0.8943	-0.4689	1.273	2.4071	2.0222	1.021	0.7907	0.9507	-0.0226	0.0058	0.8092	-0.0751	-0.016	0.5234
574.2188	1.6083	1.6644	0.9937	1.647	1.6683	1.2854	0.8207	0.2587	0.4643	0.3648	0.5331	-0.0446	1.1951	1.6332	0.833	2.0579	1.0196	-0.2691	1.4646	2.5732	2.2155	1.2344	0.9775	1.0857	0.064	0.0755	0.9378	-0.0268	0.025	0.6154
578.125	1.7161	1.8067	1.1348	1.8246	1.8464	1.4324	0.921	0.2681	0.5447	0.4604	0.6053	0.0137	1.3388	1.7582	0.9643	2.1965	1.1403	-0.0765	1.6493	2.7158	2.3799	1.4407	1.1481	1.2001	0.1388	0.1361	1.0496	0.0171	0.0722	0.7063
582.0312	1.8202	1.9474	1.2688	2.0047	2.0202	1.6006	1.0079	0.2788	0.6272	0.5429	0.6561	0.061	1.4433	1.8541	1.0991	2.3175	1.258	0.0969	1.8216	2.8295	2.5035	1.6302	1.2971	1.2884	0.1998	0.1849	1.1337	0.0541	0.1255	0.7941
585.9375	1.9214	2.0872	1.3989	2.1816	2.1855	1.7862	1.0762	0.2912	0.7036	0.6064	0.6812	0.0931	1.5054	1.9199	1.2382	2.4237	1.3767	0.2448	1.98	2.9155	2.5819	1.7984	1.426	1.351	0.2493	0.222	1.1854	0.0837	0.1852	0.8791
589.8438	2.0235	2.2305	1.531	2.3527	2.3405	1.9823	1.1227	0.3041	0.7647	0.646	0.6784	0.1073	1.5285	1.9599	1.384	2.523	1.5039	0.3677	2.1283	2.9821	2.6196	1.9469	1.5433	1.3937	0.293	0.2504	1.207	0.1074	0.2523	0.9644
593.75	2.1328	2.3844	1.6733	2.5196	2.4858	2.1807	1.1472	0.3154	0.8025	0.659	0.6478	0.1036	1.5222	1.9824	1.5396	2.6285	1.649	0.4731	2.2748	3.044	2.6294	2.0824	1.6619	1.4264	0.3387	0.2751	1.2065	0.1279	0.3281	1.0555
597.6562	2.2569	2.5568	1.8339	2.6871	2.624	2.3732	1.1522	0.3223	0.8117	0.6453	0.5933	0.0844	1.4993	1.9987	1.7088	2.755	1.8213	0.5737	2.4305	3.1191	2.63	2.2145	1.7953	1.4601	0.3942	0.3022	1.1957	0.1491	0.414	1.1586
601.5625	2.4023	2.7538	2.0188	2.8615	2.7583	2.5523	1.1428	0.3216	0.7913	0.6076	0.5218	0.055	1.4736	2.02	1.8939	2.916	2.0275	0.6844	2.6059	3.2246	2.6417	2.3529	1.9539	1.5046	0.4653	0.3376	1.187	0.1745	0.5107	1.2788
605.4688	2.5727	2.9774	2.2305	3.0479	2.8918	2.7126	1.1254	0.3106	0.7448	0.5513	0.4426	0.0226	1.4567	2.0556	2.0948	3.1199	2.2694	0.8187	2.8079	3.3731	2.682	2.5038	2.1413	1.5657	0.554	0.3853	1.1907	0.2066	0.6174	1.4189
609.375	2.7667	3.2244	2.4664	3.2482	3.0259	2.8505	1.1068	0.2879	0.6801	0.4843	0.3664	-0.0045	1.4561	2.1106	2.3085	3.3671	2.5422	0.9857	3.0372	3.5689	2.7617	2.668	2.353	1.6442	0.6577	0.4472	1.2129	0.2465	0.7314	1.5772
613.2812	2.9775	3.4856	2.7187	3.4593	3.1598	2.9652	1.0933	0.2545	0.6086	0.416	0.3035	-0.0183	1.4738	2.185	2.529	3.6489	2.8347	1.1874	3.2869	3.8064	2.8825	2.8403	2.5767	1.7352	0.7692	0.5219	1.2543	0.2928	0.8486	1.7475
617.1875	3.1925	3.7469	2.9754	3.673	3.2902	3.0575	1.0899	0.2145	0.5435	0.3574	0.2631	-0.0126	1.5066	2.2739	2.7475	3.9476	3.1302	1.418	3.5431	4.0699	3.0359	3.01	2.7952	1.8296	0.8778	0.6049	1.3107	0.3425	0.9639	1.9196
621.0938	3.3955	3.9909	3.2222	3.876	3.4113	3.1298	1.1004	0.1748	0.4986	0.3192	0.2522	0.0164	1.5479	2.3685	2.9537	4.2395	3.4096	1.6643	3.7867	4.3357	3.2051	3.1631	2.9896	1.9157	0.9707	0.6886	1.3743	0.3903	1.0722	2.0805
625	3.5688	4.1997	3.445	4.0524	3.5157	3.1848	1.127	0.1448	0.4864	0.3108	0.2751	0.0689	1.5895	2.4586	3.137	4.4985	3.6533	1.9075	3.997	4.5762	3.3686	3.2852	3.1428	1.9822	1.036	0.764	1.4356	0.4304	1.169	2.2165
628.9062	3.6968	4.3579	3.6328	4.1871	3.5955	3.2241	1.1704	0.134	0.5158	0.3387	0.333	0.1423	1.6241	2.5347	3.2877	4.7003	3.845	2.1261	4.1555	4.7653	3.5049	3.364	3.2429	2.0205	1.0645	0.8221	1.4858	0.4577	1.2514	2.3162
632.8125	3.7692	4.4565	3.7794	4.2691	3.6438	3.2479	1.2298	0.1499	0.591	0.4053	0.4244	0.2317	1.647	2.5901	3.3983	4.828	3.973	2.2992	4.2492	4.8837	3.5969	3.392	3.2841	2.0266	1.0525	0.8562	1.5194	0.4695	1.3183	2.3723
636.7188	3.784	4.4944	3.8839	4.2949	3.6568	3.2553	1.3028	0.1965	0.7096	0.5079	0.5447	0.3309	1.6571	2.6225	3.4653	4.8748	4.0326	2.4092	4.273	4.9232	3.6361	3.3673	3.2669	2.0022	1.0023	0.8634	1.5346	0.4667	1.3703	2.3831
640.625	3.7479	4.4793	3.9506	4.2693	3.6354	3.2451	1.3855	0.2725	0.8626	0.6385	0.6864	0.4329	1.656	2.6336	3.4894	4.8457	4.0257	2.4451	4.2306	4.8882	3.6234	3.2939	3.1974	1.9535	0.922	0.8453	1.5339	0.4535	1.4092	2.353
644.5312	3.6755	4.4264	3.9866	4.2056	3.5858	3.218	1.473	0.3721	1.0351	0.7849	0.8392	0.5308	1.6477	2.6278	3.4754	4.7563	3.9609	2.4042	4.1336	4.7945	3.5684	3.1804	3.0855	1.8893	0.8244	0.8076	1.5222	0.4362	1.4375	2.291
648.4375	3.5865	4.3554	4.0004	4.123	3.5192	3.1774	1.5593	0.4858	1.2081	0.9321	0.9904	0.6176	1.6366	2.6113	3.4317	4.63	3.8522	2.293	3.9995	4.6655	3.4866	3.0393	2.9431	1.8192	0.7238	0.7583	1.5047	0.421	1.458	2.2095
652.3438	3.5021	4.2871	4.0008	4.0436	3.4502	3.1307	1.6387	0.6027	1.3618	1.0646	1.1262	0.6868	1.6266	2.5896	3.3691	4.493	3.7174	2.1267	3.8484	4.5273	3.395	2.8844	2.7831	1.7507	0.6337	0.7057	1.4854	0.4115	1.4736	2.1218
656.25	3.4404	4.2398	3.9957	3.9872	3.394	3.0879	1.7057	0.7123	1.4787	1.1686	1.233	0.7325	1.6197	2.5665	3.2993	4.3694	3.5763	1.9281	3.7002	4.4029	3.3085	2.7306	2.6189	1.6887	0.5645	0.6568	1.4658	0.4074	1.4868	2.0407
660.1562	3.4131	4.2251	3.9917	3.9676	3.3629	3.0603	1.7559	0.806	1.5469	1.2344	1.2996	0.7501	1.616	2.543	3.2325	4.2764	3.4476	1.7241	3.5715	4.3079	3.2356	2.5911	2.4643	1.6352	0.5218	0.6163	1.4446	0.4047	1.4997	1.9762
664.0625	3.4229	4.2463	3.9929	3.9883	3.363	3.057	1.7859	0.8785	1.5616	1.2577	1.3195	0.7371	1.6134	2.517	3.1761	4.2214	3.3463	1.5412	3.4725	4.2474	3.1771	2.4769	2.3323	1.5893	0.5065	0.5862	1.4183	0.3973	1.5132	1.9342
667.9688	3.4633	4.2972	4.0006	4.0419	3.3921	3.0822	1.7931	0.9271	1.526	1.2391	1.291	0.6937	1.6074	2.4834	3.1333	4.2013	3.2807	1.4017	3.4063	4.2155	3.1262	2.3945	2.2342	1.5487	0.5147	0.5664	1.3824	0.3792	1.5268	1.916
671.875	3.5196	4.3639	4.0126	4.111	3.44	3.1331	1.7758	0.9513	1.4493	1.184	1.2181	0.6227	1.5923	2.4353	3.1028	4.2032	3.2507	1.3194	3.3685	4.1982	3.0704	2.3449	2.1775	1.5098	0.539	0.5548	1.3329	0.3464	1.5386	1.9181
675.7812	3.5729	4.4272	4.0241	4.1723	3.4899	3.1999	1.7328	0.9521	1.3453	1.1002	1.1094	0.5297	1.562	2.3656	3.0798	4.2091	3.2477	1.298	3.3487	4.1772	2.9954	2.3234	2.1639	1.4683	0.5698	0.5479	1.2665	0.2985	1.5455	1.9339
679.6875	3.6036	4.4671	4.0282	4.2019	3.5221	3.2668	1.6637	0.931	1.2287	0.9967	0.9759	0.4213	1.5114	2.2683	3.0574	4.1997	3.2564	1.3309	3.3326	4.135	2.8891	2.3195	2.1878	1.4194	0.5968	0.5411	1.1822	0.2377	1.5441	1.9546
683.5938	3.5965	4.467	4.017	4.1807	3.5175	3.3152	1.5692	0.8901	1.1131	0.8813	0.8295	0.3047	1.4367	2.1403	3.0275	4.1595	3.2579	1.4027	3.3055	4.0592	2.7446	2.3188	2.2364	1.358	0.6104	0.5288	1.0804	0.1683	1.5313	1.9714
687.5	3.5428	4.4164	3.9835	4.0986	3.462	3.3272	1.4508	0.8319	1.0082	0.7599	0.6806	0.1862	1.3368	1.9814	2.9833	4.0798	3.2338	1.4926	3.2549	3.9455	2.5623	2.3049	2.2908	1.2795	0.6036	0.5061	0.963	0.0944	1.505	1.977
691.4062	3.4422	4.3127	3.922	3.9561	3.3488	3.2891	1.3113	0.7589	0.9186	0.636	0.5369	0.0702	1.2126	1.7948	2.9198	3.9599	3.1698	1.5781	3.1722	3.7982	2.3494	2.2623	2.3294	1.1798	0.5731	0.4694	0.8333	0.0195	1.4641	1.9664
695.3125	3.3014	4.1608	3.83	3.7635	3.1797	3.194	1.1539	0.6744	0.8436	0.5106	0.4019	-0.0404	1.0666	1.5861	2.8348	3.8061	3.0585	1.6393	3.0541	3.628	2.1184	2.1783	2.3307	1.0567	0.52	0.4178	0.6949	-0.0553	1.4085	1.9376
699.2188	3.1319	3.9704	3.7086	3.5374	2.9642	3.0436	0.9827	0.5822	0.7785	0.3831	0.2762	-0.1447	0.9021	1.3625	2.7278	3.6286	2.8994	1.6615	2.9016	3.4486	1.8832	2.0453	2.2777	0.9101	0.449	0.3534	0.5517	-0.1302	1.3387	1.8905
703.125	2.9462	3.7532	3.5619	3.2959	2.7172	2.8472	0.8024	0.4869	0.7166	0.2525	0.1579	-0.2426	0.7227	1.1313	2.5995	3.4379	2.6981	1.6376	2.7189	3.2717	1.6556	1.8609	2.16	0.7423	0.3672	0.281	0.4073	-0.2063	1.2552	1.8265
707.0312	2.755	3.5191	3.3969	3.0541	2.4553	2.6199	0.6178	0.3937	0.6517	0.1181	0.0443	-0.3346	0.5316	0.8989	2.4505	3.2406	2.4638	1.5672	2.5115	3.103	1.4422	1.6288	1.9759	0.5573	0.2819	0.2065	0.2644	-0.2853	1.159	1.747
710.9375	2.5644	3.2743	3.2217	2.8203	2.1932	2.3793	0.4344	0.3086	0.5808	-0.0195	-0.066	-0.4205	0.3323	0.6702	2.2801	3.0381	2.207	1.4561	2.2851	2.9403	1.2436	1.3581	1.733	0.3613	0.1987	0.1354	0.1247	-0.3678	1.0516	1.6534
714.8438	2.376	3.0217	3.0446	2.5962	1.9414	2.1425	0.2583	0.2373	0.5048	-0.1575	-0.1724	-0.4989	0.1293	0.4495	2.0881	2.8274	1.938	1.3134	2.0451	2.7752	1.0557	1.063	1.4479	0.1619	0.1215	0.0712	-0.0099	-0.4536	0.9354	1.5471
718.75	2.1888	2.7627	2.8726	2.3784	1.7058	1.923	0.0962	0.1847	0.4293	-0.2903	-0.2709	-0.5669	-0.0702	0.2418	1.8755	2.6045	1.6672	1.1498	1.7979	2.5976	0.8735	0.7622	1.1446	-0.031	0.052	0.0157	-0.1368	-0.5408	0.8145	1.4303
722.6562	2.0028	2.5006	2.7119	2.1628	1.4892	1.7301	-0.0442	0.1539	0.3628	-0.4101	-0.3554	-0.6206	-0.2559	0.0544	1.6472	2.3692	1.4058	0.9758	1.5528	2.4017	0.6949	0.4784	0.8525	-0.2057	-0.0084	-0.0314	-0.2513	-0.6254	0.6945	1.3076
726.5625	1.8209	2.2433	2.5673	1.9483	1.2932	1.5679	-0.1559	0.1449	0.3143	-0.5081	-0.4183	-0.6558	-0.4147	-0.1031	1.4132	2.1279	1.1674	0.8018	1.3233	2.1909	0.5243	0.2363	0.602	-0.3494	-0.058	-0.07	-0.3467	-0.7019	0.5821	1.1865
730.4688	1.651	2.0038	2.4425	1.7395	1.1204	1.4365	-0.2336	0.1537	0.2896	-0.5772	-0.4538	-0.6694	-0.5329	-0.2198	1.1888	1.8954	0.9671	0.6377	1.1264	1.9796	0.3728	0.059	0.4202	-0.4496	-0.0936	-0.0997	-0.4149	-0.7642	0.4841	1.0768
734.375	1.5047	1.7986	2.3399	1.5472	0.9752	1.3328	-0.2756	0.1722	0.2898	-0.6138	-0.4598	-0.6608	-0.5996	-0.2858	0.9931	1.6926	0.8203	0.4933	0.9809	1.7908	0.2565	-0.0353	0.326	-0.4968	-0.1115	-0.1181	-0.4488	-0.806	0.4062	0.9893
738.2812	1.3943	1.6439	2.2601	1.3857	0.8636	1.2521	-0.2843	0.1904	0.3101	-0.6196	-0.4392	-0.6327	-0.6092	-0.2955	0.8452	1.5416	0.7395	0.3788	0.9034	1.6509	0.192	-0.0369	0.3275	-0.4869	-0.1076	-0.1219	-0.4437	-0.8223	0.3516	0.9332
742.1875	1.3293	1.551	2.2021	1.2693	0.7927	1.1899	-0.2659	0.1985	0.3414	-0.6004	-0.3994	-0.5901	-0.5628	-0.2493	0.7611	1.4603	0.7309	0.3037	0.9048	1.5823	0.192	0.053	0.4203	-0.422	-0.0793	-0.1076	-0.3996	-0.8103	0.3208	0.9141
746.0938	1.3138	1.5229	2.1636	1.2079	0.7681	1.1432	-0.2287	0.1905	0.3728	-0.565	-0.3508	-0.5398	-0.4683	-0.1542	0.7491	1.4571	0.792	0.276	0.9872	1.5978	0.261	0.2229	0.5895	-0.311	-0.0263	-0.0733	-0.321	-0.7701	0.3107	0.9323
750	1.3444	1.5529	2.1413	1.2039	0.7927	1.1114	-0.181	0.1662	0.3946	-0.5223	-0.3045	-0.489	-0.3382	-0.0228	0.808	1.5283	0.9104	0.3005	1.1423	1.6958	0.3933	0.4521	0.8127	-0.1681	0.0484	-0.02	-0.2173	-0.7048	0.316	0.9826
753.9062	1.4102	1.625	2.131	1.2505	0.8646	1.0962	-0.1294	0.1315	0.4007	-0.4795	-0.269	-0.4437	-0.1881	0.1287	0.9264	1.6572	1.0657	0.3768	1.3526	1.8601	0.5734	0.7144	1.0646	-0.0109	0.1385	0.0469	-0.101	-0.6209	0.3298	1.0553
757.8125	1.4947	1.7174	2.1278	1.3327	0.9762	1.1001	-0.0784	0.0964	0.3899	-0.4406	-0.2494	-0.408	-0.0338	0.2835	1.0846	1.8176	1.2326	0.4981	1.5932	2.0626	0.7778	0.9821	1.3213	0.1426	0.2352	0.1183	0.0137	-0.5283	0.3451	1.1376
761.7188	1.5791	1.8056	2.1257	1.4299	1.1146	1.1248	-0.0302	0.072	0.3659	-0.4066	-0.2461	-0.3841	0.11	0.426	1.2573	1.978	1.3854	0.6504	1.836	2.2685	0.9795	1.2294	1.5624	0.2758	0.3279	0.1818	0.1127	-0.4392	0.3557	1.2163
765.625	1.645	1.867	2.1177	1.5205	1.2626	1.1692	0.0141	0.0664	0.3357	-0.3765	-0.2557	-0.3725	0.2313	0.5444	1.4172	2.1078	1.5021	0.8139	2.0532	2.4432	1.1527	1.4351	1.7722	0.3756	0.4055	0.2241	0.1841	-0.367	0.357	1.2794
769.5312	1.6784	1.8841	2.0966	1.5855	1.4015	1.2287	0.0539	0.083	0.3083	-0.3484	-0.2726	-0.3728	0.322	0.6314	1.5384	2.1826	1.5686	0.9663	2.2208	2.5585	1.2771	1.5845	1.9391	0.4331	0.4582	0.2329	0.2189	-0.3255	0.3456	1.3178
773.4375	1.6714	1.8464	2.0554	1.6124	1.5139	1.2953	0.0882	0.119	0.2928	-0.3208	-0.291	-0.3846	0.3775	0.6848	1.5997	2.1877	1.5795	1.0863	2.322	2.5968	1.3409	1.6693	2.0547	0.4443	0.4781	0.1987	0.2121	-0.3264	0.3193	1.3265
777.3438	1.6233	1.7512	1.9889	1.5961	1.5863	1.3598	0.1158	0.1671	0.2965	-0.2932	-0.3064	-0.4073	0.3973	0.7067	1.5871	2.1202	1.5384	1.1578	2.3483	2.5533	1.3416	1.6881	2.114	0.4096	0.4604	0.1166	0.1623	-0.3782	0.2769	1.3047
781.25	1.5392	1.6026	1.8945	1.5395	1.612	1.4137	0.1357	0.2177	0.3241	-0.2662	-0.3167	-0.4408	0.3842	0.7031	1.4955	1.9869	1.4556	1.1726	2.3007	2.4351	1.2857	1.6456	2.1159	0.3333	0.4039	-0.0141	0.0721	-0.4846	0.2182	1.2553
785.1562	1.4281	1.41	1.7729	1.4505	1.591	1.4519	0.1475	0.2623	0.3764	-0.2406	-0.3219	-0.4843	0.3439	0.682	1.3296	1.8024	1.3451	1.1309	2.1887	2.2576	1.1857	1.552	2.0645	0.223	0.3114	-0.1893	-0.0528	-0.6436	0.1445	1.1842
789.0625	1.3007	1.1859	1.628	1.3401	1.5305	1.4731	0.1522	0.2951	0.4509	-0.2172	-0.3233	-0.5366	0.2839	0.6516	1.1027	1.584	1.2209	1.041	2.0279	2.0406	1.0571	1.4211	1.9694	0.0885	0.1895	-0.4008	-0.2039	-0.8474	0.0581	1.0986
792.9688	1.1664	0.9439	1.4663	1.2191	1.4425	1.4799	0.1518	0.3151	0.5416	-0.1958	-0.3224	-0.5951	0.2132	0.6192	0.835	1.3493	1.0943	0.9176	1.838	1.804	0.9152	1.2693	1.8458	-0.0597	0.0478	-0.637	-0.3712	-1.0826	-0.0369	1.0059
796.875	1.0327	0.6971	1.2963	1.0966	1.3423	1.4781	0.1492	0.3253	0.6407	-0.1752	-0.3201	-0.6563	0.1404	0.5901	0.5504	1.1127	0.9728	0.7787	1.6393	1.565	0.7729	1.113	1.712	-0.2109	-0.102	-0.8839	-0.5438	-1.3323	-0.1358	0.9125
