time	FP1	F3	F7	FC3	C3	C5	P3	P7	PO7	PO3	O1	Oz	Pz	CPz	FP2	Fz	F4	F8	FC4	FCz	Cz	C4	C6	P4	P8	PO8	PO4	O2	HEOG_left	HEOG_right
-199.2188	-1.484	-1.4153	-0.5333	-1.3597	-0.7267	-0.3589	-0.1948	0.0085	-0.485	-0.2302	-0.367	-0.3182	-0.6038	-0.9038	-1.6328	-1.9937	-2.4252	-1.4435	-2.7386	-2.077	-1.6558	-2.2658	-2.0954	-1.2117	-0.9598	-0.1018	-0.8135	-0.3591	-0.1899	-1.0212
-195.3125	-1.1925	-1.2244	-0.4513	-1.1095	-0.5335	-0.1729	-0.1455	0.0165	-0.36	-0.2294	-0.3598	-0.3789	-0.4811	-0.5925	-1.4211	-1.6958	-2.1557	-1.3236	-2.3244	-1.6561	-1.3417	-1.899	-1.7745	-1.0169	-0.9543	-0.1583	-0.7616	-0.4829	-0.1938	-0.9168
-191.4062	-0.9134	-1.0345	-0.364	-0.8707	-0.3597	-0.0091	-0.1051	0.0167	-0.2608	-0.2316	-0.3541	-0.4252	-0.363	-0.3045	-1.2185	-1.4072	-1.8916	-1.2033	-1.9268	-1.2572	-1.0448	-1.5425	-1.4687	-0.8223	-0.936	-0.1961	-0.7033	-0.5775	-0.1853	-0.8155
-187.5	-0.6596	-0.8449	-0.2686	-0.6542	-0.2216	0.114	-0.0803	0.0039	-0.2044	-0.2389	-0.349	-0.4453	-0.2526	-0.0586	-1.0297	-1.1334	-1.6367	-1.0811	-1.5593	-0.8963	-0.779	-1.2058	-1.1888	-0.6294	-0.8918	-0.1982	-0.6318	-0.6191	-0.1539	-0.7174
-183.5938	-0.4396	-0.6563	-0.1638	-0.4672	-0.1275	0.187	-0.0736	-0.023	-0.1972	-0.2503	-0.3417	-0.4292	-0.1505	0.1329	-0.8582	-0.8786	-1.3935	-0.9563	-1.2305	-0.5843	-0.5531	-0.8967	-0.9414	-0.4409	-0.8129	-0.1531	-0.5417	-0.5917	-0.0962	-0.6215
-179.6875	-0.2561	-0.4701	-0.0506	-0.3132	-0.0764	0.2102	-0.0828	-0.0604	-0.2337	-0.2622	-0.3271	-0.3708	-0.0559	0.2654	-0.7055	-0.6453	-1.1619	-0.829	-0.9437	-0.325	-0.3693	-0.6215	-0.728	-0.2611	-0.6963	-0.0578	-0.4296	-0.4893	-0.0157	-0.5261
-175.7812	-0.1063	-0.2882	0.0679	-0.1917	-0.06	0.1922	-0.1021	-0.1009	-0.2983	-0.2696	-0.3004	-0.2704	0.0331	0.3415	-0.5706	-0.4337	-0.9397	-0.699	-0.6973	-0.1156	-0.2245	-0.3838	-0.5459	-0.0958	-0.5456	0.0822	-0.2959	-0.3183	0.0792	-0.4279
-171.875	0.017	-0.1133	0.1865	-0.0996	-0.0662	0.1469	-0.1242	-0.1358	-0.3691	-0.2679	-0.2584	-0.1358	0.1175	0.3695	-0.4502	-0.2413	-0.7243	-0.5659	-0.486	0.0512	-0.112	-0.1852	-0.3891	0.0489	-0.3699	0.2529	-0.1449	-0.0972	0.1778	-0.3237
-167.9688	0.1227	0.0517	0.2981	-0.033	-0.0826	0.0887	-0.1429	-0.1573	-0.4235	-0.2552	-0.201	0.0177	0.1967	0.3607	-0.3387	-0.0645	-0.5137	-0.4294	-0.3035	0.1852	-0.0241	-0.0257	-0.2512	0.1676	-0.1825	0.4352	0.015	0.1465	0.2691	-0.2118
-164.0625	0.2186	0.203	0.3941	0.0128	-0.0998	0.0298	-0.1541	-0.1605	-0.4431	-0.2324	-0.1319	0.17	0.2675	0.327	-0.2298	0.101	-0.3079	-0.2905	-0.144	0.2961	0.0464	0.0963	-0.127	0.2565	0.0017	0.6081	0.1724	0.3809	0.3438	-0.0937
-160.1562	0.3092	0.3371	0.4659	0.0422	-0.1119	-0.0213	-0.157	-0.1438	-0.4177	-0.2034	-0.0579	0.3001	0.325	0.2793	-0.1171	0.2591	-0.1089	-0.1515	-0.0039	0.3922	0.1051	0.1831	-0.0138	0.3144	0.1685	0.7522	0.3149	0.5754	0.3944	0.0246
-156.25	0.3947	0.4503	0.5063	0.0603	-0.1162	-0.0599	-0.1524	-0.1086	-0.3473	-0.1732	0.0128	0.3905	0.3633	0.2268	0.0046	0.4117	0.0806	-0.0168	0.1191	0.4796	0.1559	0.2383	0.0884	0.343	0.3069	0.8533	0.4312	0.7073	0.4161	0.1339
-152.3438	0.4702	0.5398	0.5116	0.0724	-0.1114	-0.084	-0.1422	-0.0588	-0.2407	-0.1462	0.0728	0.4314	0.3777	0.1762	0.1385	0.5585	0.2575	0.1078	0.2256	0.5613	0.2015	0.2662	0.1774	0.3472	0.41	0.9042	0.5132	0.7658	0.4064	0.223
-148.4375	0.5273	0.6036	0.4818	0.0834	-0.097	-0.093	-0.1271	0.0004	-0.1135	-0.1243	0.1172	0.4228	0.3658	0.1322	0.284	0.6963	0.4197	0.216	0.316	0.6375	0.243	0.2721	0.2507	0.3341	0.4758	0.905	0.5584	0.7542	0.3661	0.2822
-144.5312	0.5551	0.6406	0.4214	0.0972	-0.0728	-0.0868	-0.1062	0.0636	0.0173	-0.1056	0.1455	0.3747	0.3294	0.0974	0.4362	0.8191	0.5654	0.3017	0.3901	0.7051	0.2803	0.2612	0.3061	0.3122	0.5071	0.863	0.5696	0.6894	0.2995	0.305
-140.625	0.5439	0.6507	0.3387	0.1152	-0.0391	-0.0659	-0.0764	0.1255	0.1368	-0.0841	0.162	0.3047	0.2741	0.0735	0.5859	0.9189	0.693	0.3604	0.4476	0.7591	0.3112	0.2383	0.3425	0.2896	0.5103	0.7905	0.555	0.5976	0.2142	0.2912
-136.7188	0.4887	0.6355	0.245	0.1368	0.0028	-0.0312	-0.0336	0.1824	0.2362	-0.0513	0.175	0.2336	0.2094	0.0616	0.7207	0.9885	0.7999	0.3906	0.4873	0.7939	0.333	0.2072	0.3596	0.2733	0.4943	0.7022	0.5254	0.5084	0.1217	0.2471
-132.8125	0.3929	0.5999	0.1537	0.1605	0.0513	0.0159	0.0265	0.2317	0.313	0.0012	0.195	0.1802	0.1467	0.0631	0.8284	1.024	0.8826	0.3944	0.5081	0.8061	0.3436	0.1705	0.3573	0.2677	0.4687	0.6121	0.4918	0.4471	0.0357	0.1855
-128.9062	0.2697	0.5521	0.0795	0.1853	0.105	0.0734	0.106	0.2725	0.3707	0.079	0.231	0.1566	0.0969	0.0797	0.8995	1.0267	0.9374	0.378	0.5088	0.7965	0.343	0.1302	0.335	0.2738	0.4426	0.5301	0.462	0.4288	-0.0295	0.1234
-125	0.1414	0.5043	0.0361	0.2127	0.163	0.1387	0.2033	0.3048	0.4151	0.1823	0.2883	0.1654	0.0685	0.1124	0.9296	1.0041	0.9616	0.3512	0.4897	0.7711	0.3348	0.0884	0.2921	0.2894	0.4219	0.4606	0.4391	0.4548	-0.0619	0.0792
-121.0938	0.0349	0.4699	0.0334	0.2462	0.2253	0.2082	0.3125	0.3287	0.4519	0.3042	0.3662	0.1994	0.0646	0.1611	0.9207	0.9684	0.9551	0.3255	0.4539	0.7406	0.3257	0.0482	0.2293	0.3095	0.4087	0.4011	0.4208	0.5129	-0.055	0.0686
-117.1875	-0.0252	0.4613	0.0753	0.2903	0.2916	0.277	0.4231	0.3426	0.4834	0.4315	0.4571	0.2442	0.0832	0.223	0.8806	0.9332	0.9213	0.3122	0.4074	0.7172	0.3242	0.0149	0.1506	0.3279	0.4008	0.3445	0.4006	0.5809	-0.0105	0.1018
-113.2812	-0.0227	0.4859	0.1575	0.3477	0.3599	0.3388	0.5218	0.3432	0.5083	0.5468	0.5485	0.2822	0.1171	0.2928	0.8208	0.9104	0.8686	0.3209	0.3601	0.7119	0.339	-0.0039	0.0648	0.3393	0.3936	0.282	0.3713	0.6333	0.0622	0.1815
-109.375	0.0454	0.5441	0.2683	0.4178	0.4259	0.3863	0.595	0.326	0.5225	0.6327	0.6261	0.2975	0.1561	0.3633	0.7543	0.9068	0.8094	0.3571	0.3247	0.731	0.3761	0.0015	-0.0135	0.3415	0.3824	0.207	0.3275	0.6475	0.148	0.3025
-105.4688	0.1677	0.628	0.3902	0.495	0.4829	0.4124	0.632	0.2871	0.5213	0.6757	0.6773	0.2802	0.1902	0.4264	0.6928	0.9231	0.7586	0.4219	0.3152	0.7741	0.4372	0.0418	-0.0656	0.3362	0.3645	0.1175	0.2681	0.6097	0.2303	0.4522
-101.5625	0.321	0.7226	0.5039	0.5703	0.5234	0.4124	0.6274	0.2256	0.5014	0.6696	0.694	0.2283	0.2117	0.4743	0.6447	0.9537	0.7297	0.511	0.3438	0.8339	0.5187	0.1256	-0.0724	0.3288	0.3412	0.0173	0.1973	0.5172	0.2953	0.6128
-97.6562	0.475	0.8095	0.5912	0.6328	0.541	0.3852	0.5827	0.1453	0.4627	0.6168	0.674	0.148	0.217	0.501	0.6137	0.9879	0.7316	0.6148	0.4179	0.897	0.6117	0.2565	-0.019	0.327	0.3167	-0.0859	0.1229	0.3783	0.3343	0.7637
-93.75	0.5993	0.8707	0.6395	0.6732	0.5326	0.3342	0.5059	0.0544	0.4077	0.5273	0.6206	0.0511	0.2071	0.503	0.5987	1.0124	0.765	0.7203	0.5367	0.9468	0.7029	0.4302	0.1003	0.338	0.2972	-0.1823	0.055	0.2095	0.3452	0.8845
-89.8438	0.6697	0.8918	0.6427	0.6856	0.499	0.2666	0.4091	-0.0359	0.3403	0.4157	0.5405	-0.0477	0.1863	0.4795	0.5936	1.013	0.8209	0.8119	0.689	0.9662	0.7767	0.6324	0.2785	0.3656	0.2879	-0.263	0.0025	0.0315	0.3307	0.9586
-85.9375	0.6737	0.865	0.6026	0.6686	0.4448	0.1923	0.3067	-0.1143	0.2642	0.2981	0.4414	-0.1351	0.1605	0.4323	0.5893	0.9772	0.8819	0.875	0.8534	0.9405	0.8177	0.8401	0.4955	0.4091	0.2908	-0.3225	-0.0284	-0.136	0.2969	0.9752
-82.0312	0.612	0.7887	0.5271	0.6253	0.3772	0.1214	0.2121	-0.1717	0.1819	0.1886	0.3312	-0.2014	0.135	0.3655	0.5744	0.8959	0.9252	0.8971	1.0012	0.8604	0.8136	1.0243	0.7211	0.4623	0.3035	-0.3598	-0.0358	-0.277	0.2506	0.9308
-78.125	0.4977	0.6675	0.4276	0.5615	0.3041	0.0626	0.1364	-0.2033	0.0948	0.0975	0.2164	-0.2424	0.1141	0.2847	0.5378	0.7652	0.9273	0.8702	1.1012	0.7238	0.7581	1.1557	0.9202	0.515	0.3189	-0.3786	-0.0219	-0.3823	0.1975	0.8292
-74.2188	0.3519	0.5098	0.3164	0.4838	0.2322	0.0217	0.0862	-0.2084	0.0041	0.0302	0.1035	-0.2589	0.0997	0.1968	0.4707	0.5871	0.8698	0.7918	1.1271	0.5368	0.6528	1.2111	1.0607	0.5558	0.3278	-0.3859	0.008	-0.4487	0.1414	0.6802
-70.3125	0.1982	0.327	0.2034	0.398	0.1656	0.0001	0.0632	-0.1906	-0.0878	-0.0125	-0.002	-0.2554	0.0916	0.1084	0.3696	0.3701	0.7437	0.6655	1.0632	0.313	0.5074	1.1786	1.1192	0.5745	0.3213	-0.3894	0.047	-0.4782	0.0839	0.4983
-66.4062	0.0566	0.1308	0.0943	0.3069	0.1047	-0.0053	0.064	-0.1565	-0.1768	-0.0335	-0.0948	-0.2382	0.088	0.0252	0.237	0.1278	0.5525	0.5006	0.9096	0.0709	0.3379	1.0609	1.0863	0.5641	0.2931	-0.3959	0.0879	-0.4758	0.0249	0.3
-62.5	-0.0596	-0.0675	-0.0097	0.2102	0.0466	-0.0021	0.0801	-0.1146	-0.2576	-0.0391	-0.1713	-0.2139	0.0858	-0.0498	0.082	-0.1228	0.3117	0.3116	0.682	-0.1696	0.1622	0.8738	0.9672	0.522	0.2417	-0.409	0.1242	-0.4483	-0.0366	0.1024
-58.5938	-0.1459	-0.2583	-0.1116	0.1053	-0.0143	-0.001	0.0997	-0.0738	-0.3247	-0.0372	-0.2296	-0.1883	0.0808	-0.1167	-0.0817	-0.3643	0.0469	0.1164	0.4098	-0.391	-0.0036	0.6428	0.7799	0.4492	0.1701	-0.4291	0.1501	-0.4028	-0.1011	-0.0784
-54.6875	-0.2052	-0.4344	-0.2161	-0.0105	-0.0836	-0.0131	0.1095	-0.0425	-0.3733	-0.0369	-0.271	-0.1658	0.068	-0.1788	-0.2381	-0.5813	-0.2122	-0.0661	0.1291	-0.5814	-0.1488	0.3967	0.5507	0.3494	0.0851	-0.4539	0.1608	-0.347	-0.168	-0.2286
-50.7812	-0.2453	-0.5904	-0.3266	-0.1374	-0.164	-0.047	0.0977	-0.0264	-0.4003	-0.0462	-0.2984	-0.149	0.0427	-0.2404	-0.3722	-0.7624	-0.4361	-0.2184	-0.1243	-0.7353	-0.2694	0.1616	0.3084	0.2278	-0.0049	-0.4788	0.1522	-0.2882	-0.2351	-0.3385
-46.875	-0.2756	-0.7213	-0.4429	-0.2706	-0.2533	-0.1057	0.0566	-0.0277	-0.4042	-0.0706	-0.3166	-0.1383	0.0016	-0.3057	-0.4723	-0.901	-0.6013	-0.3272	-0.3216	-0.8523	-0.3662	-0.0429	0.0801	0.0903	-0.0911	-0.4991	0.1215	-0.2334	-0.2981	-0.403
-42.9688	-0.3044	-0.8222	-0.5592	-0.3996	-0.3434	-0.1855	-0.0151	-0.0445	-0.3847	-0.1112	-0.3298	-0.1322	-0.0562	-0.3756	-0.5313	-0.9943	-0.6932	-0.3851	-0.4455	-0.9345	-0.4422	-0.2053	-0.1128	-0.0569	-0.1663	-0.5105	0.068	-0.1888	-0.3515	-0.4231
-39.0625	-0.3363	-0.8876	-0.6647	-0.5096	-0.4217	-0.2765	-0.1124	-0.0712	-0.3424	-0.1644	-0.3412	-0.1271	-0.1281	-0.4474	-0.5478	-1.0431	-0.7083	-0.392	-0.492	-0.9844	-0.4993	-0.322	-0.2561	-0.2071	-0.2253	-0.51	-0.0071	-0.159	-0.3886	-0.4056
-35.1562	-0.3714	-0.912	-0.7454	-0.5847	-0.4745	-0.3652	-0.225	-0.1005	-0.2795	-0.2222	-0.3521	-0.1186	-0.2089	-0.5148	-0.5263	-1.0503	-0.6546	-0.3551	-0.4691	-1.0028	-0.5371	-0.3943	-0.343	-0.3536	-0.2657	-0.4962	-0.0996	-0.1467	-0.4039	-0.3619
-31.25	-0.4049	-0.8916	-0.7883	-0.6121	-0.491	-0.4375	-0.3395	-0.1254	-0.1995	-0.2745	-0.3613	-0.1024	-0.2906	-0.5691	-0.4765	-1.0203	-0.5493	-0.287	-0.3932	-0.9895	-0.5526	-0.4258	-0.3731	-0.4896	-0.2878	-0.4692	-0.2025	-0.1527	-0.3935	-0.3059
-27.3438	-0.4288	-0.825	-0.7836	-0.5849	-0.4662	-0.4824	-0.4421	-0.1411	-0.1082	-0.311	-0.3658	-0.075	-0.3646	-0.6017	-0.4116	-0.9581	-0.415	-0.2024	-0.2842	-0.9441	-0.5421	-0.4197	-0.3505	-0.6085	-0.295	-0.4302	-0.3065	-0.1756	-0.3562	-0.2506
-23.4375	-0.4342	-0.7144	-0.7283	-0.5032	-0.4019	-0.493	-0.5204	-0.1456	-0.0127	-0.3234	-0.3616	-0.0346	-0.422	-0.6056	-0.3459	-0.8691	-0.2744	-0.1152	-0.1609	-0.8673	-0.5032	-0.3781	-0.2824	-0.7044	-0.2922	-0.3818	-0.4011	-0.2122	-0.2941	-0.2063
-19.5312	-0.4136	-0.5653	-0.626	-0.374	-0.3054	-0.4671	-0.5655	-0.1395	0.0792	-0.3064	-0.3444	0.0182	-0.4557	-0.5773	-0.2917	-0.7582	-0.1454	-0.0353	-0.0369	-0.7619	-0.4365	-0.3023	-0.1781	-0.7722	-0.2854	-0.3278	-0.4755	-0.2586	-0.2119	-0.1782
-15.625	-0.3628	-0.3858	-0.4867	-0.2084	-0.1867	-0.4066	-0.5725	-0.1254	0.1606	-0.2588	-0.3114	0.0801	-0.4611	-0.5172	-0.2562	-0.6296	-0.0376	0.0318	0.0808	-0.6329	-0.3456	-0.1945	-0.0489	-0.809	-0.2801	-0.2735	-0.5212	-0.3107	-0.1166	-0.1674
-11.7188	-0.2817	-0.186	-0.3249	-0.0194	-0.0561	-0.316	-0.5414	-0.1065	0.2261	-0.1832	-0.2626	0.1446	-0.4371	-0.4295	-0.2399	-0.4873	0.0477	0.0846	0.1903	-0.4873	-0.2375	-0.0605	0.0916	-0.8145	-0.2808	-0.2265	-0.5339	-0.3662	-0.0169	-0.1716
-7.8125	-0.1737	0.0229	-0.1576	0.18	0.0782	-0.2015	-0.4771	-0.086	0.2727	-0.0855	-0.2013	0.2027	-0.3866	-0.3214	-0.2375	-0.3355	0.1161	0.1231	0.293	-0.3338	-0.1212	0.089	0.2277	-0.7921	-0.2905	-0.1958	-0.5147	-0.4247	0.0779	-0.1872
-3.9062	-0.0445	0.2295	-0.0012	0.3787	0.2106	-0.0697	-0.3887	-0.0665	0.2999	0.0254	-0.1346	0.2432	-0.3164	-0.2023	-0.2395	-0.1796	0.1758	0.1467	0.3892	-0.1822	-0.0069	0.2377	0.3426	-0.7486	-0.3109	-0.1912	-0.4701	-0.4886	0.158	-0.2118
0	0.0987	0.4239	0.1304	0.5682	0.3377	0.0732	-0.2891	-0.0498	0.3085	0.1386	-0.0715	0.2555	-0.2364	-0.0824	-0.2361	-0.0268	0.2334	0.153	0.4763	-0.0425	0.0955	0.3661	0.4209	-0.6935	-0.3425	-0.2213	-0.4114	-0.5618	0.2146	-0.2448
3.9062	0.2473	0.5981	0.2276	0.7423	0.4573	0.2217	-0.1921	-0.0375	0.3001	0.2425	-0.0212	0.2314	-0.1579	0.0287	-0.2202	0.1142	0.2915	0.1377	0.5475	0.0761	0.1772	0.4554	0.4516	-0.637	-0.3843	-0.2911	-0.3517	-0.6484	0.241	-0.2877
7.8125	0.3914	0.7472	0.2871	0.8973	0.5678	0.3717	-0.111	-0.0308	0.2769	0.3264	0.0084	0.1679	-0.0919	0.1234	-0.189	0.2344	0.3473	0.0972	0.594	0.1672	0.2326	0.4922	0.4316	-0.5882	-0.4342	-0.4006	-0.3034	-0.7511	0.2343	-0.3424
11.7188	0.5194	0.8694	0.3108	1.031	0.6674	0.5196	-0.0561	-0.0308	0.2408	0.3821	0.0131	0.0683	-0.0473	0.1973	-0.1439	0.3266	0.3944	0.0311	0.608	0.2287	0.2604	0.473	0.3673	-0.5529	-0.4879	-0.5434	-0.2756	-0.8697	0.1956	-0.4094
15.625	0.6199	0.9655	0.3051	1.1421	0.7545	0.6618	-0.0335	-0.0388	0.1932	0.4051	-0.008	-0.0576	-0.0294	0.25	-0.0898	0.3869	0.4255	-0.0552	0.5867	0.264	0.2648	0.4063	0.275	-0.532	-0.5398	-0.707	-0.2722	-1.0006	0.1304	-0.4864
19.5312	0.6841	1.0373	0.2778	1.2296	0.8276	0.7935	-0.0437	-0.056	0.1355	0.3956	-0.0521	-0.1953	-0.0391	0.2859	-0.0326	0.4168	0.4363	-0.1493	0.5352	0.2824	0.2559	0.3128	0.1784	-0.5209	-0.583	-0.8739	-0.2913	-1.1364	0.0464	-0.5671
23.4375	0.7094	1.0871	0.2361	1.2933	0.8864	0.909	-0.0827	-0.0833	0.0686	0.3583	-0.1136	-0.3281	-0.0719	0.3133	0.0227	0.4238	0.429	-0.2323	0.4682	0.2978	0.2484	0.2215	0.1047	-0.5107	-0.61	-1.0237	-0.3257	-1.2669	-0.048	-0.642
27.3438	0.7005	1.1178	0.1849	1.3339	0.9319	1.0011	-0.1416	-0.1213	-0.0058	0.3023	-0.1852	-0.4397	-0.1187	0.3436	0.0744	0.4217	0.4149	-0.2819	0.4087	0.3268	0.2603	0.1653	0.0797	-0.4891	-0.6141	-1.1358	-0.3641	-1.3798	-0.145	-0.6996
31.25	0.6694	1.1339	0.1269	1.3545	0.9673	1.0631	-0.2089	-0.1698	-0.0854	0.2394	-0.2597	-0.5173	-0.1667	0.389	0.1253	0.429	0.4145	-0.2754	0.3848	0.3864	0.31	0.1744	0.1237	-0.4433	-0.5905	-1.1927	-0.3937	-1.4621	-0.2389	-0.7282
35.1562	0.6326	1.142	0.0638	1.361	0.9978	1.0899	-0.272	-0.2285	-0.1671	0.1824	-0.3303	-0.5527	-0.2018	0.4608	0.1826	0.4666	0.4541	-0.195	0.4252	0.4911	0.4128	0.2705	0.2477	-0.3631	-0.5373	-1.183	-0.4019	-1.5022	-0.3256	-0.7184
39.0625	0.6077	1.1515	-0.0027	1.3625	1.0302	1.0802	-0.3188	-0.2973	-0.2475	0.1428	-0.3921	-0.5431	-0.2102	0.5671	0.2566	0.5535	0.5606	-0.0315	0.5529	0.6493	0.5782	0.4628	0.452	-0.2427	-0.4564	-1.1038	-0.3788	-1.4913	-0.4025	-0.6657
42.9688	0.6098	1.1725	-0.0694	1.37	1.0719	1.0373	-0.34	-0.3767	-0.3237	0.1294	-0.442	-0.4907	-0.1812	0.7119	0.3573	0.7025	0.7541	0.2118	0.7804	0.8622	0.8072	0.746	0.7263	-0.0824	-0.3539	-0.9612	-0.3186	-1.4251	-0.4685	-0.5719
46.875	0.6475	1.2141	-0.1326	1.3936	1.1294	0.9689	-0.3295	-0.4677	-0.3933	0.1473	-0.4783	-0.401	-0.1086	0.8943	0.4903	0.916	1.0412	0.5176	1.1049	1.1217	1.091	1.101	1.0508	0.1113	-0.2392	-0.7692	-0.22	-1.3041	-0.5238	-0.4466
50.7812	0.7207	1.2799	-0.1889	1.4389	1.2059	0.885	-0.2856	-0.5717	-0.4553	0.1973	-0.4996	-0.2814	0.0077	1.1078	0.6525	1.1827	1.4099	0.8558	1.5063	1.4103	1.4111	1.4969	1.3981	0.3264	-0.1242	-0.5475	-0.0871	-1.1345	-0.5706	-0.3063
54.6875	0.8187	1.365	-0.2382	1.5039	1.2993	0.7955	-0.2111	-0.6888	-0.5093	0.276	-0.5043	-0.1395	0.1608	1.3395	0.83	1.4765	1.8282	1.1852	1.9476	1.7017	1.7401	1.8944	1.7361	0.547	-0.0214	-0.3182	0.0712	-0.9271	-0.6141	-0.1729
58.5938	0.9203	1.454	-0.2859	1.5769	1.4007	0.7069	-0.1128	-0.8173	-0.5553	0.3768	-0.4903	0.0173	0.3375	1.5697	0.9971	1.7583	2.2461	1.46	2.378	1.9628	2.0439	2.2505	2.03	0.7549	0.0574	-0.1033	0.2415	-0.6971	-0.6629	-0.0707
62.5	0.9964	1.5218	-0.343	1.6367	1.4946	0.6202	-0.0013	-0.9529	-0.5938	0.4904	-0.4552	0.1822	0.5191	1.7736	1.1205	1.9814	2.603	1.6359	2.7398	2.1576	2.2859	2.5234	2.2451	0.9316	0.1027	0.078	0.4073	-0.4628	-0.7281	-0.0223
66.4062	1.0149	1.5377	-0.4247	1.6571	1.5615	0.5309	0.1105	-1.0894	-0.6255	0.606	-0.398	0.3485	0.6842	1.9234	1.1645	2.0998	2.8381	1.6779	2.977	2.2526	2.4318	2.6779	2.351	1.0599	0.1083	0.2099	0.5503	-0.2446	-0.8216	-0.0457
70.3125	0.9469	1.4723	-0.547	1.612	1.5814	0.4304	0.2079	-1.2197	-0.6521	0.7122	-0.3209	0.5077	0.8122	1.9933	1.0992	2.0776	2.9029	1.567	3.046	2.2227	2.4555	2.6906	2.3255	1.126	0.0715	0.2804	0.6524	-0.0635	-0.953	-0.1496
74.2188	0.7745	1.3056	-0.721	1.4824	1.5379	0.3081	0.2767	-1.3388	-0.677	0.7976	-0.2306	0.6492	0.8865	1.9646	0.9079	1.8975	2.7718	1.3045	2.9238	2.0579	2.3444	2.5537	2.1586	1.1211	-0.0068	0.2817	0.6981	0.0606	-1.1257	-0.3319
78.125	0.4966	1.0338	-0.9484	1.2616	1.422	0.155	0.3043	-1.4458	-0.7057	0.852	-0.1395	0.76	0.8972	1.8304	0.5929	1.5673	2.4492	0.9134	2.6139	1.7665	2.1033	2.2769	1.856	1.0429	-0.1224	0.2101	0.6765	0.111	-1.3345	-0.5785
82.0312	0.1317	0.673	-1.219	0.9581	1.2337	-0.0343	0.2817	-1.5443	-0.7458	0.8675	-0.0637	0.8267	0.8431	1.5987	0.1776	1.1203	1.9701	0.4343	2.1465	1.3766	1.7559	1.8859	1.4398	0.8967	-0.2678	0.0663	0.5838	0.0771	-1.5648	-0.8651
85.9375	-0.284	0.2575	-1.5114	0.5944	0.9823	-0.2599	0.2059	-1.6415	-0.8047	0.84	-0.0203	0.8385	0.7321	1.2925	-0.2968	0.6105	1.3938	-0.0811	1.5731	0.9316	1.3417	1.4186	0.9453	0.6954	-0.4328	-0.1435	0.4246	-0.0433	-1.7943	-1.1609
89.8438	-0.7033	-0.1675	-1.7983	0.2029	0.6851	-0.5159	0.0807	-1.7449	-0.8877	0.7707	-0.0231	0.7911	0.5801	0.9459	-0.7779	0.1022	0.7917	-0.58	0.9568	0.4835	0.9104	0.9191	0.4168	0.4587	-0.605	-0.4068	0.2127	-0.242	-1.9985	-1.4342
93.75	-1.0768	-0.5555	-2.0529	-0.181	0.365	-0.7906	-0.0822	-1.859	-0.9946	0.6671	-0.0785	0.6895	0.4083	0.599	-1.2124	-0.3427	0.2336	-1.0171	0.3614	0.0825	0.5127	0.4313	-0.0995	0.2108	-0.7707	-0.7034	-0.0294	-0.4992	-2.1559	-1.6582
97.6562	-1.3637	-0.8695	-2.2553	-0.5247	0.0474	-1.0678	-0.2646	-1.9814	-1.1177	0.5422	-0.1836	0.5493	0.2401	0.2899	-1.5566	-0.6768	-0.2253	-1.3621	-0.1592	-0.232	0.1914	-0.0068	-0.561	-0.0222	-0.9155	-1.0057	-0.2731	-0.7847	-2.2536	-1.8155
101.5625	-1.5403	-1.0895	-2.3969	-0.8047	-0.2429	-1.3277	-0.444	-2.1016	-1.242	0.4131	-0.3255	0.3944	0.0968	0.0477	-1.784	-0.8762	-0.5531	-1.6026	-0.5673	-0.4387	-0.0261	-0.3667	-0.9343	-0.216	-1.026	-1.2806	-0.487	-1.0609	-2.29	-1.9
105.4688	-1.6043	-1.2153	-2.4809	-1.0095	-0.485	-1.5502	-0.598	-2.2016	-1.3466	0.2982	-0.4838	0.2526	-0.0061	-0.1121	-1.8904	-0.9435	-0.7437	-1.7426	-0.8451	-0.5367	-0.1331	-0.6316	-1.1978	-0.3515	-1.0913	-1.4936	-0.6428	-1.2893	-2.2747	-1.9172
109.375	-1.5753	-1.2652	-2.5205	-1.14	-0.6647	-1.7169	-0.708	-2.2591	-1.4086	0.2135	-0.6346	0.1493	-0.0609	-0.1901	-1.8928	-0.905	-0.8142	-1.799	-0.9935	-0.5441	-0.1427	-0.7969	-1.3436	-0.4178	-1.1048	-1.6144	-0.7201	-1.4371	-2.2269	-1.8821
113.2812	-1.49	-1.2698	-2.5349	-1.2079	-0.777	-1.8153	-0.7631	-2.2521	-1.4078	0.1705	-0.7548	0.1021	-0.069	-0.2015	-1.8253	-0.8038	-0.7982	-1.7958	-1.0292	-0.4921	-0.0844	-0.869	-1.3764	-0.4142	-1.0664	-1.6231	-0.7112	-1.4833	-2.1703	-1.816
117.1875	-1.3937	-1.2653	-2.5441	-1.2326	-0.8261	-1.8404	-0.7617	-2.1644	-1.331	0.1734	-0.8265	0.1166	-0.0399	-0.1716	-1.7311	-0.6902	-0.7385	-1.7585	-0.9801	-0.4176	0.0033	-0.8639	-1.3123	-0.3496	-0.9823	-1.5152	-0.6222	-1.4236	-2.1287	-1.7425
121.0938	-1.3309	-1.2864	-2.5654	-1.2373	-0.8248	-1.7969	-0.7111	-1.9897	-1.1751	0.2197	-0.8398	0.1856	0.0117	-0.129	-1.6537	-0.6118	-0.6785	-1.7103	-0.8802	-0.356	0.0811	-0.8033	-1.1745	-0.2404	-0.8646	-1.3037	-0.472	-1.2705	-2.1209	-1.6844
125	-1.3372	-1.3601	-2.6103	-1.2449	-0.7919	-1.6978	-0.6255	-1.735	-0.9486	0.2999	-0.7948	0.2916	0.0687	-0.0996	-1.6287	-0.6058	-0.6559	-1.669	-0.7634	-0.335	0.117	-0.7115	-0.9888	-0.1073	-0.7283	-1.0173	-0.2878	-1.0507	-2.1574	-1.6604
128.9062	-1.4334	-1.5025	-2.6839	-1.2745	-0.7489	-1.5626	-0.5236	-1.4204	-0.6707	0.3999	-0.7016	0.4102	0.1148	-0.1012	-1.6788	-0.694	-0.6977	-1.6465	-0.6596	-0.3714	0.0915	-0.6107	-0.7798	0.029	-0.5882	-0.6959	-0.1003	-0.8002	-2.2396	-1.683
132.8125	-1.6232	-1.7179	-2.7849	-1.3393	-0.7159	-1.4137	-0.425	-1.0778	-0.3698	0.5023	-0.5799	0.5151	0.1363	-0.142	-1.8121	-0.8815	-0.8179	-1.6491	-0.5907	-0.4706	-0.0007	-0.5189	-0.5678	0.1505	-0.4561	-0.3835	0.0616	-0.5576	-2.3612	-1.757
136.7188	-1.8948	-1.9993	-2.9081	-1.4457	-0.7087	-1.2726	-0.3483	-0.7457	-0.079	0.5887	-0.4559	0.5824	0.1231	-0.2207	-2.0234	-1.1587	-1.0166	-1.6776	-0.5698	-0.6287	-0.1515	-0.4483	-0.3679	0.2437	-0.339	-0.1206	0.1757	-0.3581	-2.5112	-1.8789
140.625	-2.2235	-2.3316	-3.0455	-1.5934	-0.7371	-1.1568	-0.3082	-0.4634	0.1687	0.6416	-0.3581	0.5942	0.0689	-0.33	-2.2988	-1.5056	-1.2831	-1.7292	-0.6011	-0.8357	-0.3448	-0.4059	-0.1901	0.3003	-0.2392	0.0625	0.2281	-0.2287	-2.6769	-2.0374
144.5312	-2.5778	-2.6954	-3.1891	-1.7769	-0.8039	-1.0778	-0.3151	-0.2644	0.3452	0.6466	-0.3125	0.5411	-0.0289	-0.4594	-2.6197	-1.8974	-1.5992	-1.7981	-0.6825	-1.0793	-0.5614	-0.3951	-0.0409	0.3157	-0.1555	0.1494	0.2139	-0.1859	-2.8467	-2.2149
148.4375	-2.9247	-3.0696	-3.3323	-1.9867	-0.9059	-1.0405	-0.3728	-0.1708	0.4317	0.5944	-0.338	0.422	-0.1691	-0.5996	-2.9662	-2.3091	-1.9435	-1.877	-0.808	-1.3475	-0.7838	-0.4174	0.0751	0.289	-0.0848	0.1392	0.1362	-0.2341	-3.0114	-2.39
152.3438	-3.2358	-3.4341	-3.4701	-2.211	-1.0348	-1.0437	-0.4795	-0.19	0.4208	0.4823	-0.4428	0.2435	-0.3466	-0.7433	-3.3183	-2.7187	-2.2949	-1.9579	-0.9694	-1.6299	-1	-0.4739	0.1544	0.2213	-0.0241	0.0444	0.0042	-0.3675	-3.1642	-2.5406
156.25	-3.4903	-3.77	-3.5986	-2.4364	-1.1794	-1.0814	-0.6274	-0.3148	0.317	0.3141	-0.6238	0.0179	-0.552	-0.8867	-3.6568	-3.1092	-2.6347	-2.0335	-1.1584	-1.9177	-1.2032	-0.5656	0.1941	0.1157	0.0278	-0.114	-0.1699	-0.572	-3.2994	-2.6477
160.1562	-3.6779	-4.0602	-3.7143	-2.649	-1.3273	-1.1446	-0.8041	-0.5257	0.1348	0.1003	-0.8677	-0.2395	-0.7726	-1.0288	-3.9626	-3.4684	-2.9479	-2.0983	-1.3673	-2.2029	-1.3917	-0.6945	0.1907	-0.0231	0.0688	-0.3119	-0.373	-0.8286	-3.4108	-2.6978
164.0625	-3.7982	-4.2906	-3.813	-2.8358	-1.4669	-1.2235	-0.9947	-0.7952	-0.1034	-0.1434	-1.1537	-0.5124	-0.9936	-1.1702	-4.2188	-3.7891	-3.2241	-2.1499	-1.5902	-2.4782	-1.5667	-0.8629	0.1401	-0.1899	0.0938	-0.5279	-0.5929	-1.1166	-3.4916	-2.6851
167.9688	-3.8603	-4.4515	-3.8909	-2.9869	-1.5898	-1.3095	-1.1839	-1.0931	-0.3708	-0.398	-1.4569	-0.7842	-1.2	-1.3121	-4.4125	-4.0679	-3.4576	-2.1893	-1.8239	-2.7368	-1.7304	-1.0742	0.0366	-0.3791	0.0949	-0.7469	-0.8196	-1.4157	-3.5354	-2.6115
171.875	-3.8805	-4.5402	-3.9452	-3.0968	-1.6914	-1.3964	-1.3578	-1.3908	-0.6399	-0.643	-1.7517	-1.0391	-1.3787	-1.4551	-4.5378	-4.3053	-3.6479	-2.2217	-2.0674	-2.9738	-1.8854	-1.3311	-0.1257	-0.585	0.0638	-0.9603	-1.0446	-1.7072	-3.5383	-2.4873
175.7812	-3.8789	-4.5624	-3.9757	-3.1655	-1.7715	-1.4812	-1.5059	-1.6653	-0.8856	-0.8584	-2.0144	-1.2618	-1.5199	-1.5987	-4.5975	-4.5053	-3.7995	-2.2551	-2.322	-3.1871	-2.0337	-1.6344	-0.3516	-0.802	-0.0053	-1.1644	-1.2601	-1.9741	-3.5015	-2.3295
179.6875	-3.8749	-4.5323	-3.9855	-3.1988	-1.8339	-1.5634	-1.6217	-1.9006	-1.0879	-1.0274	-2.2258	-1.4381	-1.6186	-1.7409	-4.603	-4.674	-3.9206	-2.2988	-2.5892	-3.3778	-2.1768	-1.9801	-0.6411	-1.0228	-0.1134	-1.357	-1.4578	-2.201	-3.4322	-2.16
183.5938	-3.8831	-4.4709	-3.9803	-3.2065	-1.8849	-1.6444	-1.7031	-2.0885	-1.2338	-1.1379	-2.3725	-1.5563	-1.6746	-1.8796	-4.5729	-4.8184	-4.0215	-2.3608	-2.8682	-3.5498	-2.3158	-2.3571	-0.9864	-1.2389	-0.2543	-1.5343	-1.6283	-2.3745	-3.3436	-2.0027
187.5	-3.9093	-4.402	-3.9671	-3.2011	-1.9321	-1.7261	-1.7518	-2.2269	-1.3179	-1.1849	-2.4486	-1.609	-1.6924	-2.0131	-4.5283	-4.9439	-4.1115	-2.4457	-3.154	-3.7078	-2.4519	-2.7459	-1.3695	-1.4393	-0.4148	-1.6894	-1.7618	-2.4845	-3.2523	-1.8799
191.4062	-3.9497	-4.347	-3.9525	-3.1939	-1.9823	-1.8094	-1.7724	-2.3183	-1.3417	-1.1711	-2.4566	-1.5959	-1.6801	-2.1405	-4.4894	-5.0523	-4.1961	-2.5528	-3.4355	-3.8555	-2.5856	-3.1194	-1.7622	-1.6118	-0.5766	-1.813	-1.8503	-2.5267	-3.1746	-1.8079
195.3125	-3.9927	-4.32	-3.9404	-3.1929	-2.0397	-1.8938	-1.771	-2.3674	-1.3118	-1.1066	-2.4072	-1.5251	-1.6476	-2.2622	-4.4699	-5.1402	-4.2744	-2.6758	-3.6959	-3.9927	-2.7162	-3.4455	-2.1286	-1.7442	-0.7199	-1.8959	-1.8892	-2.5047	-3.1219	-1.7939
199.2188	-4.0225	-4.324	-3.9306	-3.1999	-2.1038	-1.9754	-1.7536	-2.3788	-1.2383	-1.0073	-2.3181	-1.4133	-1.6047	-2.3784	-4.4742	-5.1991	-4.3382	-2.8032	-3.9144	-4.1141	-2.8409	-3.6927	-2.4306	-1.8269	-0.8269	-1.9321	-1.8797	-2.4316	-3.0973	-1.8334
203.125	-4.0238	-4.3488	-3.9175	-3.2095	-2.1682	-2.0464	-1.7251	-2.3558	-1.1326	-0.8918	-2.2111	-1.2843	-1.5597	-2.4875	-4.495	-5.2159	-4.3733	-2.9203	-4.0694	-4.2094	-2.9538	-3.8352	-2.6338	-1.8548	-0.8859	-1.9221	-1.8296	-2.3294	-3.0942	-1.9101
207.0312	-3.9853	-4.3726	-3.8911	-3.2091	-2.2201	-2.0947	-1.6881	-2.3001	-1.0066	-0.7787	-2.1093	-1.165	-1.5176	-2.5846	-4.5142	-5.1759	-4.3624	-3.0109	-4.1423	-4.2642	-3.0451	-3.8574	-2.7135	-1.8291	-0.8919	-1.874	-1.7525	-2.2263	-3.0973	-1.9986
210.9375	-3.901	-4.3657	-3.8387	-3.1812	-2.2418	-2.1054	-1.6431	-2.2128	-0.8716	-0.683	-2.0331	-1.0805	-1.4801	-2.6604	-4.5069	-5.0661	-4.2893	-3.0595	-4.1206	-4.263	-3.1024	-3.7564	-2.6589	-1.7564	-0.8473	-1.8034	-1.6648	-2.1517	-3.0863	-2.0691
214.8438	-3.77	-4.2976	-3.7482	-3.1069	-2.2142	-2.0633	-1.5891	-2.0967	-0.7392	-0.6147	-1.9981	-1.05	-1.4461	-2.7018	-4.4467	-4.8783	-4.1432	-3.0527	-3.9999	-4.1923	-3.1112	-3.5415	-2.4741	-1.6476	-0.7601	-1.7298	-1.5834	-2.1309	-3.0408	-2.0926
218.75	-3.5959	-4.1447	-3.6119	-2.9716	-2.1209	-1.9568	-1.5249	-1.9582	-0.621	-0.5782	-2.013	-1.083	-1.4123	-2.6938	-4.3127	-4.6131	-3.9219	-2.9814	-3.785	-4.0439	-3.0588	-3.2317	-2.177	-1.5156	-0.6421	-1.6729	-1.5215	-2.1789	-2.9455	-2.0469
222.6562	-3.3855	-3.8978	-3.4301	-2.7689	-1.9536	-1.7824	-1.4508	-1.8093	-0.5288	-0.5733	-2.0796	-1.1778	-1.375	-2.6236	-4.0954	-4.2809	-3.6342	-2.8427	-3.4888	-3.8184	-2.9363	-2.8535	-1.7961	-1.373	-0.5069	-1.6482	-1.4866	-2.2976	-2.795	-1.9204
226.5625	-3.1487	-3.566	-3.2126	-2.5044	-1.7157	-1.5474	-1.3692	-1.6672	-0.4742	-0.5966	-2.1923	-1.3221	-1.331	-2.4842	-3.8001	-3.9028	-3.2995	-2.6414	-3.1321	-3.5258	-2.7426	-2.4364	-1.3667	-1.2309	-0.3681	-1.6633	-1.4798	-2.4747	-2.5954	-1.7143
230.4688	-2.8987	-3.1762	-2.9779	-2.1958	-1.4231	-1.2706	-1.2855	-1.5526	-0.4672	-0.643	-2.3395	-1.495	-1.2786	-2.2774	-3.4473	-3.5077	-2.9457	-2.3903	-2.7408	-3.1856	-2.4853	-2.0109	-0.9267	-1.0978	-0.2374	-1.7163	-1.4955	-2.6858	-2.3635	-1.442
234.375	-2.6522	-2.7686	-2.7505	-1.8707	-1.1024	-0.9797	-1.2065	-1.4854	-0.514	-0.7062	-2.5045	-1.6708	-1.2178	-2.0143	-3.0701	-3.1282	-2.6045	-2.1098	-2.3435	-2.8238	-2.1805	-1.6049	-0.5129	-0.9794	-0.1232	-1.7958	-1.5231	-2.8988	-2.1238	-1.1271
238.2812	-2.4284	-2.3885	-2.5559	-1.5608	-0.7866	-0.7065	-1.1399	-1.4806	-0.6147	-0.7795	-2.668	-1.8228	-1.1498	-1.714	-2.708	-2.7956	-2.306	-1.8246	-1.9674	-2.4687	-1.8508	-1.2413	-0.1565	-0.8784	-0.0293	-1.8832	-1.5491	-3.0798	-1.9043	-0.8002
242.1875	-2.2472	-2.0765	-2.4154	-1.296	-0.5087	-0.4812	-1.0919	-1.5449	-0.7622	-0.8551	-2.8098	-1.927	-1.0767	-1.4002	-2.3993	-2.5337	-2.072	-1.5603	-1.6343	-2.1462	-1.5215	-0.9362	0.1202	-0.7952	0.0453	-1.9561	-1.5596	-3.1988	-1.7319	-0.4947
246.0938	-2.1256	-1.8608	-2.3417	-1.098	-0.296	-0.3266	-1.0662	-1.6743	-0.9412	-0.9245	-2.9121	-1.9665	-1.0006	-1.0966	-2.174	-2.354	-1.9128	-1.34	-1.3577	-1.875	-1.2159	-0.6973	0.3057	-0.728	0.1067	-1.9932	-1.543	-3.2357	-1.6279	-0.2428
250	-2.0751	-1.7513	-2.3372	-0.9763	-0.165	-0.2543	-1.0626	-1.8549	-1.1303	-0.9787	-2.9619	-1.9333	-0.9234	-0.8234	-2.0478	-2.2541	-1.8254	-1.1809	-1.1414	-1.6633	-0.9518	-0.5248	0.3994	-0.6732	0.1638	-1.9784	-1.492	-3.183	-1.6052	-0.0715
253.9062	-2.0977	-1.7394	-2.3943	-0.9276	-0.1195	-0.2632	-1.0771	-2.0653	-1.305	-1.0092	-2.9527	-1.8299	-0.8459	-0.5935	-2.0202	-2.2175	-1.7958	-1.0918	-0.9807	-1.5079	-0.7383	-0.4129	0.41	-0.6266	0.2266	-1.9038	-1.4048	-3.0476	-1.6661	0.0005
257.8125	-2.185	-1.8011	-2.4991	-0.937	-0.1505	-0.3408	-1.1019	-2.2804	-1.4416	-1.0089	-2.8849	-1.6685	-0.7679	-0.4117	-2.0761	-2.2183	-1.8036	-1.0732	-0.8653	-1.3959	-0.5758	-0.3523	0.3528	-0.5831	0.3035	-1.7711	-1.2846	-2.8488	-1.8029	-0.0342
261.7188	-2.3192	-1.904	-2.635	-0.9832	-0.2384	-0.4665	-1.1263	-2.4755	-1.5221	-0.9725	-2.7655	-1.468	-0.6874	-0.2751	-2.1911	-2.2272	-1.8274	-1.1172	-0.7837	-1.3082	-0.4565	-0.3325	0.2462	-0.5372	0.3987	-1.5909	-1.1389	-2.6138	-2.0003	-0.1708
265.625	-2.4763	-2.0161	-2.7866	-1.044	-0.3581	-0.6162	-1.1386	-2.6306	-1.5372	-0.8977	-2.6055	-1.2507	-0.6013	-0.1754	-2.3375	-2.2188	-1.8508	-1.2098	-0.7261	-1.2254	-0.3689	-0.3442	0.1095	-0.4834	0.5107	-1.38	-0.9778	-2.3728	-2.238	-0.393
269.5312	-2.6324	-2.1127	-2.9428	-1.1012	-0.4834	-0.7672	-1.1273	-2.7324	-1.4881	-0.785	-2.4185	-1.038	-0.5055	-0.103	-2.4916	-2.1781	-1.8648	-1.3343	-0.6876	-1.1339	-0.3016	-0.3798	-0.04	-0.4168	0.6324	-1.1586	-0.8117	-2.1532	-2.495	-0.6754
273.4375	-2.7695	-2.1824	-3.0975	-1.1455	-0.5932	-0.9021	-1.0843	-2.7757	-1.3862	-0.6388	-2.2178	-0.8476	-0.3972	-0.05	-2.6379	-2.1051	-1.8698	-1.4739	-0.6683	-1.0307	-0.2488	-0.434	-0.1883	-0.3347	0.7518	-0.9464	-0.651	-1.9758	-2.7519	-0.9877
277.3438	-2.8793	-2.2281	-3.249	-1.1775	-0.6747	-1.0105	-1.007	-2.7632	-1.2501	-0.4672	-2.0161	-0.6918	-0.276	-0.0142	-2.7706	-2.0151	-1.8732	-1.6148	-0.6729	-0.9264	-0.2132	-0.5037	-0.3254	-0.238	0.8545	-0.7599	-0.5052	-1.8528	-2.993	-1.2985
281.25	-2.9637	-2.2653	-3.3984	-1.2068	-0.7252	-1.0893	-0.8993	-2.7033	-1.1029	-0.2826	-1.8246	-0.5772	-0.1456	-0.0003	-2.8926	-1.9358	-1.8872	-1.7464	-0.709	-0.8438	-0.2063	-0.5869	-0.4458	-0.1323	0.926	-0.611	-0.3829	-1.7879	-3.2064	-1.5796
285.1562	-3.0327	-2.3162	-3.5471	-1.2489	-0.7514	-1.1417	-0.772	-2.6088	-0.9673	-0.1011	-1.6536	-0.5067	-0.0147	-0.0184	-3.0114	-1.9002	-1.9245	-1.8616	-0.7839	-0.8135	-0.2458	-0.6817	-0.547	-0.0282	0.9553	-0.5063	-0.292	-1.778	-3.3834	-1.8085
289.0625	-3.0997	-2.4024	-3.6949	-1.3198	-0.766	-1.1746	-0.6415	-2.4943	-0.8631	0.0591	-1.5131	-0.48	0.1042	-0.0809	-3.1349	-1.9387	-1.9957	-1.9553	-0.9027	-0.8655	-0.3498	-0.7856	-0.628	0.0612	0.937	-0.4471	-0.2387	-1.8156	-3.5176	-1.9704
292.9688	-3.177	-2.5383	-3.8379	-1.4315	-0.7838	-1.1961	-0.5261	-2.3739	-0.8038	0.1803	-1.4126	-0.4955	0.1965	-0.1977	-3.2674	-2.0712	-2.1058	-2.0232	-1.0657	-1.0216	-0.5311	-0.8938	-0.6871	0.1234	0.8735	-0.4307	-0.2268	-1.8907	-3.6047	-2.0581
296.875	-3.2725	-2.7263	-3.9681	-1.5881	-0.8173	-1.213	-0.4428	-2.2596	-0.7953	0.2486	-1.3597	-0.5497	0.2492	-0.372	-3.4075	-2.3021	-2.2539	-2.0611	-1.2669	-1.2889	-0.7921	-0.9996	-0.7211	0.1499	0.775	-0.4511	-0.2561	-1.9923	-3.642	-2.072
300.7812	-3.388	-2.9553	-4.0749	-1.7851	-0.8743	-1.2295	-0.4041	-2.1598	-0.8358	0.2564	-1.3584	-0.6369	0.2532	-0.5974	-3.5474	-2.6188	-2.4322	-2.0654	-1.4944	-1.6578	-1.1228	-1.0944	-0.7254	0.1395	0.658	-0.4998	-0.3217	-2.1089	-3.6287	-2.0186
304.6875	-3.5187	-3.2036	-4.1466	-2.0094	-0.9565	-1.2467	-0.4155	-2.079	-0.9166	0.2047	-1.4076	-0.7486	0.2056	-0.8584	-3.6751	-2.9949	-2.6275	-2.0341	-1.732	-2.103	-1.5013	-1.1694	-0.6961	0.0977	0.5418	-0.5669	-0.4146	-2.2295	-3.5668	-1.9103
308.5938	-3.6537	-3.4441	-4.1735	-2.2429	-1.0605	-1.2633	-0.4758	-2.0178	-1.0242	0.1022	-1.5005	-0.8734	0.1096	-1.1331	-3.7763	-3.3951	-2.8234	-1.9689	-1.9615	-2.5891	-1.8982	-1.2184	-0.6335	0.0355	0.444	-0.6424	-0.5223	-2.3432	-3.4607	-1.7637
312.5	-3.7777	-3.6505	-4.1505	-2.4655	-1.1794	-1.2765	-0.5777	-1.9743	-1.1437	-0.0357	-1.6246	-0.9979	-0.0258	-1.3971	-3.8377	-3.7826	-3.003	-1.8763	-2.1671	-3.0772	-2.2814	-1.2398	-0.5448	-0.0349	0.3757	-0.7175	-0.632	-2.4403	-3.3176	-1.5979
316.4062	-3.8731	-3.8031	-4.0783	-2.6593	-1.3052	-1.2839	-0.7099	-1.9452	-1.2607	-0.1902	-1.7637	-1.1085	-0.1883	-1.6281	-3.849	-4.1254	-3.1519	-1.7675	-2.3375	-3.5312	-2.6216	-1.2386	-0.4454	-0.1035	0.3391	-0.7862	-0.7325	-2.5128	-3.1465	-1.4322
320.3125	-3.9235	-3.8924	-3.9632	-2.8113	-1.4305	-1.2841	-0.8593	-1.9267	-1.3636	-0.3421	-1.9004	-1.193	-0.3633	-1.8095	-3.8042	-4.4009	-3.2603	-1.6568	-2.4682	-3.9234	-2.8967	-1.2259	-0.3577	-0.1655	0.3263	-0.8457	-0.817	-2.5555	-2.9571	-1.2828
324.2188	-3.9167	-3.9194	-3.815	-2.9149	-1.5497	-1.2774	-1.012	-1.916	-1.4452	-0.4746	-2.0184	-1.2426	-0.5365	-1.9318	-3.7028	-4.5977	-3.3241	-1.5579	-2.5617	-4.2364	-3.0939	-1.217	-0.3072	-0.2213	0.3213	-0.8971	-0.8832	-2.5663	-2.7586	-1.1597
328.125	-3.8474	-3.8941	-3.6454	-2.9701	-1.6587	-1.2656	-1.1551	-1.9114	-1.5026	-0.5751	-2.1057	-1.2534	-0.6947	-1.993	-3.5502	-4.715	-3.3437	-1.4808	-2.6249	-4.4629	-3.2103	-1.228	-0.3168	-0.2753	0.3044	-0.9433	-0.9336	-2.5471	-2.5588	-1.0656
332.0312	-3.7185	-3.8314	-3.4655	-2.9822	-1.7545	-1.2519	-1.277	-1.9127	-1.5371	-0.6366	-2.1554	-1.2273	-0.8277	-1.9975	-3.3574	-4.7594	-3.323	-1.4293	-2.667	-4.6033	-3.2507	-1.2715	-0.4014	-0.3337	0.2566	-0.9885	-0.974	-2.5037	-2.3638	-0.996
335.9375	-3.541	-3.7464	-3.2853	-2.9595	-1.8347	-1.2399	-1.3689	-1.9205	-1.5529	-0.658	-2.167	-1.1713	-0.9289	-1.9542	-3.1398	-4.7412	-3.2674	-1.3992	-2.695	-4.6624	-3.2256	-1.3538	-0.5632	-0.4018	0.1652	-1.0361	-1.0113	-2.4452	-2.1786	-0.941
339.8438	-3.3311	-3.6506	-3.1131	-2.9106	-1.896	-1.2321	-1.4245	-1.9348	-1.5552	-0.6423	-2.1451	-1.0959	-0.9953	-1.8745	-2.9149	-4.6707	-3.1819	-1.381	-2.7121	-4.6466	-3.148	-1.4725	-0.7912	-0.4813	0.0263	-1.0869	-1.0516	-2.3829	-2.0072	-0.8895
343.75	-3.1079	-3.5488	-2.9546	-2.8418	-1.934	-1.2292	-1.4407	-1.954	-1.5476	-0.5956	-2.097	-1.0129	-1.0276	-1.7709	-2.6999	-4.5559	-3.0707	-1.362	-2.7159	-4.5617	-3.0311	-1.6171	-1.0621	-0.57	-0.1545	-1.1395	-1.0985	-2.3284	-1.8531	-0.8324
347.6562	-2.8896	-3.4397	-2.8131	-2.7558	-1.9433	-1.2289	-1.4169	-1.9735	-1.5309	-0.5245	-2.0306	-0.9326	-1.0291	-1.6553	-2.5083	-4.4019	-2.9372	-1.3318	-2.6997	-4.4131	-2.8866	-1.7713	-1.3454	-0.6617	-0.3633	-1.1898	-1.1525	-2.2916	-1.7182	-0.7654
351.5625	-2.6909	-3.3171	-2.6892	-2.652	-1.9189	-1.2256	-1.3552	-1.9857	-1.5019	-0.4342	-1.9513	-0.8615	-1.0054	-1.5391	-2.3487	-4.2126	-2.7849	-1.2852	-2.6557	-4.2069	-2.7247	-1.9164	-1.6099	-0.7486	-0.582	-1.2326	-1.2108	-2.279	-1.6037	-0.6908
355.4688	-2.5212	-3.1744	-2.5825	-2.5281	-1.8582	-1.2121	-1.2602	-1.9805	-1.4541	-0.3276	-1.8612	-0.8015	-0.9632	-1.4332	-2.2241	-3.9928	-2.6188	-1.2253	-2.5785	-3.9521	-2.5553	-2.0361	-1.8301	-0.8236	-0.7921	-1.2628	-1.2687	-2.2928	-1.5092	-0.6163
359.375	-2.3842	-3.0078	-2.4914	-2.3826	-1.7634	-1.1816	-1.1387	-1.9475	-1.3799	-0.2059	-1.7591	-0.75	-0.9104	-1.3478	-2.1325	-3.7512	-2.4467	-1.1624	-2.4684	-3.6626	-2.3885	-2.1196	-1.991	-0.8825	-0.9791	-1.2765	-1.3207	-2.3298	-1.4333	-0.5527
363.2812	-2.2783	-2.8198	-2.415	-2.218	-1.6432	-1.13	-1.0005	-1.8786	-1.273	-0.0698	-1.6416	-0.7016	-0.8554	-1.2925	-2.0691	-3.5007	-2.2793	-1.1115	-2.3332	-3.3573	-2.2355	-2.164	-2.0897	-0.9255	-1.1343	-1.2725	-1.3622	-2.383	-1.374	-0.5104
367.1875	-2.1981	-2.621	-2.3524	-2.0424	-1.5128	-1.0584	-0.8586	-1.7709	-1.1318	0.0785	-1.5057	-0.6502	-0.8071	-1.2755	-2.0273	-3.2584	-2.1291	-1.0872	-2.1874	-3.0588	-2.1082	-2.1743	-2.1346	-0.9568	-1.2558	-1.2515	-1.3908	-2.443	-1.329	-0.4967
371.0938	-2.1369	-2.429	-2.3031	-1.87	-1.3928	-0.9745	-0.7282	-1.6289	-0.9613	0.2332	-1.3518	-0.5912	-0.7743	-1.3025	-2.0011	-3.0425	-2.0087	-1.0995	-2.0491	-2.7912	-2.0182	-2.1615	-2.1408	-0.9839	-1.3468	-1.2171	-1.4068	-2.5001	-1.2955	-0.5141
375	-2.0887	-2.2655	-2.2675	-1.7196	-1.3053	-0.8915	-0.6264	-1.4653	-0.7745	0.3838	-1.185	-0.5237	-0.7655	-1.3761	-1.9856	-2.8695	-1.9279	-1.1501	-1.9363	-2.5756	-1.9749	-2.1394	-2.1251	-1.0147	-1.4139	-1.1739	-1.4132	-2.5468	-1.2702	-0.56
378.9062	-2.0498	-2.1515	-2.2464	-1.6106	-1.2698	-0.8264	-0.5689	-1.3003	-0.5911	0.5162	-1.0162	-0.4508	-0.7873	-1.4942	-1.9777	-2.7507	-1.8915	-1.2314	-1.8625	-2.4268	-1.983	-2.1209	-2.101	-1.0558	-1.4637	-1.1277	-1.4151	-2.5792	-1.2493	-0.6275
382.8125	-2.0182	-2.102	-2.2409	-1.5593	-1.2979	-0.7964	-0.5676	-1.1579	-0.435	0.6144	-0.8616	-0.3798	-0.8435	-1.6494	-1.9757	-2.6899	-1.8969	-1.3275	-1.8336	-2.3495	-2.0401	-2.1141	-2.0754	-1.11	-1.5004	-1.0835	-1.418	-2.5978	-1.229	-0.7069
386.7188	-1.9929	-2.1227	-2.2517	-1.574	-1.39	-0.8149	-0.6277	-1.0619	-0.3296	0.6636	-0.7398	-0.3213	-0.9331	-1.8281	-1.9784	-2.6821	-1.9344	-1.4181	-1.8456	-2.337	-2.1354	-2.1202	-2.0472	-1.1752	-1.525	-1.0454	-1.4267	-2.6072	-1.2062	-0.7868
390.625	-1.972	-2.2076	-2.2781	-1.6527	-1.5345	-0.8879	-0.7451	-1.0304	-0.2931	0.6537	-0.6692	-0.2868	-1.0501	-2.011	-1.9835	-2.7137	-1.9879	-1.4833	-1.8852	-2.3712	-2.2496	-2.1321	-2.0079	-1.2444	-1.5346	-1.0152	-1.4442	-2.6147	-1.1791	-0.856
394.5312	-1.9516	-2.3401	-2.3172	-1.782	-1.7092	-1.0118	-0.9073	-1.072	-0.3343	0.5817	-0.6638	-0.2867	-1.1825	-2.175	-1.9869	-2.7646	-2.0377	-1.5074	-1.9322	-2.4255	-2.3569	-2.1365	-1.9455	-1.3065	-1.5236	-0.9928	-1.4704	-2.6283	-1.1482	-0.9041
398.4375	-1.9261	-2.4948	-2.3634	-1.9389	-1.8861	-1.1732	-1.0947	-1.1841	-0.4507	0.4529	-0.7304	-0.3277	-1.3141	-2.2956	-1.9819	-2.8114	-2.0644	-1.4825	-1.9633	-2.4694	-2.4292	-2.1164	-1.8478	-1.3489	-1.486	-0.9749	-1.5022	-2.6546	-1.1153	-0.9221
402.3438	-1.8896	-2.6428	-2.4089	-2.0948	-2.0369	-1.3508	-1.284	-1.3523	-0.6283	0.2809	-0.8659	-0.4109	-1.4258	-2.3512	-1.9591	-2.8308	-2.0525	-1.4086	-1.9568	-2.4739	-2.4408	-2.0551	-1.7067	-1.3597	-1.4169	-0.9562	-1.5332	-2.6963	-1.0829	-0.9033
406.25	-1.8378	-2.7562	-2.4454	-2.2208	-2.1388	-1.5198	-1.4527	-1.5538	-0.844	0.085	-1.0571	-0.5306	-1.4992	-2.3267	-1.9089	-2.8045	-1.9935	-1.292	-1.8975	-2.4171	-2.3737	-1.9411	-1.5214	-1.3304	-1.3149	-0.9291	-1.5551	-2.7511	-1.0529	-0.8436
410.1562	-1.7696	-2.8139	-2.4654	-2.2935	-2.1778	-1.6562	-1.5824	-1.7609	-1.0693	-0.1121	-1.2816	-0.6745	-1.5191	-2.2167	-1.8233	-2.7226	-1.8873	-1.1433	-1.7794	-2.2881	-2.2208	-1.7707	-1.2997	-1.2573	-1.1827	-0.8856	-1.5584	-2.8111	-1.0251	-0.7426
414.0625	-1.6876	-2.805	-2.4636	-2.2989	-2.1507	-1.7415	-1.6616	-1.9459	-1.2756	-0.2879	-1.5114	-0.8247	-1.4765	-2.0272	-1.699	-2.5855	-1.7414	-0.9739	-1.6068	-2.0894	-1.9875	-1.5494	-1.0574	-1.1422	-1.0277	-0.8185	-1.5343	-2.8642	-0.9973	-0.6044
417.9688	-1.5971	-2.731	-2.4373	-2.2344	-2.0634	-1.7652	-1.6864	-2.0861	-1.4386	-0.4235	-1.7172	-0.9603	-1.37	-1.7744	-1.5392	-2.4042	-1.5683	-0.7943	-1.3926	-1.8349	-1.6904	-1.2917	-0.815	-0.9918	-0.8611	-0.7233	-1.4762	-2.8955	-0.9654	-0.4383
421.875	-1.504	-2.6038	-2.386	-2.1079	-1.9276	-1.7261	-1.659	-2.1665	-1.5414	-0.5055	-1.8729	-1.0597	-1.2054	-1.4817	-1.3532	-2.1969	-1.381	-0.6127	-1.1544	-1.5468	-1.3537	-1.0174	-0.5933	-0.8161	-0.6961	-0.5986	-1.3804	-2.8904	-0.9245	-0.2578
425.7812	-1.4134	-2.4414	-2.3114	-1.934	-1.757	-1.6302	-1.5858	-2.1819	-1.5759	-0.5267	-1.9598	-1.1035	-0.9945	-1.1753	-1.155	-1.9841	-1.1894	-0.4351	-0.9101	-1.2499	-1.0047	-0.7475	-0.4086	-0.6259	-0.5453	-0.4464	-1.2471	-2.8362	-0.8708	-0.0793
429.6875	-1.3277	-2.2633	-2.2163	-1.7302	-1.5638	-1.4895	-1.4751	-2.1363	-1.5421	-0.4863	-1.9681	-1.0774	-0.7525	-0.8796	-0.9597	-1.7835	-0.9976	-0.2656	-0.6733	-0.9661	-0.6683	-0.4998	-0.269	-0.4312	-0.418	-0.2713	-1.08	-2.7246	-0.8027	0.0814
433.5938	-1.2467	-2.0842	-2.1048	-1.5126	-1.3565	-1.3183	-1.3344	-2.0398	-1.4451	-0.3883	-1.8974	-0.9742	-0.4956	-0.6138	-0.7806	-1.6061	-0.804	-0.1079	-0.4508	-0.7105	-0.3635	-0.285	-0.1724	-0.2392	-0.3184	-0.0796	-0.886	-2.5528	-0.7216	0.2118
437.5	-1.1673	-1.9115	-1.9814	-1.2929	-1.14	-1.1307	-1.1695	-1.9055	-1.2926	-0.2398	-1.7554	-0.7953	-0.2388	-0.3889	-0.6273	-1.4535	-0.6036	0.0346	-0.2431	-0.489	-0.1017	-0.1053	-0.1085	-0.054	-0.2453	0.1216	-0.6739	-2.3245	-0.6328	0.3048
441.4062	-1.085	-1.7437	-1.851	-1.0771	-0.9164	-0.9384	-0.9842	-1.745	-1.0919	-0.0493	-1.5552	-0.5511	0.0061	-0.2077	-0.5049	-1.3189	-0.3912	0.1582	-0.0457	-0.2988	0.1139	0.0445	-0.0613	0.1232	-0.1926	0.3244	-0.4535	-2.0495	-0.5444	0.3592
445.3125	-0.9952	-1.5729	-1.7175	-0.8657	-0.6865	-0.7484	-0.7798	-1.5656	-0.849	0.1745	-1.3127	-0.2597	0.2319	-0.0655	-0.4139	-1.1895	-0.1653	0.2594	0.1473	-0.1315	0.2867	0.175	-0.0146	0.2927	-0.1522	0.5201	-0.2346	-1.7438	-0.466	0.3792
449.2188	-0.8942	-1.388	-1.5834	-0.655	-0.4511	-0.563	-0.557	-1.3693	-0.5692	0.4237	-1.0445	0.0557	0.4358	0.0476	-0.3514	-1.051	0.0702	0.3354	0.34	0.0239	0.4238	0.2985	0.0444	0.4549	-0.1159	0.6993	-0.0259	-1.4274	-0.4065	0.3718
453.125	-0.7806	-1.1792	-1.4496	-0.4398	-0.2125	-0.3809	-0.3167	-1.1537	-0.2591	0.6907	-0.7667	0.37	0.6193	0.1436	-0.3123	-0.8914	0.3055	0.3845	0.5326	0.1766	0.5344	0.425	0.1212	0.6087	-0.078	0.8523	0.1653	-1.123	-0.3718	0.3451
457.0312	-0.6561	-0.9424	-1.3165	-0.2162	0.025	-0.1989	-0.0618	-0.916	0.0709	0.967	-0.4943	0.6598	0.786	0.2332	-0.2908	-0.705	0.5267	0.4073	0.7202	0.3316	0.6264	0.5595	0.2132	0.7505	-0.0365	0.9693	0.333	-0.8529	-0.3641	0.3059
460.9375	-0.5253	-0.6816	-1.1849	0.0155	0.254	-0.0158	0.2002	-0.6567	0.4041	1.2418	-0.2416	0.9055	0.939	0.3221	-0.2816	-0.4945	0.7176	0.4054	0.8926	0.4873	0.7051	0.6999	0.3102	0.8743	0.0064	1.0417	0.4716	-0.637	-0.3811	0.2584
464.8438	-0.3959	-0.4099	-1.0577	0.2482	0.4631	0.1654	0.456	-0.3836	0.7178	1.5007	-0.0227	1.0932	1.0772	0.4096	-0.2807	-0.2713	0.8627	0.3812	1.0357	0.6352	0.7706	0.8367	0.3965	0.9716	0.0453	1.0625	0.5756	-0.4911	-0.4175	0.2039
468.75	-0.2774	-0.1481	-0.9405	0.4677	0.6373	0.3352	0.6859	-0.1133	0.9845	1.7253	0.1486	1.2143	1.1936	0.4865	-0.2857	-0.0541	0.9487	0.3372	1.1332	0.7613	0.8175	0.9542	0.455	1.0323	0.0722	1.027	0.6381	-0.4251	-0.4666	0.1411
472.6562	-0.1793	0.0792	-0.841	0.6537	0.7586	0.4783	0.8655	0.1296	1.1761	1.8945	0.2595	1.2651	1.2744	0.5371	-0.2963	0.1345	0.9673	0.2751	1.1699	0.8479	0.8346	1.0336	0.4711	1.0462	0.079	0.9336	0.6524	-0.4422	-0.5215	0.0675
476.5625	-0.1082	0.2486	-0.7672	0.7838	0.8084	0.5761	0.9697	0.3178	1.2684	1.9876	0.3001	1.2465	1.3017	0.5422	-0.3131	0.2728	0.9163	0.1958	1.1347	0.8776	0.8076	1.0568	0.4362	1.0055	0.0589	0.784	0.6124	-0.539	-0.5764	-0.0184
480.4688	-0.0659	0.3433	-0.7259	0.8378	0.7716	0.6105	0.9779	0.4262	1.247	1.9887	0.2652	1.1637	1.2582	0.4845	-0.3373	0.3445	0.801	0.1003	1.0237	0.837	0.7229	1.0107	0.3497	0.9067	0.0088	0.5844	0.5156	-0.7051	-0.6259	-0.1156
484.375	-0.0482	0.357	-0.7202	0.8034	0.6406	0.569	0.8798	0.439	1.1102	1.891	0.1566	1.0262	1.1327	0.3536	-0.369	0.3426	0.6335	-0.0094	0.8421	0.7201	0.5715	0.8902	0.2194	0.7527	-0.0699	0.345	0.3649	-0.9241	-0.6656	-0.2195
488.2812	-0.0466	0.2952	-0.7488	0.6794	0.4188	0.4483	0.6798	0.3532	0.8712	1.6996	-0.0162	0.8477	0.9248	0.1508	-0.4067	0.2711	0.4319	-0.1297	0.6043	0.531	0.354	0.7003	0.0597	0.554	-0.171	0.0802	0.1698	-1.1754	-0.6914	-0.3217
492.1875	-0.0511	0.1746	-0.8064	0.4773	0.1218	0.2568	0.3973	0.1804	0.5553	1.4322	-0.2377	0.6444	0.6477	-0.1095	-0.4457	0.144	0.2172	-0.2543	0.3325	0.284	0.0821	0.4551	-0.1117	0.3276	-0.2844	-0.1937	-0.0539	-1.4369	-0.7008	-0.412
496.0938	-0.0531	0.0189	-0.8845	0.22	-0.2235	0.0131	0.0647	-0.0564	0.1955	1.1162	-0.4888	0.4335	0.3266	-0.4015	-0.479	-0.018	0.0096	-0.3745	0.0525	0.0013	-0.2222	0.1762	-0.2769	0.0943	-0.3986	-0.4594	-0.2863	-1.687	-0.6932	-0.4803
500	-0.0486	-0.1462	-0.9737	-0.0633	-0.584	-0.2566	-0.2792	-0.3279	-0.1737	0.7846	-0.7502	0.231	-0.0057	-0.6928	-0.4986	-0.1934	-0.1747	-0.4803	-0.2108	-0.2914	-0.5305	-0.1121	-0.4214	-0.125	-0.5029	-0.7014	-0.5069	-1.9084	-0.6704	-0.5197
503.9062	-0.0384	-0.2989	-1.0649	-0.3423	-0.9259	-0.5241	-0.5959	-0.6039	-0.5219	0.4704	-1.0054	0.05	-0.3143	-0.9509	-0.4981	-0.3641	-0.3263	-0.5618	-0.4378	-0.5691	-0.8138	-0.386	-0.5365	-0.3129	-0.5893	-0.9074	-0.6978	-2.0887	-0.6362	-0.5284
507.8125	-0.0274	-0.4252	-1.1509	-0.5912	-1.2207	-0.7643	-0.8542	-0.8589	-0.8264	0.2014	-1.242	-0.1002	-0.5689	-1.1492	-0.4741	-0.5191	-0.443	-0.6116	-0.617	-0.8124	-1.0479	-0.6257	-0.6197	-0.458	-0.6542	-1.0688	-0.8461	-2.2219	-0.5954	-0.5092
511.7188	-0.0221	-0.5196	-1.2267	-0.7927	-1.4487	-0.959	-1.0345	-1.0745	-1.0736	-0.0023	-1.4516	-0.2136	-0.7476	-1.2713	-0.4279	-0.6547	-0.5288	-0.6257	-0.745	-1.0094	-1.2175	-0.8168	-0.674	-0.5555	-0.6976	-1.181	-0.945	-2.3068	-0.5529	-0.4684
515.625	-0.0283	-0.5851	-1.2899	-0.9387	-1.6008	-1.0985	-1.1299	-1.2396	-1.2577	-0.13	-1.6279	-0.2869	-0.8396	-1.3123	-0.3649	-0.7731	-0.5907	-0.6043	-0.8243	-1.1564	-1.3177	-0.9501	-0.705	-0.6057	-0.7222	-1.243	-0.9933	-2.3456	-0.5123	-0.4138
519.5312	-0.0481	-0.629	-1.3386	-1.0288	-1.6768	-1.1805	-1.1445	-1.3488	-1.3783	-0.1796	-1.7649	-0.318	-0.8445	-1.2774	-0.2933	-0.8783	-0.6352	-0.5514	-0.86	-1.2554	-1.3534	-1.0205	-0.7177	-0.6122	-0.7308	-1.2558	-0.9931	-2.342	-0.4752	-0.3519
523.4375	-0.0784	-0.6593	-1.3698	-1.0672	-1.6828	-1.2073	-1.0898	-1.4004	-1.4376	-0.1555	-1.8557	-0.3054	-0.7707	-1.1792	-0.2216	-0.9724	-0.665	-0.4732	-0.8567	-1.312	-1.3358	-1.0255	-0.7136	-0.5789	-0.7252	-1.2222	-0.9486	-2.2999	-0.4403	-0.287
527.3438	-0.1099	-0.6803	-1.3776	-1.0591	-1.6271	-1.1825	-0.9801	-1.3939	-1.4384	-0.0667	-1.8924	-0.2485	-0.6321	-1.0332	-0.1561	-1.0531	-0.6767	-0.3766	-0.8157	-1.332	-1.2783	-0.9643	-0.6887	-0.5086	-0.7048	-1.1458	-0.8646	-2.223	-0.4033	-0.2205
531.25	-0.1287	-0.6903	-1.3528	-1.0072	-1.5169	-1.1084	-0.829	-1.3293	-1.3832	0.0757	-1.8682	-0.1485	-0.4447	-0.8548	-0.099	-1.1124	-0.6609	-0.268	-0.7342	-1.3184	-1.192	-0.8373	-0.6343	-0.4027	-0.6671	-1.0319	-0.7458	-2.116	-0.3573	-0.1519
535.1562	-0.1182	-0.6816	-1.2845	-0.9108	-1.3574	-0.9854	-0.6474	-1.2078	-1.2754	0.2595	-1.7795	-0.0104	-0.2247	-0.6568	-0.0484	-1.1379	-0.6051	-0.1529	-0.6069	-1.2711	-1.0837	-0.6471	-0.5393	-0.262	-0.6091	-0.887	-0.5982	-1.9858	-0.2951	-0.0807
539.0625	-0.0644	-0.6428	-1.1642	-0.7674	-1.1521	-0.8135	-0.4433	-1.0328	-1.1195	0.4721	-1.6284	0.157	0.0131	-0.4492	0.0005	-1.1161	-0.4975	-0.0361	-0.429	-1.1878	-0.955	-0.3995	-0.3949	-0.0883	-0.5294	-0.7205	-0.4294	-1.8423	-0.2114	-0.0079
542.9688	0.0388	-0.5638	-0.9896	-0.5757	-0.9053	-0.5953	-0.2233	-0.8114	-0.9227	0.7011	-1.4237	0.3412	0.2557	-0.2395	0.0529	-1.0376	-0.333	0.0777	-0.1996	-1.0657	-0.8046	-0.1051	-0.1976	0.1137	-0.4301	-0.5433	-0.2492	-1.6975	-0.1061	0.062
546.875	0.1851	-0.4414	-0.769	-0.3397	-0.6246	-0.3392	0.0065	-0.5557	-0.6944	0.9336	-1.1803	0.5281	0.4917	-0.0338	0.1113	-0.9009	-0.1164	0.1839	0.0754	-0.9052	-0.6306	0.2206	0.048	0.3359	-0.3173	-0.3675	-0.069	-1.564	0.0133	0.1209
550.7812	0.3555	-0.2824	-0.5215	-0.0711	-0.3229	-0.0605	0.2385	-0.2817	-0.4467	1.1578	-0.9167	0.7049	0.7112	0.1626	0.1745	-0.7148	0.1362	0.2779	0.3821	-0.7113	-0.4339	0.558	0.3298	0.567	-0.2009	-0.2045	0.0997	-1.4522	0.1318	0.1578
554.6875	0.521	-0.1033	-0.2749	0.2111	-0.0176	0.219	0.4639	-0.0083	-0.1927	1.3628	-0.6523	0.8622	0.9062	0.3447	0.2373	-0.4976	0.3996	0.356	0.7003	-0.4943	-0.2192	0.8856	0.6302	0.7942	-0.0923	-0.0638	0.2469	-1.3678	0.2302	0.1614
558.5938	0.6505	0.073	-0.0589	0.483	0.2715	0.4754	0.6731	0.2453	0.0535	1.5398	-0.4043	0.995	1.0707	0.5086	0.2927	-0.2734	0.6454	0.4167	1.007	-0.2679	0.0048	1.1827	0.9292	1.0043	-0.0024	0.0477	0.3653	-1.3117	0.2902	0.1234
562.5	0.7179	0.2239	0.1022	0.7209	0.5256	0.6863	0.8565	0.4612	0.2782	1.6826	-0.1864	1.1025	1.2014	0.6514	0.3348	-0.0667	0.8475	0.4608	1.2802	-0.0475	0.2268	1.4316	1.208	1.1856	0.0601	0.1257	0.4512	-1.2803	0.2997	0.0418
566.4062	0.7104	0.3326	0.1958	0.9066	0.7307	0.8358	1.0058	0.6245	0.4684	1.7871	-0.0078	1.1861	1.298	0.7719	0.3609	0.1028	0.9876	0.4922	1.5031	0.1537	0.4352	1.6197	1.4506	1.329	0.0904	0.1675	0.5035	-1.2678	0.2576	-0.0768
570.3125	0.6326	0.3936	0.2244	1.0315	0.8803	0.9175	1.1152	0.7244	0.6136	1.8521	0.1259	1.2477	1.3629	0.8704	0.3731	0.2246	1.059	0.5174	1.6658	0.3267	0.6202	1.7401	1.6453	1.4287	0.0878	0.1723	0.524	-1.2684	0.1751	-0.2174
574.2188	0.507	0.4145	0.2046	1.0986	0.9763	0.9356	1.1824	0.7552	0.7068	1.8792	0.2126	1.2886	1.4014	0.9487	0.3776	0.2988	1.0676	0.5448	1.7667	0.4683	0.7762	1.7924	1.7857	1.4834	0.0557	0.1409	0.5163	-1.2773	0.0738	-0.358
578.125	0.3695	0.4144	0.1621	1.1222	1.0283	0.9043	1.2095	0.7172	0.7464	1.8733	0.2533	1.3095	1.4211	1.0102	0.3841	0.3357	1.0301	0.5834	1.812	0.5812	0.9022	1.7821	1.8713	1.497	0.0013	0.0769	0.4866	-1.2906	-0.0186	-0.4737
582.0312	0.2612	0.4199	0.1263	1.1246	1.0515	0.8449	1.2033	0.6168	0.7362	1.8424	0.2509	1.3105	1.4312	1.0599	0.4034	0.3537	0.9707	0.6415	1.8144	0.673	1.0022	1.7205	1.9076	1.4789	-0.0656	-0.0124	0.4431	-1.3051	-0.0744	-0.5415
585.9375	0.2188	0.4584	0.1228	1.1318	1.0634	0.7823	1.1741	0.4665	0.6846	1.7967	0.2105	1.2924	1.4409	1.1044	0.4466	0.3754	0.9171	0.7258	1.7911	0.7547	1.0848	1.6242	1.9067	1.4429	-0.1334	-0.1156	0.3961	-1.3171	-0.0716	-0.5441
589.8438	0.2666	0.5523	0.1694	1.1676	1.0808	0.7405	1.1351	0.2836	0.6029	1.7471	0.1382	1.2569	1.4589	1.1519	0.5236	0.4232	0.8947	0.8401	1.7614	0.8382	1.1614	1.5139	1.8856	1.4056	-0.1898	-0.2174	0.357	-1.3223	0.0025	-0.4737
593.75	0.4122	0.7127	0.2731	1.2489	1.1165	0.7387	1.0994	0.0881	0.5033	1.7031	0.041	1.2069	1.4908	1.2111	0.6415	0.5149	0.9235	0.9857	1.7452	0.9345	1.2444	1.413	1.8644	1.3837	-0.2231	-0.3002	0.3376	-1.3157	0.1491	-0.3324
597.6562	0.6462	0.9368	0.4291	1.3821	1.1768	0.788	1.0781	-0.1	0.3967	1.671	-0.0735	1.1462	1.5387	1.2893	0.8034	0.6598	1.0143	1.1614	1.7602	1.0511	1.3442	1.3447	1.8632	1.3908	-0.2232	-0.3465	0.3476	-1.2927	0.3582	-0.132
601.5625	0.9449	1.2083	0.6231	1.5615	1.2604	0.8899	1.0781	-0.2627	0.2926	1.653	-0.1972	1.0792	1.5999	1.3898	1.0076	0.8572	1.1685	1.3638	1.8205	1.1906	1.4662	1.3289	1.8984	1.4348	-0.1835	-0.3416	0.3929	-1.2496	0.6114	0.1095
605.4688	1.2765	1.5008	0.8343	1.7708	1.3592	1.0367	1.1007	-0.3861	0.1988	1.6469	-0.3215	1.0105	1.6677	1.5101	1.2469	1.0965	1.3793	1.5878	1.9348	1.3497	1.6091	1.3796	1.9809	1.5154	-0.1013	-0.2767	0.474	-1.1849	0.8847	0.3708
609.375	1.607	1.7839	1.0391	1.9871	1.4604	1.2135	1.1425	-0.4606	0.1224	1.6484	-0.4365	0.9446	1.7328	1.642	1.5093	1.3604	1.6345	1.827	2.1061	1.521	1.7643	1.5022	2.1142	1.6251	0.0206	-0.1506	0.5857	-1.0996	1.1531	0.6312
613.2812	1.9063	2.0309	1.216	2.1858	1.5509	1.4019	1.197	-0.4813	0.0707	1.6536	-0.531	0.8864	1.7867	1.773	1.78	1.6296	1.9205	2.0738	2.3318	1.6949	1.9187	1.6929	2.2951	1.7503	0.1749	0.0298	0.7182	-0.9969	1.3939	0.8734
617.1875	2.1528	2.2238	1.3485	2.3471	1.6208	1.5831	1.2574	-0.4472	0.0514	1.6611	-0.5931	0.8411	1.8239	1.8899	2.0431	1.8872	2.2243	2.3194	2.6038	1.8631	2.0581	1.9397	2.5148	1.8751	0.3501	0.2501	0.8588	-0.8819	1.5901	1.0848
621.0938	2.3348	2.3574	1.4273	2.4595	1.666	1.7412	1.3182	-0.3615	0.0718	1.6733	-0.6117	0.8139	1.8442	1.9825	2.2845	2.1229	2.5352	2.5538	2.9096	2.0201	2.1711	2.224	2.7601	1.9846	0.5323	0.4903	0.9941	-0.7604	1.7319	1.2581
625	2.4506	2.4386	1.452	2.5216	1.6888	1.8646	1.3758	-0.232	0.1364	1.6956	-0.5797	0.8089	1.8526	2.0458	2.4941	2.3333	2.8445	2.7667	3.2333	2.1651	2.2527	2.5234	3.0144	2.0681	0.7066	0.7273	1.1123	-0.6391	1.8167	1.391
628.9062	2.506	2.4845	1.4301	2.5417	1.6963	1.947	1.4285	-0.0708	0.2454	1.7336	-0.4956	0.8278	1.8577	2.0808	2.667	2.5218	3.1441	2.9483	3.5563	2.3002	2.3042	2.8138	3.2589	2.1207	0.859	0.9373	1.204	-0.5248	1.8486	1.485
632.8125	2.5122	2.5168	1.3754	2.5342	1.6975	1.9869	1.4749	0.106	0.3927	1.7906	-0.3659	0.8694	1.8685	2.0927	2.8032	2.695	3.4252	3.0903	3.8584	2.4289	2.3321	3.0722	3.4732	2.1426	0.9774	1.0992	1.2633	-0.4247	1.8361	1.544
636.7188	2.4828	2.5572	1.3048	2.5161	1.7005	1.9873	1.5133	0.28	0.5658	1.8653	-0.2041	0.9283	1.8918	2.089	2.9061	2.8598	3.6778	3.1873	4.12	2.5536	2.3459	3.279	3.6368	2.1383	1.0524	1.1968	1.2877	-0.3459	1.7898	1.5726
640.625	2.4318	2.6218	1.235	2.5024	1.7102	1.9542	1.5413	0.4331	0.7474	1.9513	-0.0291	0.9966	1.9305	2.0765	2.9796	3.0195	3.8908	3.2376	4.3237	2.6735	2.3545	3.4194	3.731	2.1146	1.0784	1.2214	1.2787	-0.2947	1.7206	1.5752
644.5312	2.3715	2.7175	1.1793	2.5032	1.7284	1.8961	1.5568	0.5505	0.9177	2.0384	0.1388	1.0648	1.9834	2.0607	3.0266	3.1725	4.0534	3.2431	4.4565	2.7841	2.3642	3.4859	3.7421	2.0788	1.0537	1.1734	1.2413	-0.2752	1.6382	1.5546
648.4375	2.3111	2.8411	1.145	2.5225	1.7536	1.8225	1.5596	0.6232	1.0585	2.1162	0.2825	1.1248	2.0464	2.0448	3.0472	3.312	4.1573	3.2092	4.512	2.8782	2.3777	3.478	3.6642	2.0381	0.9819	1.0626	1.1842	-0.2875	1.55	1.5126
652.3438	2.2558	2.9798	1.1326	2.5575	1.7833	1.7427	1.5527	0.6497	1.1567	2.177	0.392	1.1723	2.1152	2.0312	3.0403	3.4272	4.1979	3.1438	4.4912	2.947	2.3938	3.4024	3.5017	1.9992	0.8715	0.9081	1.1191	-0.3262	1.4618	1.4495
656.25	2.2065	3.1142	1.1352	2.5999	1.8136	1.6642	1.5429	0.636	1.2067	2.2189	0.4663	1.2088	2.187	2.0221	3.0037	3.5057	4.1755	3.0554	4.4014	2.9823	2.4083	3.2715	3.2692	1.9685	0.7361	0.7358	1.0602	-0.3796	1.3773	1.3656
660.1562	2.1605	3.2216	1.1403	2.6376	1.8403	1.5914	1.5396	0.5933	1.2112	2.2461	0.5131	1.2422	2.2612	2.0191	2.936	3.5357	4.0949	2.9516	4.2552	2.9774	2.4155	3.1006	2.9889	1.9519	0.5928	0.5754	1.0225	-0.4305	1.2983	1.261
664.0625	2.112	3.2803	1.1318	2.6563	1.8576	1.5248	1.5525	0.5354	1.18	2.2674	0.5465	1.2843	2.339	2.0235	2.8371	3.5077	3.965	2.8381	4.0682	2.9277	2.4088	2.9055	2.687	1.954	0.4587	0.4552	1.0186	-0.4589	1.2244	1.1369
667.9688	2.053	3.2722	1.0927	2.6418	1.8582	1.4601	1.5878	0.4758	1.1271	2.2929	0.5819	1.3476	2.4208	2.0347	2.7076	3.4164	3.7972	2.7177	3.8567	2.8312	2.3822	2.7003	2.3878	1.9768	0.348	0.3969	1.056	-0.4463	1.1527	0.9961
671.875	1.9746	3.1859	1.0086	2.5821	1.8334	1.3898	1.6466	0.4251	1.0667	2.33	0.6311	1.4403	2.5053	2.0504	2.5498	3.2618	3.6048	2.5908	3.6359	2.6889	2.3315	2.4957	2.1103	2.0181	0.268	0.4114	1.1345	-0.3806	1.077	0.8424
675.7812	1.8685	3.0185	0.871	2.4699	1.7751	1.3047	1.7227	0.3894	1.0103	2.3807	0.6986	1.5629	2.5878	2.0665	2.3671	3.0501	3.4007	2.4564	3.419	2.5063	2.2552	2.2986	1.8645	2.0715	0.2185	0.4974	1.245	-0.259	0.9893	0.6814
679.6875	1.7288	2.7766	0.6802	2.3048	1.6778	1.1977	1.8039	0.3698	0.964	2.4403	0.7793	1.7057	2.6605	2.078	2.1656	2.7935	3.197	2.3137	3.2159	2.2936	2.155	2.113	1.6521	2.1265	0.1926	0.6422	1.371	-0.0892	0.8809	0.5192
683.5938	1.5542	2.4765	0.4463	2.0945	1.5416	1.0661	1.8742	0.3633	0.9288	2.4981	0.8594	1.8506	2.7139	2.0799	1.9542	2.5095	3.0037	2.1632	3.0337	2.066	2.0361	1.9409	1.468	2.1709	0.1795	0.8255	1.4918	0.112	0.7465	0.362
687.5	1.3494	2.1432	0.188	1.8545	1.3735	0.9145	1.9169	0.3636	0.9011	2.54	0.9193	1.9735	2.7381	2.0683	1.7446	2.2188	2.8275	2.0083	2.8759	1.842	1.906	1.7842	1.304	2.193	0.168	1.0245	1.5861	0.3219	0.5866	0.216
691.4062	1.1255	1.8066	-0.0707	1.6057	1.187	0.754	1.9176	0.3622	0.8748	2.5511	0.9381	2.0495	2.7249	2.0403	1.5502	1.9425	2.672	1.8551	2.7436	1.6408	1.7735	1.6455	1.153	2.184	0.1503	1.218	1.6372	0.516	0.4093	0.0865
695.3125	0.8985	1.4968	-0.3057	1.3708	0.9993	0.6008	1.8667	0.3494	0.8431	2.5191	0.8987	2.0576	2.6691	1.9939	1.3838	1.6988	2.5373	1.7119	2.6359	1.4783	1.6468	1.5288	1.0119	2.14	0.1227	1.3894	1.6347	0.6717	0.2292	-0.0223
699.2188	0.6863	1.2384	-0.498	1.1695	0.8285	0.4723	1.7606	0.316	0.8007	2.4366	0.792	1.9855	2.5694	1.9277	1.255	1.5006	2.4204	1.5876	2.5499	1.3641	1.5319	1.4388	0.8832	2.062	0.0866	1.5281	1.5768	0.7713	0.0639	-0.1077
703.125	0.5047	1.0455	-0.6375	1.0142	0.6884	0.3824	1.6021	0.255	0.7444	2.302	0.6193	1.8319	2.4283	1.8407	1.1673	1.353	2.3156	1.489	2.4822	1.2987	1.4309	1.3794	0.774	1.9556	0.0462	1.6282	1.4687	0.8042	-0.0711	-0.1694
707.0312	0.363	0.9192	-0.7241	0.9079	0.5856	0.3382	1.3994	0.1624	0.6731	2.1196	0.3917	1.6074	2.2519	1.7312	1.1164	1.2522	2.2154	1.4178	2.428	1.2732	1.3418	1.3524	0.6933	1.8293	0.0065	1.6869	1.3206	0.7666	-0.167	-0.2108
710.9375	0.2623	0.848	-0.7674	0.8433	0.5176	0.3371	1.1641	0.0382	0.5866	1.8981	0.1277	1.3318	2.0477	1.5978	1.0906	1.1865	2.1109	1.3687	2.3824	1.2706	1.2583	1.3555	0.6489	1.692	-0.0292	1.7035	1.1452	0.6613	-0.2246	-0.2392
714.8438	0.1959	0.8113	-0.7841	0.8056	0.474	0.3675	0.9097	-0.1139	0.4848	1.6491	-0.1509	1.0306	1.8243	1.4394	1.073	1.1378	1.9937	1.3294	2.3409	1.2703	1.1717	1.3828	0.6444	1.5522	-0.0601	1.6778	0.9547	0.4965	-0.2542	-0.2658
718.75	0.1523	0.7859	-0.7931	0.7777	0.4407	0.4119	0.6503	-0.2869	0.3676	1.3859	-0.4229	0.7309	1.5909	1.2573	1.0454	1.0871	1.8584	1.2834	2.3003	1.2534	1.0743	1.4262	0.6779	1.4169	-0.0877	1.6109	0.7604	0.2844	-0.2724	-0.3027
722.6562	0.1203	0.753	-0.8108	0.7459	0.4057	0.4529	0.401	-0.4708	0.2356	1.1236	-0.6703	0.4573	1.3584	1.0578	0.9938	1.019	1.7056	1.2152	2.261	1.2085	0.9634	1.4778	0.743	1.2932	-0.1137	1.5059	0.5725	0.0408	-0.2962	-0.3602
726.5625	0.093	0.7034	-0.8459	0.7056	0.3648	0.4792	0.1782	-0.6525	0.0927	0.8798	-0.8783	0.2293	1.1407	0.8535	0.9131	0.9277	1.5433	1.1161	2.2275	1.1363	0.8451	1.5327	0.8312	1.1891	-0.1385	1.3689	0.4015	-0.2161	-0.3374	-0.4425
730.4688	0.0695	0.641	-0.8974	0.6639	0.3249	0.4896	0.0005	-0.8165	-0.0523	0.6743	-1.0357	0.0597	0.9553	0.6646	0.81	0.8195	1.3874	0.9884	2.2089	1.0508	0.7349	1.591	0.9338	1.1139	-0.1595	1.2093	0.2588	-0.4664	-0.3985	-0.5463
734.375	0.0552	0.581	-0.9548	0.6377	0.3032	0.494	-0.1129	-0.9464	-0.186	0.528	-1.1345	-0.0453	0.8219	0.5162	0.7026	0.7124	1.2588	0.8465	2.2163	0.9766	0.6562	1.6566	1.0442	1.0775	-0.1715	1.0392	0.1557	-0.691	-0.4716	-0.6607
738.2812	0.0585	0.5446	-1.0019	0.6493	0.3224	0.5101	-0.1447	-1.0267	-0.2914	0.4595	-1.17	-0.0867	0.759	0.434	0.6159	0.6312	1.1785	0.7141	2.2596	0.9429	0.6345	1.7353	1.1575	1.0879	-0.1682	0.8726	0.1025	-0.8735	-0.5415	-0.7699
742.1875	0.0879	0.5524	-1.022	0.7186	0.4034	0.5575	-0.0838	-1.046	-0.3524	0.4814	-1.1424	-0.0715	0.7797	0.4383	0.5746	0.6004	1.1615	0.6182	2.3436	0.9752	0.691	1.831	1.2698	1.1484	-0.1444	0.7227	0.1056	-1.0029	-0.5906	-0.857
746.0938	0.1479	0.617	-1.0035	0.8563	0.5578	0.6508	0.071	-0.9991	-0.3572	0.5952	-1.0571	-0.0118	0.8869	0.5383	0.5953	0.637	1.212	0.5808	2.4646	1.0879	0.8351	1.9427	1.3767	1.2555	-0.099	0.5999	0.165	-1.0756	-0.6051	-0.9091
750	0.2366	0.7384	-0.9441	1.0591	0.7828	0.7942	0.3085	-0.8886	-0.3019	0.7901	-0.9256	0.0766	1.0712	0.7283	0.681	0.7443	1.3212	0.6128	2.61	1.2789	1.0612	2.0627	1.473	1.3976	-0.0359	0.51	0.2729	-1.0957	-0.5798	-0.9202
753.9062	0.3448	0.9039	-0.8516	1.3094	1.0604	0.98	0.6061	-0.7254	-0.1924	1.043	-0.7643	0.1772	1.3115	0.9879	0.8196	0.911	1.4678	0.7101	2.7593	1.5295	1.3482	2.1775	1.552	1.5567	0.0359	0.4531	0.4145	-1.0741	-0.5195	-0.893
757.8125	0.457	1.0911	-0.7421	1.5784	1.3604	1.1898	0.9326	-0.5265	-0.0437	1.3226	-0.5924	0.2745	1.5785	1.285	0.9872	1.1128	1.6233	0.8543	2.8892	1.808	1.6634	2.2711	1.6073	1.7123	0.1046	0.4254	0.5702	-1.0256	-0.4383	-0.8377
761.7188	0.5545	1.2727	-0.6355	1.8327	1.6478	1.3991	1.2537	-0.3126	0.1229	1.5953	-0.4293	0.3573	1.8412	1.5826	1.154	1.3184	1.7582	1.0176	2.9774	2.0766	1.9695	2.329	1.6345	1.8458	0.159	0.4198	0.7201	-0.9658	-0.3543	-0.7693
765.625	0.6204	1.4226	-0.5512	2.0407	1.8897	1.5838	1.5387	-0.1049	0.2839	1.8319	-0.2911	0.4198	2.0728	1.8454	1.2918	1.4959	1.8487	1.1701	3.0085	2.2997	2.2321	2.3423	1.6331	1.9448	0.1921	0.4289	0.8483	-0.9078	-0.2858	-0.7038
769.5312	0.6442	1.5205	-0.5042	2.1783	2.0619	1.7245	1.7645	0.078	0.4186	2.0122	-0.1885	0.4621	2.256	2.0465	1.3795	1.619	1.8811	1.2863	2.9759	2.4497	2.4252	2.311	1.6074	2.0063	0.2035	0.4462	0.946	-0.86	-0.2458	-0.6551
773.4375	0.6244	1.5547	-0.5029	2.2326	2.1525	1.8105	1.9191	0.2226	0.5123	2.1281	-0.1257	0.4897	2.385	2.1708	1.4056	1.6707	1.8542	1.3506	2.8828	2.5111	2.5356	2.244	1.5663	2.0365	0.2004	0.467	1.0128	-0.8258	-0.2412	-0.6338
777.3438	0.5683	1.5223	-0.5493	2.202	2.1624	1.8397	2.0016	0.3216	0.5582	2.1824	-0.1005	0.5111	2.4648	2.2162	1.3688	1.6448	1.7775	1.3587	2.7405	2.4811	2.5623	2.1567	1.522	2.0482	0.1953	0.489	1.0557	-0.8034	-0.2724	-0.6464
781.25	0.4895	1.4284	-0.6402	2.095	2.1027	1.8184	2.0208	0.3741	0.5572	2.1867	-0.1061	0.5354	2.5078	2.1916	1.2753	1.5454	1.6674	1.3162	2.5648	2.3679	2.5147	2.0672	1.4866	2.0575	0.2028	0.5113	1.0859	-0.7882	-0.3356	-0.6952
785.1562	0.4032	1.284	-0.7686	1.9272	1.9907	1.7576	1.9917	0.3851	0.5164	2.1569	-0.1333	0.57	2.5299	2.1136	1.1368	1.3839	1.5421	1.2353	2.3722	2.1877	2.4094	1.9911	1.4692	2.0785	0.2349	0.5341	1.1155	-0.7744	-0.4246	-0.7789
789.0625	0.3218	1.1034	-0.9249	1.7178	1.8463	1.6713	1.9325	0.3644	0.4467	2.1095	-0.1725	0.6188	2.5461	2.0018	0.9676	1.177	1.4167	1.131	2.1763	1.9609	2.2665	1.938	1.4738	2.1204	0.2977	0.5581	1.154	-0.7572	-0.5319	-0.8924
792.9688	0.2519	0.9027	-1.0981	1.4869	1.6885	1.5732	1.8607	0.3246	0.3606	2.0587	-0.2152	0.6819	2.5673	1.8756	0.7827	0.9439	1.3008	1.0171	1.9857	1.7095	2.106	1.9091	1.4985	2.1849	0.3893	0.5836	1.206	-0.734	-0.6494	-1.0267
796.875	0.1935	0.6977	-1.276	1.2532	1.533	1.4752	1.7914	0.2795	0.2703	2.0148	-0.2549	0.7556	2.5998	1.7511	0.5961	0.7039	1.1973	0.9044	1.8042	1.4543	1.9457	1.8982	1.5364	2.2674	0.5	0.6103	1.2706	-0.7047	-0.7687	-1.1698
