FP1,F3,F7,FC3,C3,C5,P3,P7,PO7,PO3,O1,Oz,Pz,CPz,FP2,Fz,F4,F8,FC4,FCz,Cz,C4,C6,P4,P8,PO8,PO4,O2,(corr) HEOG,(corr) VEOG
-1.4058,1.4057,0.406,0.873,0.8642,0.5614,0.2129,0.2259,0.0204,0.0497,-0.0172,0.07,0.2595,0.53,0.4755,0.6823,0.8421,-0.3725,0.2286,1.0198,0.7243,0.4046,-0.1328,0.11,-0.0799,0.0862,0.9195,0.1408,0.2528,-0.9553
-0.8636,1.092,0.3758,0.7186,0.7373,0.3397,0.2958,0.1473,-0.0344,0.019,0.047,0.182,0.2875,0.491,0.2447,0.4908,0.5059,-0.2752,0.0152,0.8695,0.6453,0.3508,-0.1325,0.1769,-0.0268,0.1407,0.9113,0.2757,0.4429,-0.7654
-0.3775,0.803,0.3387,0.5774,0.6195,0.1426,0.3784,0.0752,-0.0821,-0.0014,0.1058,0.2889,0.3223,0.4612,0.06,0.3223,0.2074,-0.1853,-0.1667,0.7316,0.578,0.3109,-0.1122,0.2523,0.0345,0.203,0.913,0.4075,0.6069,-0.6083
0.0134,0.5559,0.2851,0.4568,0.5158,-0.0134,0.4556,0.015,-0.1172,-0.0089,0.1522,0.3822,0.3664,0.4437,-0.0558,0.1916,-0.0234,-0.1171,-0.2942,0.6133,0.5281,0.2922,-0.0615,0.3376,0.1072,0.2751,0.9286,0.53,0.7265,-0.5021
0.2822,0.3595,0.2074,0.3605,0.4277,-0.1197,0.5225,-0.0288,-0.1355,-0.0033,0.1824,0.4547,0.4179,0.4378,-0.0949,0.1041,-0.1724,-0.0815,-0.3591,0.5167,0.496,0.295,0.0185,0.4287,0.1893,0.3533,0.9542,0.6361,0.7908,-0.4553
0.4166,0.2142,0.1023,0.2882,0.3544,-0.1757,0.5755,-0.0521,-0.134,0.014,0.1969,0.5016,0.4713,0.4395,-0.0658,0.0554,-0.2422,-0.0832,-0.3684,0.4399,0.4778,0.3129,0.1151,0.5167,0.2736,0.4291,0.9786,0.7196,0.7967,-0.4644
0.4192,0.1149,-0.027,0.2379,0.2942,-0.1868,0.6138,-0.052,-0.1112,0.0418,0.2004,0.5217,0.5196,0.4435,0.0082,0.0349,-0.2477,-0.1193,-0.3392,0.3785,0.467,0.3351,0.2086,0.59,0.3502,0.4914,0.988,0.7758,0.7493,-0.5137
0.3078,0.0549,-0.1697,0.2078,0.2469,-0.1611,0.6397,-0.0278,-0.0663,0.0795,0.2003,0.518,0.557,0.4452,0.0949,0.0307,-0.208,-0.1791,-0.2916,0.329,0.4577,0.3512,0.2791,0.6386,0.4099,0.5306,0.9711,0.803,0.6601,-0.5772
0.1138,0.0282,-0.3092,0.1972,0.2139,-0.1069,0.6583,0.019,-0.0002,0.1278,0.2045,0.4967,0.5815,0.4424,0.1597,0.0337,-0.1398,-0.2461,-0.2413,0.2901,0.4467,0.3541,0.313,0.6568,0.4468,0.5412,0.9234,0.8021,0.5443,-0.6228
-0.1221,0.0295,-0.4265,0.2055,0.1973,-0.0324,0.6745,0.0839,0.0838,0.187,0.2184,0.465,0.5943,0.435,0.1738,0.0399,-0.0541,-0.3013,-0.1956,0.2627,0.4335,0.3423,0.3072,0.6444,0.46,0.5232,0.8488,0.7759,0.4176,-0.6193
-0.3551,0.0527,-0.5063,0.2301,0.1968,0.0531,0.6903,0.159,0.1785,0.2551,0.2424,0.4284,0.599,0.4242,0.1219,0.049,0.0431,-0.3267,-0.1543,0.248,0.4197,0.3191,0.2684,0.6061,0.4529,0.4817,0.7577,0.7278,0.2933,-0.5448
-0.5439,0.0881,-0.5408,0.2645,0.2077,0.1382,0.7035,0.2336,0.2728,0.3267,0.2705,0.3889,0.5988,0.4104,0.0075,0.0617,0.1468,-0.3084,-0.1134,0.245,0.4061,0.2898,0.2098,0.549,0.4309,0.4243,0.663,0.6602,0.18,-0.3943
-0.6582,0.1233,-0.5323,0.2983,0.2207,0.21,0.7079,0.2961,0.3526,0.3937,0.2925,0.3442,0.5949,0.3923,-0.1457,0.0777,0.2488,-0.2381,-0.0699,0.2496,0.3922,0.2594,0.1462,0.4809,0.3999,0.359,0.5762,0.5744,0.0806,-0.1834
-0.6831,0.1446,-0.4915,0.3196,0.2241,0.2558,0.6954,0.3359,0.404,0.4471,0.2965,0.2901,0.5856,0.368,-0.2981,0.0943,0.3364,-0.1152,-0.0252,0.2549,0.3756,0.2312,0.0904,0.4087,0.3649,0.2927,0.5042,0.4724,-0.0068,0.0536
-0.6213,0.1416,-0.4348,0.3183,0.2068,0.2662,0.6594,0.3457,0.4163,0.48,0.2731,0.2231,0.5671,0.3355,-0.4036,0.1069,0.3943,0.053,0.015,0.2529,0.3535,0.2062,0.0509,0.3386,0.3293,0.2307,0.4482,0.3578,-0.0871,0.2709
-0.4907,0.11,-0.3803,0.2889,0.162,0.2368,0.5969,0.323,0.3851,0.4897,0.2188,0.1428,0.5355,0.2942,-0.4224,0.1103,0.4089,0.2499,0.0423,0.2373,0.3233,0.1839,0.0314,0.2753,0.2956,0.1771,0.4047,0.2373,-0.1656,0.4234
-0.3189,0.0527,-0.3439,0.2312,0.089,0.1687,0.5098,0.2699,0.314,0.4783,0.1372,0.0537,0.4879,0.2455,-0.3341,0.1005,0.3723,0.4503,0.0489,0.2042,0.2842,0.1634,0.031,0.2231,0.2661,0.135,0.3673,0.1211,-0.2454,0.4784
-0.137,-0.0216,-0.3366,0.1498,-0.0069,0.0676,0.4047,0.1932,0.2142,0.452,0.0387,-0.0355,0.424,0.193,-0.1468,0.0746,0.2859,0.6227,0.0301,0.1533,0.2371,0.144,0.0456,0.1854,0.2429,0.107,0.33,0.0208,-0.3256,0.4253
0.0253,-0.1018,-0.3629,0.0527,-0.1155,-0.0572,0.2916,0.1025,0.1025,0.4196,-0.062,-0.1134,0.346,0.1416,0.1016,0.0328,0.1612,0.7344,-0.0136,0.0877,0.1844,0.1255,0.0691,0.1645,0.2283,0.0948,0.2894,-0.0528,-0.4006,0.2791
0.1435,-0.1771,-0.4196,-0.0508,-0.2237,-0.1939,0.182,0.0087,-0.0021,0.3909,-0.1487,-0.1682,0.2591,0.0969,0.3513,-0.022,0.0187,0.7586,-0.0761,0.0138,0.1299,0.1089,0.0956,0.1613,0.2242,0.0991,0.2465,-0.0918,-0.4619,0.0771
0.2006,-0.2396,-0.4951,-0.1497,-0.3175,-0.329,0.0878,-0.0776,-0.0823,0.3743,-0.2071,-0.1905,0.1707,0.0648,0.536,-0.0833,-0.1156,0.6826,-0.1464,-0.0594,0.0785,0.096,0.1203,0.1751,0.2313,0.1183,0.2075,-0.0936,-0.4993,-0.1307
0.1897,-0.2836,-0.5702,-0.2319,-0.3836,-0.4476,0.0186,-0.1473,-0.1257,0.375,-0.2274,-0.1751,0.0897,0.0505,0.6033,-0.1411,-0.2161,0.5132,-0.2107,-0.121,0.0362,0.0896,0.1413,0.2039,0.2486,0.1492,0.1817,-0.0608,-0.5045,-0.2953
0.1155,-0.3055,-0.6211,-0.2841,-0.4106,-0.5339,-0.0189,-0.1936,-0.1268,0.3942,-0.2054,-0.1214,0.025,0.058,0.5325,-0.1831,-0.2631,0.279,-0.2547,-0.1596,0.0094,0.093,0.1595,0.2438,0.2738,0.1868,0.1797,-0.0007,-0.4736,-0.3827
-0.0037,-0.3027,-0.624,-0.2937,-0.3909,-0.5735,-0.0231,-0.2124,-0.0875,0.4287,-0.143,-0.0337,-0.0156,0.0893,0.3433,-0.1965,-0.2481,0.0266,-0.2667,-0.1649,0.0044,0.1097,0.1789,0.2902,0.3037,0.2253,0.2094,0.077,-0.41,-0.382
-0.1384,-0.273,-0.5613,-0.2514,-0.3213,-0.5557,0.0023,-0.2034,-0.0165,0.4714,-0.0477,0.0795,-0.0272,0.1435,0.0918,-0.1705,-0.1747,-0.1885,-0.24,-0.1306,0.0259,0.1425,0.2049,0.3376,0.335,0.2588,0.2722,0.1617,-0.3247,-0.3064
-0.2517,-0.216,-0.4272,-0.1552,-0.2057,-0.4769,0.0479,-0.1703,0.0721,0.5128,0.0684,0.2066,-0.0093,0.216,-0.1456,-0.0992,-0.0562,-0.3147,-0.1729,-0.0555,0.0757,0.1925,0.2426,0.3801,0.3644,0.2817,0.3612,0.2428,-0.2364,-0.1859
-0.3078,-0.1339,-0.2306,-0.0127,-0.0551,-0.3438,0.1,-0.1215,0.1606,0.5425,0.1893,0.3332,0.0339,0.2989,-0.2954,0.0172,0.0908,-0.3171,-0.0687,0.0551,0.1511,0.2586,0.2956,0.4119,0.389,0.2891,0.4599,0.3108,-0.1673,-0.0556
-0.2802,-0.0318,0.0065,0.1581,0.1124,-0.1734,0.1427,-0.0685,0.2311,0.5509,0.2974,0.4442,0.0937,0.3815,-0.3085,0.1717,0.2521,-0.1863,0.0672,0.1899,0.2449,0.3372,0.3647,0.4283,0.4068,0.2777,0.5456,0.3574,-0.1381,0.0561
-0.1586,0.0831,0.2545,0.333,0.2751,0.0094,0.1617,-0.0244,0.2679,0.5311,0.3754,0.5254,0.1591,0.4528,-0.1729,0.3521,0.4206,0.0594,0.2284,0.3343,0.3469,0.4236,0.4487,0.4266,0.4167,0.2461,0.5937,0.3766,-0.1617,0.1351
0.0489,0.2033,0.4843,0.4864,0.4118,0.1773,0.1476,-0.0005,0.2611,0.4803,0.4094,0.5656,0.2192,0.5037,0.0856,0.543,0.5956,0.3796,0.4088,0.473,0.4459,0.5125,0.5442,0.4067,0.4185,0.1954,0.5837,0.3649,-0.2392,0.1822
0.3172,0.3221,0.675,0.5976,0.5065,0.3069,0.0982,-0.0034,0.2082,0.3994,0.3915,0.5584,0.2655,0.5286,0.4147,0.7284,0.7785,0.7214,0.602,0.5931,0.5313,0.5986,0.6464,0.3714,0.4124,0.1291,0.5041,0.3212,-0.3581,0.2082
0.6097,0.4333,0.817,0.6543,0.5506,0.3832,0.0189,-0.0337,0.1146,0.2926,0.3208,0.502,0.2923,0.5255,0.7524,0.892,0.9658,1.0318,0.7982,0.6843,0.5941,0.6755,0.7475,0.3238,0.3973,0.0514,0.3543,0.2463,-0.4948,0.2252
0.8853,0.5296,0.9111,0.6534,0.5443,0.4023,-0.0794,-0.0857,-0.0077,0.1657,0.2038,0.3997,0.2965,0.495,1.0433,1.0182,1.1434,1.267,0.9831,0.7394,0.6274,0.7351,0.8366,0.2661,0.3702,-0.0335,0.145,0.1419,-0.6204,0.2396
1.1057,0.6016,0.964,0.599,0.4941,0.3701,-0.1831,-0.1495,-0.1421,0.0255,0.0536,0.2583,0.2757,0.4388,1.2485,1.092,1.2864,1.3987,1.1369,0.7524,0.6251,0.7669,0.8992,0.1978,0.3258,-0.1228,-0.1046,0.0106,-0.7079,0.2498
1.2402,0.6376,0.9833,0.5001,0.4105,0.2995,-0.2795,-0.2133,-0.2705,-0.1209,-0.1124,0.0881,0.2278,0.3586,1.3485,1.1002,1.3632,1.4155,1.2373,0.7188,0.5827,0.759,0.9194,0.1157,0.2576,-0.2148,-0.3702,-0.1438,-0.7382,0.2483
1.2695,0.6265,0.973,0.3668,0.3048,0.2077,-0.3598,-0.2658,-0.376,-0.2663,-0.2747,-0.0983,0.1505,0.2554,1.3393,1.0335,1.3446,1.3209,1.2633,0.6354,0.4965,0.7002,0.8827,0.0157,0.1603,-0.3081,-0.6258,-0.3153,-0.704,0.2269
1.1877,0.5603,0.9329,0.2093,0.1872,0.1126,-0.4209,-0.2984,-0.4452,-0.4038,-0.414,-0.2868,0.0422,0.1301,1.2267,0.8888,1.2133,1.1286,1.2015,0.5016,0.3654,0.583,0.7797,-0.1054,0.0322,-0.4007,-0.8484,-0.4948,-0.6102,0.183
1.0033,0.4376,0.8601,0.0371,0.0659,0.0307,-0.4649,-0.3061,-0.4699,-0.5267,-0.5146,-0.4625,-0.0966,-0.016,1.0217,0.6713,0.9704,0.858,1.0492,0.3206,0.1912,0.4061,0.6088,-0.2472,-0.1233,-0.4888,-1.0206,-0.6698,-0.471,0.1227
0.739,0.2653,0.7522,-0.1413,-0.0529,-0.025,-0.4984,-0.288,-0.4479,-0.6293,-0.5664,-0.6113,-0.2621,-0.1805,0.7388,0.3952,0.6355,0.5306,0.8161,0.1001,-0.0206,0.1758,0.3769,-0.4053,-0.297,-0.5668,-1.1343,-0.8254,-0.3055,0.0596
0.4277,0.0577,0.6108,-0.318,-0.1649,-0.047,-0.5293,-0.2466,-0.3838,-0.7078,-0.5661,-0.7222,-0.4462,-0.359,0.3977,0.0824,0.2422,0.1698,0.5229,-0.1475,-0.2602,-0.0949,0.0985,-0.5707,-0.4754,-0.6282,-1.1911,-0.947,-0.1329,0.0113
0.1068,-0.1661,0.443,-0.4857,-0.2678,-0.0347,-0.5655,-0.1873,-0.2879,-0.76,-0.5185,-0.7889,-0.6372,-0.5448,0.0243,-0.2401,-0.1706,-0.1997,0.1979,-0.4069,-0.5145,-0.3876,-0.2064,-0.7322,-0.6436,-0.667,-1.2018,-1.0226,0.0304,-0.0076
-0.1894,-0.3849,0.261,-0.6377,-0.3606,0.0043,-0.6115,-0.1172,-0.1749,-0.7865,-0.4352,-0.811,-0.8204,-0.7298,-0.3492,-0.5445,-0.5661,-0.551,-0.1278,-0.6614,-0.768,-0.6807,-0.5142,-0.8775,-0.7875,-0.6793,-1.1836,-1.0462,0.1718,0.0108
-0.4344,-0.5789,0.0801,-0.7677,-0.444,0.0559,-0.6683,-0.0443,-0.0622,-0.7903,-0.3331,-0.794,-0.9808,-0.9042,-0.6877,-0.8065,-0.9153,-0.8575,-0.4241,-0.8951,-1.0043,-0.9523,-0.8005,-0.9956,-0.8971,-0.6647,-1.1556,-1.019,0.2826,0.0652
-0.6115,-0.7317,-0.0848,-0.8695,-0.5193,0.1025,-0.7326,0.0233,0.0334,-0.7765,-0.2311,-0.7479,-1.104,-1.0578,-0.9584,-1.008,-1.1977,-1.0956,-0.6652,-1.0942,-1.2077,-1.182,-1.0425,-1.0786,-0.9674,-0.6265,-1.1341,-0.9496,0.3571,0.1461
-0.7124,-0.8316,-0.2204,-0.9369,-0.5875,0.128,-0.797,0.0781,0.0982,-0.751,-0.1467,-0.6845,-1.1786,-1.1805,-1.1352,-1.1389,-1.4001,-1.2492,-0.8319,-1.2488,-1.3646,-1.3534,-1.2211,-1.1221,-0.9985,-0.571,-1.1275,-0.8515,0.3922,0.2389
-0.7362,-0.8715,-0.317,-0.964,-0.6472,0.1231,-0.8518,0.1141,0.1237,-0.7192,-0.0932,-0.6149,-1.1972,-1.2628,-1.2026,-1.1968,-1.5143,-1.3133,-0.9129,-1.3522,-1.465,-1.4554,-1.3238,-1.1256,-0.9951,-0.5052,-1.1345,-0.7401,0.3885,0.3272
-0.6886,-0.8492,-0.368,-0.9461,-0.695,0.0886,-0.8859,0.1273,0.1088,-0.6852,-0.077,-0.5469,-1.1575,-1.2974,-1.1578,-1.1865,-1.5369,-1.2945,-0.9058,-1.4018,-1.5031,-1.4846,-1.3469,-1.0926,-0.9652,-0.4357,-1.1447,-0.629,0.3505,0.3961
-0.582,-0.768,-0.3709,-0.882,-0.7257,0.0355,-0.8895,0.1169,0.059,-0.6505,-0.0966,-0.4846,-1.0632,-1.2806,-1.0123,-1.118,-1.4696,-1.2107,-0.8167,-1.3991,-1.479,-1.4454,-1.2961,-1.0298,-0.9185,-0.3673,-1.1428,-0.5282,0.2875,0.4362
-0.4346,-0.6375,-0.3275,-0.7752,-0.7339,-0.0184,-0.8559,0.0852,-0.0143,-0.6145,-0.1433,-0.428,-0.9238,-1.2136,-0.7921,-1.0056,-1.3209,-1.0872,-0.6605,-1.3492,-1.3982,-1.3499,-1.1868,-0.9472,-0.8654,-0.3027,-1.1143,-0.4424,0.2129,0.446
-0.2687,-0.4728,-0.2445,-0.6348,-0.7159,-0.0535,-0.7833,0.0379,-0.096,-0.5748,-0.2027,-0.3753,-0.7542,-1.1027,-0.5348,-0.8655,-1.107,-0.951,-0.4583,-1.2604,-1.2713,-1.2161,-1.041,-0.856,-0.8151,-0.2426,-1.0501,-0.3723,0.1422,0.4335
-0.107,-0.2928,-0.1332,-0.474,-0.6709,-0.0536,-0.6751,-0.0164,-0.1708,-0.5277,-0.2582,-0.3236,-0.5723,-0.9589,-0.2834,-0.7144,-0.8512,-0.825,-0.2342,-1.143,-1.1122,-1.0647,-0.8837,-0.7683,-0.7747,-0.1872,-0.9495,-0.3156,0.09,0.4135
0.0309,-0.1166,-0.0082,-0.3077,-0.6008,-0.0096,-0.5407,-0.0679,-0.2259,-0.4698,-0.2941,-0.2718,-0.397,-0.7957,-0.0771,-0.5663,-0.5809,-0.7233,-0.0118,-1.0071,-0.9359,-0.9158,-0.7381,-0.6953,-0.7485,-0.1367,-0.8199,-0.2693,0.0669,0.4024
0.1322,0.0412,0.1151,-0.1491,-0.5098,0.0786,-0.3936,-0.1073,-0.253,-0.3993,-0.2994,-0.2208,-0.2455,-0.6276,0.0583,-0.4314,-0.325,-0.6485,0.1889,-0.8621,-0.7563,-0.7858,-0.6222,-0.6463,-0.7384,-0.0936,-0.6751,-0.2321,0.0766,0.4122
0.1927,0.1728,0.223,-0.0079,-0.4031,0.2027,-0.2501,-0.1272,-0.2503,-0.3173,-0.2699,-0.1747,-0.131,-0.4678,0.1172,-0.3147,-0.109,-0.5933,0.3539,-0.7157,-0.5856,-0.6859,-0.5469,-0.628,-0.7444,-0.0625,-0.533,-0.2064,0.1156,0.4454
0.2171,0.2781,0.3061,0.1106,-0.2867,0.348,-0.1257,-0.1239,-0.2219,-0.2285,-0.2098,-0.1397,-0.061,-0.3273,0.1143,-0.2166,0.0482,-0.5449,0.4759,-0.5742,-0.4332,-0.6212,-0.5146,-0.6443,-0.766,-0.051,-0.4124,-0.1977,0.1742,0.4934
0.2186,0.3628,0.3619,0.2052,-0.1658,0.497,-0.0322,-0.0979,-0.1766,-0.1411,-0.13,-0.1228,-0.0361,-0.2137,0.0796,-0.1337,0.1386,-0.4902,0.5547,-0.4429,-0.3059,-0.5908,-0.5205,-0.696,-0.8027,-0.068,-0.3299,-0.2143,0.2399,0.5394
0.2154,0.4355,0.3952,0.2774,-0.0456,0.6335,0.0251,-0.0535,-0.1259,-0.0647,-0.0459,-0.1296,-0.0502,-0.1308,0.0483,-0.0608,0.1677,-0.4207,0.597,-0.3259,-0.2076,-0.5886,-0.5536,-0.7795,-0.8539,-0.1213,-0.2964,-0.264,0.3015,0.5653
0.2273,0.5056,0.4185,0.3315,0.0703,0.7473,0.0491,0.0026,-0.0814,-0.0085,0.0266,-0.1619,-0.0905,-0.0779,0.0503,0.0087,0.1535,-0.3346,0.6157,-0.2254,-0.1382,-0.604,-0.5984,-0.8869,-0.9181,-0.2147,-0.3149,-0.3509,0.3517,0.5581
0.2709,0.5814,0.45,0.3736,0.1798,0.8369,0.0503,0.0632,-0.0517,0.0215,0.0758,-0.2157,-0.1393,-0.0495,0.1022,0.0818,0.1239,-0.2359,0.6281,-0.1408,-0.0933,-0.6229,-0.637,-1.0052,-0.9913,-0.3445,-0.378,-0.4713,0.3888,0.5153
0.3568,0.6692,0.509,0.4125,0.2835,0.9101,0.0454,0.1231,-0.0407,0.0253,0.097,-0.2806,-0.1762,-0.0349,0.2054,0.165,0.1096,-0.1302,0.6528,-0.0678,-0.0636,-0.6293,-0.6511,-1.1171,-1.0664,-0.4976,-0.4684,-0.6116,0.4153,0.4455
0.4872,0.7719,0.6098,0.4577,0.3836,0.9804,0.053,0.1799,-0.0461,0.0097,0.0947,-0.3399,-0.1811,-0.02,0.3478,0.2628,0.1358,-0.0208,0.7058,0.0005,-0.0366,-0.6083,-0.6255,-1.2022,-1.1326,-0.6517,-0.5608,-0.7483,0.436,0.3656
0.6551,0.8867,0.7558,0.5168,0.4825,1.0623,0.0897,0.2345,-0.0597,-0.0114,0.0821,-0.3736,-0.1384,0.0095,0.5083,0.3756,0.2145,0.0924,0.7961,0.0711,0.0003,-0.549,-0.551,-1.241,-1.1768,-0.7774,-0.6251,-0.8508,0.4544,0.2962
0.8435,1.0028,0.9349,0.5915,0.5798,1.1636,0.165,0.2896,-0.0676,-0.0199,0.0794,-0.3613,-0.0408,0.0645,0.6609,0.4966,0.3395,0.2109,0.9218,0.1471,0.0553,-0.4494,-0.4284,-1.2186,-1.1852,-0.8425,-0.6323,-0.8865,0.4698,0.2571
1.0259,1.0996,1.1178,0.6733,0.6684,1.2794,0.279,0.3481,-0.0521,0.0042,0.1111,-0.2867,0.1074,0.1468,0.777,0.6098,0.4861,0.3315,1.068,0.2235,0.1273,-0.3187,-0.271,-1.1291,-1.1472,-0.8177,-0.5607,-0.8273,0.4773,0.2638
1.1666,1.147,1.2604,0.7411,0.7321,1.3894,0.4216,0.4118,0.0066,0.0777,0.2027,-0.1403,0.2893,0.2458,0.8267,0.689,0.6149,0.439,1.207,0.2835,0.2023,-0.1802,-0.1055,-0.9796,-1.0581,-0.6828,-0.4007,-0.6558,0.4686,0.3263
1.2221,1.1099,1.311,0.7624,0.7454,1.4596,0.5742,0.4811,0.1294,0.2118,0.3779,0.0784,0.4766,0.3371,0.7802,0.7,0.6783,0.5027,1.3012,0.2989,0.2533,-0.0687,0.0306,-0.7908,-0.9225,-0.4314,-0.159,-0.3699,0.4355,0.4482
1.1456,0.9542,1.2194,0.6987,0.6767,1.4486,0.7138,0.5559,0.3352,0.4095,0.6546,0.3607,0.6342,0.3855,0.6104,0.6058,0.6287,0.4785,1.3079,0.2331,0.2431,-0.0269,0.0941,-0.5952,-0.7546,-0.0745,0.1417,0.0156,0.3735,0.6271
0.8945,0.6552,0.9487,0.5148,0.4958,1.3191,0.8182,0.6361,0.6383,0.6654,1.0428,0.69,0.7273,0.3517,0.2974,0.3737,0.4275,0.3188,1.1868,0.0487,0.1325,-0.0962,0.044,-0.4312,-0.5771,0.3605,0.4659,0.4705,0.284,0.8548
0.441,0.2058,0.4855,0.1883,0.1821,1.0491,0.8713,0.7217,1.0439,0.9664,1.5403,1.0441,0.728,0.2019,-0.1666,-0.0161,0.0533,-0.0135,0.9086,-0.2826,-0.11,-0.308,-0.149,-0.3353,-0.4172,0.8327,0.7725,0.953,0.1756,1.1185
-0.216,-0.3793,-0.1537,-0.2812,-0.2661,0.641,0.866,0.8126,1.5435,1.2937,2.1298,1.3972,0.6225,-0.082,-0.7724,-0.5623,-0.4912,-0.5306,0.4637,-0.7703,-0.4987,-0.6737,-0.494,-0.3335,-0.302,1.2935,1.0223,1.4157,0.0627,1.4021
-1.0426,-1.0615,-0.921,-0.8674,-0.826,0.1255,0.8063,0.9074,2.1114,1.6243,2.7772,1.7228,0.4145,-0.4948,-1.4904,-1.2374,-1.1745,-1.2101,-0.1311,-1.3976,-1.0221,-1.1782,-0.9747,-0.4347,-0.2519,1.6942,1.1859,1.8122,-0.0374,1.6867
-1.9685,-1.7812,-1.7423,-1.5173,-1.4492,-0.4414,0.7058,1.0025,2.7039,1.9342,3.4324,1.9958,0.1266,-1.0042,-2.2691,-1.9863,-1.9368,-1.9938,-0.8298,-2.1178,-1.6409,-1.778,-1.5473,-0.6265,-0.2764,1.9935,1.2493,2.1034,-0.1083,1.9513
-2.8924,-2.4645,-2.527,-2.1571,-2.0659,-0.9867,0.5864,1.0915,3.2619,2.2012,4.0338,2.1955,-0.202,-1.5528,-3.0362,-2.7303,-2.6951,-2.7936,-1.5596,-2.857,-2.2894,-2.4044,-2.1447,-0.8754,-0.3698,2.1655,1.2175,2.2644,-0.1387,2.173
-3.696,-3.0315,-3.1804,-2.7015,-2.593,-1.4321,0.4749,1.1657,3.7184,2.408,4.5168,2.3099,-0.5196,-2.064,-3.7041,-3.3762,-3.3526,-3.5044,-2.228,-3.5223,-2.8833,-2.9711,-2.684,-1.1305,-0.5091,2.2052,1.1149,2.2903,-0.125,2.3282
-4.2613,-3.4069,-3.6164,-3.0663,-2.9463,-1.7064,0.4007,1.2157,4.0086,2.5455,4.8246,2.3384,-0.7683,-2.4534,-4.1796,-3.828,-3.8116,-4.0192,-2.7346,-4.0135,-3.3308,-3.3859,-3.0779,-1.3299,-0.6549,2.1315,0.9824,2.1987,-0.0726,2.3958
-4.4895,-3.5306,-3.7698,-3.1813,-3.0527,-1.7565,0.3915,1.2327,4.081,2.6148,4.9184,2.2937,-0.8916,-2.6406,-4.3777,-4.0022,-3.9884,-4.2451,-2.9854,-4.2388,-3.5458,-3.5638,-3.2474,-1.4102,-0.7566,1.9848,0.8708,2.0282,0.0039,2.3608
-4.3176,-3.3667,-3.6047,-3.0027,-2.8638,-1.5562,0.4688,1.2096,3.9068,2.6259,4.7845,2.1996,-0.8438,-2.5641,-4.2369,-3.8424,-3.8276,-4.1175,-2.9095,-4.1303,-3.4626,-3.4417,-3.1348,-1.3184,-0.7614,1.819,0.8312,1.8314,0.0835,2.2192
-3.73,-2.9111,-3.1204,-2.5218,-2.3657,-1.1104,0.6421,1.1418,3.4854,2.5945,4.4361,2.0866,-0.5988,-2.1935,-3.7324,-3.3312,-3.3144,-3.611,-2.474,-3.6591,-3.049,-2.9912,-2.7154,-1.0234,-0.6259,1.6899,0.9037,1.6644,0.1423,1.98
-2.7637,-2.194,-2.3519,-1.7701,-1.5853,-0.4556,0.9051,1.027,2.8446,2.5372,3.9108,1.9859,-0.1573,-1.5387,-2.8836,-2.4969,-2.4812,-2.7452,-1.6949,-2.8436,-2.3159,-2.2279,-2.0051,-0.5252,-0.3283,1.6422,1.1084,1.5744,0.1596,1.665
-1.5047,-1.2773,-1.3654,-0.8158,-0.5894,0.3449,1.234,0.8659,2.0368,2.4662,3.2641,1.9227,0.4511,-0.6522,-1.7538,-1.4126,-1.405,-1.5849,-0.6389,-1.7516,-1.3196,-1.2134,-1.0615,0.1421,0.1241,1.7001,1.4402,1.5903,0.1225,1.3067
-0.0772,-0.2462,-0.2494,0.245,0.5235,1.2105,1.5908,0.6625,1.132,2.3877,2.5607,1.9132,1.1706,0.3769,-0.4438,-0.1864,-0.1958,-0.2338,0.585,-0.4911,-0.1557,-0.0478,0.0232,0.9134,0.6934,1.8628,1.869,1.7181,0.0305,0.9441
1.3729,0.8033,0.8972,1.3038,1.6383,2.0559,1.9289,0.4249,0.2085,2.3012,1.8665,1.9626,1.9284,1.4369,0.9209,1.0556,1.0221,1.1786,1.8439,0.8056,1.0546,1.1454,1.136,1.7037,1.3168,2.1064,2.3458,1.9422,-0.1049,0.6187
2.6971,1.7784,1.9777,2.2566,2.6416,2.8034,2.203,0.1657,-0.6554,2.2027,1.2417,2.0669,2.646,2.4122,2.2058,2.1883,2.1313,2.5135,3.0032,2.004,2.1842,2.2396,2.1615,2.4228,1.918,2.3911,2.811,2.2311,-0.2622,0.3696
3.7638,2.6024,2.9086,3.0197,3.4394,3.3932,2.3768,-0.098,-1.3905,2.0889,0.7353,2.2156,3.2525,3.2024,3.2842,3.107,3.0392,3.6415,3.9495,2.9882,3.1207,3.1256,2.9992,2.9913,2.4215,2.6715,3.2065,2.5469,-0.415,0.2287
4.4752,3.2226,3.6278,3.5405,3.9708,3.79,2.43,-0.3453,-1.942,1.9605,0.3818,2.3949,3.6942,3.7379,4.0527,3.7408,3.6884,4.4599,4.6064,3.6777,3.7831,3.7275,3.5781,3.3534,2.7666,2.9064,3.4853,2.8539,-0.5363,0.2159
4.7793,3.6141,4.0999,3.8021,4.2145,3.9849,2.3612,-0.5543,-2.2747,1.825,0.1999,2.5906,3.9419,3.9884,4.4449,4.0595,4.0584,4.906,4.9417,4.0362,4.1317,4.0114,3.8635,3.485,2.9174,3.0679,3.6194,3.1259,-0.6036,0.3364
4.6761,3.7782,4.317,3.8203,4.188,3.9934,2.1869,-0.7036,-2.3746,1.696,0.1928,2.7904,3.9925,3.9641,4.4394,4.0726,4.1609,4.9637,4.9659,4.0719,4.1703,3.9855,3.8585,3.3946,2.8679,3.1451,3.6028,3.3501,-0.601,0.5788
4.2156,3.7364,4.2978,3.6357,3.9395,3.8494,1.9377,-0.7758,-2.2478,1.5917,0.3496,2.9846,3.8664,3.7085,4.0623,3.8218,4.0295,4.6631,4.7221,3.8297,3.9395,3.6932,3.5978,3.1189,2.6406,3.1456,3.4505,3.5263,-0.5207,0.9165
3.4883,3.5232,4.0812,3.303,3.5358,3.5976,1.6521,-0.7602,-1.9183,1.5304,0.6483,3.1664,3.602,3.2867,3.3812,3.3698,3.7091,4.0723,4.2737,3.3789,3.5055,3.2015,3.1386,2.7138,2.2807,3.0915,3.1945,3.6647,-0.3632,1.3116
2.6081,3.1781,3.7198,2.8786,3.0488,3.2843,1.3705,-0.654,-1.4241,1.5267,1.0591,3.3308,3.2482,2.7722,2.4921,2.7873,3.2459,3.2836,3.6904,2.798,2.9463,2.5875,2.5485,2.2431,1.8462,3.0134,2.8768,3.7803,-0.1367,1.721
1.6925,2.7399,3.2698,2.4122,2.5432,2.9497,1.1285,-0.4639,-0.8119,1.5881,1.5478,3.474,2.8563,2.2341,1.5033,2.1414,2.6814,2.3967,3.0378,2.1617,2.3378,1.9255,1.8948,1.7686,1.3967,2.9437,2.5428,3.8878,0.1431,2.1026
0.8425,2.2424,2.7827,1.9398,2.0686,2.6229,0.953,-0.2051,-0.1323,1.7142,2.0797,3.5929,2.4733,1.7277,0.5182,1.4872,2.0494,1.5028,2.3704,1.5306,1.7436,1.278,1.2359,1.3412,0.9847,2.9095,2.2347,3.9983,0.4545,2.4214
0.1279,1.7127,2.2983,1.4829,1.655,2.3197,0.8595,0.1006,0.5657,1.897,2.623,3.6863,2.1376,1.2903,-0.3801,0.863,1.3771,0.6715,1.7288,0.9457,1.2092,0.6902,0.6164,0.9965,0.6488,2.9289,1.9861,4.1173,0.7714,2.6538
-0.4187,1.1702,1.841,1.0491,1.3133,2.0434,0.8517,0.4277,1.2387,2.1238,3.1519,3.7555,1.8755,0.94,-1.1378,0.2903,0.6877,-0.0561,1.1403,0.4281,0.7597,0.1886,0.0653,0.7539,0.4104,3.0088,1.8196,4.2455,1.0672,2.7903
-0.7997,0.6279,1.4187,0.6362,1.0387,1.7879,0.9229,0.7506,1.853,2.3796,3.6485,3.805,1.7004,0.6784,-1.7343,-0.2247,0.003,-0.6672,0.6206,-0.0186,0.4016,-0.2177,-0.4031,0.6168,0.2745,3.1455,1.7454,4.3805,1.3189,2.8365
-1.044,0.0932,1.027,0.2365,0.8158,1.5413,1.058,1.0474,2.3858,2.6504,4.1033,3.8426,1.6131,0.4951,-2.1783,-0.6864,-0.6558,-1.1713,0.1752,-0.4032,0.1267,-0.5332,-0.787,0.5768,0.2322,3.3275,1.7631,4.5192,1.5104,2.8099
-1.1962,-0.4299,0.6542,-0.1574,0.6248,1.2914,1.2371,1.302,2.8264,2.9245,4.5142,3.8782,1.6028,0.3722,-2.4983,-1.1055,-1.2693,-1.5905,-0.1986,-0.7411,-0.0827,-0.7722,-1.0931,0.6165,0.2642,3.538,1.864,4.6589,1.6348,2.7346
-1.3064,-0.9377,0.2884,-0.5491,0.4468,1.0294,1.4381,1.5055,3.1748,3.1929,4.8842,3.9214,1.6496,0.2882,-2.7319,-1.495,-1.8232,-1.9494,-0.5108,-1.0497,-0.2495,-0.9542,-1.3334,0.7136,0.3462,3.759,2.0339,4.7986,1.6942,2.635
-1.4228,-1.4243,-0.0775,-0.9354,0.2678,0.7537,1.6398,1.6561,3.4388,3.4484,5.2183,3.9791,1.7278,0.2219,-2.9158,-1.8664,-2.3111,-2.2677,-0.777,-1.3443,-0.397,-1.1008,-1.5222,0.844,0.4531,3.9735,2.2546,4.9373,1.6967,2.5312
-1.5872,-1.8806,-0.4436,-1.3065,0.0804,0.4711,1.8238,1.757,3.6308,3.6844,5.5203,4.0533,1.8096,0.1542,-3.0813,-2.2284,-2.7352,-2.5574,-1.0163,-1.6366,-0.5463,-1.2323,-1.6735,0.9845,0.5632,4.1675,2.5057,5.0733,1.6542,2.4367
-1.8309,-2.2946,-0.8038,-1.6488,-0.1169,0.1948,1.9756,1.8143,3.764,3.8931,5.79,4.1394,1.8692,0.0697,-3.2521,-2.5856,-3.1044,-2.8237,-1.2478,-1.9336,-0.7139,-1.366,-1.8001,1.1148,0.6604,4.3313,2.7647,5.2026,1.5786,2.3594
-2.1722,-2.6539,-1.1486,-1.9479,-0.3212,-0.0586,2.0856,1.8347,3.8498,4.0657,6.0225,4.2271,1.8873,-0.0426,-3.4451,-2.9385,-3.4299,-3.0684,-1.4867,-2.2382,-0.9104,-1.514,-1.9121,1.2192,0.7361,4.4594,3.009,5.3187,1.4803,2.3032
-2.6133,-2.948,-1.4686,-2.1925,-0.5268,-0.2731,2.1493,1.8243,3.8964,4.1933,6.2094,4.3029,1.8538,-0.187,-3.6708,-3.2833,-3.7202,-3.2923,-1.7407,-2.5491,-1.1393,-1.6818,-2.0157,1.2879,0.7888,4.5506,3.2171,5.413,1.3683,2.2703
-3.1369,-3.1707,-1.7557,-2.3761,-0.7261,-0.4367,2.1686,1.7886,3.909,4.2691,6.3409,4.3525,1.7704,-0.3609,-3.9313,-3.6117,-3.9771,-3.4968,-2.007,-2.8601,-1.3958,-1.867,-2.1124,1.3178,0.8232,4.6071,3.3706,5.4763,1.2506,2.2611
-3.7056,-3.3205,-2.0042,-2.4976,-0.9099,-0.5424,2.1514,1.7336,3.8908,4.2908,6.4092,4.3649,1.6494,-0.5538,-4.2175,-3.9112,-4.1941,-3.6815,-2.2725,-3.1601,-1.6672,-2.0596,-2.199,1.3127,0.8469,4.6331,3.4573,5.5006,1.1357,2.273
-4.2638,-3.4013,-2.2095,-2.5605,-1.0671,-0.5886,2.1108,1.6658,3.8444,4.2622,6.4104,4.334,1.5118,-0.7478,-4.5071,-4.1665,-4.3581,-3.8419,-2.5162,-3.4335,-1.9334,-2.2432,-2.2682,1.282,0.8683,4.6332,3.4717,5.4798,1.0328,2.2997
-4.7443,-3.4213,-2.3676,-2.5712,-1.1863,-0.5785,2.0637,1.5926,3.7729,4.193,6.3459,4.2595,1.3825,-0.921,-4.7677,-4.3612,-4.454,-3.9688,-2.7147,-3.6619,-2.1697,-2.3982,-2.3112,1.2384,0.8936,4.6112,3.4169,5.4108,0.951,2.3316
-5.0779,-3.3913,-2.4742,-2.5377,-1.2567,-0.5189,2.0276,1.5216,3.6799,4.0978,6.2216,4.1468,1.2858,-1.0506,-4.9643,-4.4814,-4.4699,-4.0486,-2.8471,-3.8273,-2.3514,-2.5058,-2.32,1.1956,0.9258,4.5697,3.303,5.2943,0.8973,2.3598
-5.2056,-3.3235,-2.5255,-2.4682,-1.2708,-0.4188,2.0176,1.4595,3.5699,3.9931,6.0469,4.0046,1.2407,-1.1175,-5.0693,-4.5177,-4.4032,-4.0675,-2.901,-3.9152,-2.4573,-2.5519,-2.2898,1.1657,0.9648,4.5096,3.1462,5.1342,0.874,2.379
-5.0921,-3.2297,-2.5188,-2.3698,-1.2257,-0.2883,2.0436,1.4112,3.4484,3.8943,5.8334,3.8433,1.2579,-1.1098,-5.0701,-4.4675,-4.2622,-4.0155,-2.8745,-3.9177,-2.4742,-2.5296,-2.2212,1.157,1.0081,4.4316,2.9662,4.9375,0.8778,2.3897
-4.7372,-3.1198,-2.4545,-2.2479,-1.1244,-0.1368,2.109,1.3796,3.3212,3.8136,5.5934,3.6732,1.3388,-1.0254,-4.9715,-4.3361,-4.0655,-3.8899,-2.7769,-3.8357,-2.3993,-2.441,-2.1196,1.1734,1.0519,4.3364,2.7837,4.7141,0.8996,2.3956
-4.1822,-3.0008,-2.3375,-2.1068,-0.9756,0.0271,2.2104,1.3653,3.1949,3.7578,5.3394,3.5022,1.476,-0.872,-4.7923,-4.1352,-3.837,-3.6973,-2.6252,-3.6782,-2.2404,-2.296,-1.995,1.2141,1.0927,4.2261,2.6165,4.4752,0.9274,2.3992
-3.5066,-2.877,-2.1784,-1.9497,-0.7923,0.1956,2.3387,1.3673,3.0757,3.7282,5.0839,3.3357,1.6551,-0.6656,-4.5575,-3.8817,-3.6003,-3.4541,-2.4397,-3.461,-2.0147,-2.1107,-1.8586,1.2748,1.1273,4.1043,2.4775,4.2325,0.9493,2.3958
-2.8128,-2.75,-1.992,-1.7796,-0.5901,0.3614,2.4812,1.3834,2.9696,3.721,4.8387,3.1762,1.8575,-0.427,-4.2909,-3.5944,-3.3727,-3.1848,-2.2389,-3.2038,-1.7456,-1.9035,-1.7214,1.3492,1.1531,3.9766,2.3728,3.9968,0.9571,2.3728
-2.2032,-2.6194,-1.7955,-1.5992,-0.3842,0.5183,2.6245,1.4112,2.8818,3.7296,4.615,3.0244,2.0646,-0.1777,-4.0101,-3.292,-3.1622,-2.9184,-2.0361,-2.926,-1.4578,-1.6919,-1.5914,1.4309,1.1694,3.8502,2.3021,3.7776,0.948,2.3121
-1.7544,-2.4826,-1.6039,-1.4106,-0.1866,0.6623,2.7569,1.4482,2.8166,3.7466,4.4228,2.8804,2.2599,0.0636,-3.7262,-2.9902,-2.9679,-2.6829,-1.8379,-2.6446,-1.1741,-1.4897,-1.4731,1.5144,1.1768,3.7337,2.2602,3.582,0.9252,2.1973
-1.5003,-2.3363,-1.4268,-1.2154,-0.0046,0.7928,2.8707,1.4924,2.7765,3.7658,4.2697,2.7446,2.4318,0.2835,-3.4459,-2.7017,-2.7831,-2.5002,-1.6455,-2.3718,-0.9121,-1.3059,-1.3675,1.5962,1.1783,3.6355,2.2391,3.4149,0.8962,2.021
-1.4289,-2.1768,-1.2683,-1.0155,0.1597,0.9124,2.9622,1.5416,2.762,3.7828,4.1599,2.6187,2.5733,0.4743,-3.1762,-2.4361,-2.5998,-2.3825,-1.457,-2.1162,-0.6835,-1.1445,-1.2736,1.6742,1.1784,3.5624,2.2311,3.2789,0.8698,1.7895
-1.4934,-2.0022,-1.1279,-0.8146,0.307,1.0255,3.0315,1.5931,2.7709,3.7956,4.0938,2.5061,2.682,0.6333,-2.9287,-2.2018,-2.4136,-2.3326,-1.2712,-1.8839,-0.4947,-1.0067,-1.1906,1.7468,1.1826,3.5182,2.2297,3.1746,0.8539,1.5238
-1.6332,-1.814,-1.004,-0.6195,0.4391,1.1354,3.0813,1.6439,2.7984,3.8039,4.0682,2.4116,2.7584,0.7599,-2.7221,-2.0069,-2.227,-2.3454,-1.0902,-1.6807,-0.3494,-0.8927,-1.1193,1.8121,1.1952,3.5028,2.2304,3.1008,0.8533,1.2552
-1.7961,-1.6187,-0.897,-0.4404,0.5557,1.2415,3.1162,1.691,2.8382,3.8089,4.0771,2.3418,2.8054,0.8549,-2.5802,-1.8598,-2.0503,-2.4104,-0.9205,-1.5139,-0.2496,-0.8041,-1.0636,1.8674,1.2182,3.5124,2.2302,3.0562,0.8691,1.0186
-1.9528,-1.4267,-0.8108,-0.2896,0.6534,1.3384,3.1419,1.7323,2.884,3.8122,4.1136,2.3041,2.8271,0.9186,-2.5276,-1.7676,-1.8992,-2.5138,-0.7727,-1.3913,-0.1967,-0.7436,-1.0289,1.9101,1.2501,3.5402,2.2267,3.0395,0.8991,0.8444
-2.0997,-1.251,-0.7526,-0.1788,0.7257,1.4155,3.1639,1.7678,2.9302,3.8152,4.1697,2.3044,2.8287,0.9514,-2.5824,-1.7341,-1.7905,-2.6401,-0.6584,-1.3198,-0.1909,-0.7152,-1.0212,1.9373,1.2854,3.5773,2.2181,3.0491,0.9388,0.7528
-2.2499,-1.1045,-0.7306,-0.1171,0.7645,1.4593,3.1867,1.7991,2.9722,3.8178,4.2359,2.3447,2.8156,0.9539,-2.7508,-1.7573,-1.7371,-2.7739,-0.5875,-1.303,-0.2303,-0.7224,-1.0444,1.9469,1.3152,3.6136,2.2018,3.0817,0.9832,0.7501
-2.4188,-0.9979,-0.7514,-0.1081,0.7625,1.4568,3.2123,1.8284,3.0061,3.8173,4.3006,2.4194,2.7918,0.9272,-3.0225,-1.8286,-1.7438,-2.9022,-0.5658,-1.3399,-0.3103,-0.7671,-1.0997,1.937,1.3293,3.638,2.174,3.1297,1.027,0.8291
-2.6099,-0.9384,-0.8176,-0.15,0.7154,1.3986,3.2393,1.8574,3.0269,3.8073,4.3485,2.514,2.7588,0.8731,-3.371,-1.9337,-1.8066,-3.016,-0.5934,-1.4241,-0.4239,-0.8483,-1.1846,1.9051,1.3174,3.6382,2.1302,3.1798,1.0662,0.9697
-2.8081,-0.9303,-0.9262,-0.236,0.6242,1.2818,3.2623,1.8855,3.0288,3.7784,4.3618,2.6054,2.7149,0.794,-3.7551,-2.0562,-1.9153,-3.111,-0.6656,-1.545,-0.5617,-0.9623,-1.2942,1.8481,1.2719,3.6008,2.0647,3.2123,1.0975,1.1413
-2.9815,-0.9751,-1.0686,-0.356,0.4955,1.111,3.2732,1.9094,3.0055,3.719,4.3223,2.6652,2.6558,0.6929,-4.1246,-2.1809,-2.0573,-3.1872,-0.7734,-1.6899,-0.7135,-1.1017,-1.4219,1.7623,1.1888,3.5133,1.9724,3.2037,1.1176,1.3055
-3.0917,-1.0705,-1.2315,-0.4977,0.3415,0.8985,3.2625,1.9238,2.9518,3.6178,4.2163,2.6657,2.5762,0.5741,-4.4274,-2.2964,-2.2205,-3.2457,-0.9052,-1.8452,-0.8686,-1.2562,-1.5601,1.6448,1.0693,3.3655,1.8498,3.1309,1.1226,1.4213
-3.1068,-1.209,-1.3986,-0.6475,0.1785,0.6637,3.2222,1.9229,2.8662,3.4677,4.0389,2.5863,2.4722,0.4437,-4.6183,-2.3959,-2.3942,-3.2875,-1.0477,-1.9979,-1.0166,-1.4132,-1.701,1.495,0.9201,3.1526,1.6963,2.9768,1.108,1.4521
-3.0134,-1.3769,-1.5539,-0.7915,0.024,0.4302,3.148,1.9025,2.7522,3.2682,3.7964,2.4187,2.3433,0.3093,-4.6671,-2.4759,-2.5684,-3.3116,-1.1866,-2.1359,-1.1482,-1.559,-1.8366,1.3158,0.7517,2.8772,1.5158,2.7349,1.0699,1.3729
-2.8227,-1.554,-1.6833,-0.9152,-0.1055,0.2234,3.0404,1.8615,2.6186,3.0274,3.5065,2.1697,2.1936,0.1801,-4.5654,-2.5341,-2.7308,-3.3148,-1.3071,-2.2483,-1.255,-1.6806,-1.9589,1.1148,0.5783,2.5506,1.3174,2.4118,1.0068,1.1766
-2.5685,-1.7158,-1.7769,-1.0048,-0.1956,0.0668,2.9063,1.8022,2.4781,2.7627,3.1948,1.8597,2.0329,0.0671,-4.329,-2.5668,-2.866,-3.2917,-1.3941,-2.3247,-1.3298,-1.7656,-2.0589,0.905,0.4149,2.1916,1.1156,2.0273,0.9217,0.876
-2.2988,-1.8375,-1.8298,-1.0472,-0.2349,-0.0201,2.7588,1.7309,2.3448,2.4983,2.8906,1.5192,1.8758,-0.0172,-3.9947,-2.5682,-2.9557,-3.235,-1.4329,-2.3549,-1.3649,-1.8026,-2.1263,0.7039,0.2758,1.8245,0.9286,1.6113,0.8227,0.5017
-2.0617,-1.8992,-1.8413,-1.0321,-0.2154,-0.0243,2.6153,1.6559,2.2319,2.2619,2.6213,1.183,1.7399,-0.0595,-3.6125,-2.5305,-2.9831,-3.1376,-1.4108,-2.3287,-1.3519,-1.7814,-2.15,0.5322,0.1724,1.4755,0.7763,1.1995,0.7219,0.0945
-1.8934,-1.891,-1.8146,-0.9546,-0.1326,0.0587,2.4952,1.5861,2.1486,2.0787,2.4073,0.8836,1.6424,-0.0473,-3.2349,-2.4463,-2.9373,-2.9947,-1.32,-2.2379,-1.2828,-1.6944,-2.1209,0.41,0.1108,1.1676,0.6764,0.8268,0.6326,-0.3041
-1.809,-1.8163,-1.7557,-0.8175,0.0119,0.2239,2.4154,1.5296,2.0982,1.9661,2.259,0.6451,1.5965,0.0276,-2.905,-2.313,-2.8201,-2.8069,-1.162,-2.0798,-1.1529,-1.5397,-2.0352,0.3519,0.0905,0.9174,0.6405,0.5218,0.5669,-0.6608
-1.8005,-1.6924,-1.6722,-0.6329,0.2098,0.4564,2.3862,1.4918,2.0775,1.9295,2.1754,0.4805,1.6071,0.1653,-2.6487,-2.1345,-2.6472,-2.5832,-0.9496,-1.8592,-0.964,-1.3242,-1.8981,0.3633,0.1046,0.7322,0.6712,0.3022,0.5323,-0.9571
-1.8416,-1.5451,-1.572,-0.4214,0.4457,0.7342,2.4095,1.4754,2.0782,1.9617,2.1456,0.3904,1.6701,0.3569,-2.4713,-1.9232,-2.4468,-2.3418,-0.7063,-1.5905,-0.7267,-1.0641,-1.7242,0.4391,0.1407,0.6098,0.7615,0.1733,0.5304,-1.1903
-1.8983,-1.4023,-1.4618,-0.2086,0.6987,1.0303,2.479,1.4804,2.0891,2.0451,2.1521,0.3658,1.7736,0.5848,-2.3617,-1.697,-2.2527,-2.1093,-0.4623,-1.2955,-0.4596,-0.783,-1.5355,0.5643,0.184,0.5413,0.8968,0.129,0.5566,-1.3701
-1.9406,-1.285,-1.3478,-0.0198,0.946,1.3172,2.582,1.505,2.0994,2.1566,2.1757,0.3922,1.9013,0.8266,-2.2993,-1.4761,-2.0951,-1.9161,-0.2465,-0.9995,-0.186,-0.5076,-1.3562,0.7186,0.2205,0.5148,1.0587,0.1553,0.6023,-1.513
-1.9525,-1.2021,-1.2361,0.1253,1.1668,1.5707,2.7034,1.5456,2.1009,2.2736,2.1993,0.4542,2.0368,1.0597,-2.2644,-1.278,-1.9934,-1.7914,-0.0805,-0.727,0.0702,-0.2617,-1.2067,0.8809,0.2394,0.5189,1.2293,0.2351,0.6573,-1.6346
-1.935,-1.1501,-1.1339,0.2157,1.345,1.7717,2.8282,1.5971,2.0896,2.3776,2.2117,0.5389,2.1675,1.2655,-2.2455,-1.1149,-1.9521,-1.7566,0.0266,-0.4971,0.2899,-0.0623,-1.0989,1.0335,0.2351,0.5456,1.3956,0.3518,0.7136,-1.7443
-1.9035,-1.1177,-1.0506,0.2494,1.4713,1.9081,2.9443,1.6535,2.0659,2.4574,2.2084,0.6382,2.2865,1.4314,-2.2436,-0.9926,-1.9617,-1.8214,0.0784,-0.3217,0.4606,0.0827,-1.0346,1.1646,0.2081,0.5914,1.5514,0.4921,0.767,-1.8424
-1.8804,-1.0934,-0.9978,0.231,1.5425,1.9742,3.0429,1.7076,2.0332,2.5086,2.1913,0.7479,2.3919,1.5509,-2.2715,-0.9126,-2.0047,-1.9813,0.087,-0.2062,0.5766,0.1731,-1.007,1.2682,0.1641,0.6564,1.6974,0.6471,0.8172,-1.9198
-1.8868,-1.0726,-0.9881,0.1678,1.5604,1.9699,3.1185,1.7519,1.9969,2.532,2.1672,0.8671,2.4846,1.6223,-2.3477,-0.8748,-2.0622,-2.2184,0.0675,-0.1513,0.6375,0.2138,-1.0048,1.3433,0.1122,0.7421,1.838,0.8114,0.8671,-1.9621
-1.9368,-1.0605,-1.0325,0.0672,1.5298,1.8999,3.1692,1.7788,1.9627,2.5325,2.1452,0.9955,2.5664,1.6464,-2.4895,-0.8797,-2.1213,-2.5033,0.0317,-0.1553,0.6462,0.2115,-1.0168,1.3918,0.0626,0.8495,1.9777,0.9814,0.9196,-1.9542
-2.034,-1.071,-1.1355,-0.0647,1.458,1.7748,3.1956,1.7826,1.9356,2.5164,2.1337,1.1318,2.6375,1.6267,-2.705,-0.929,-2.1776,-2.7988,-0.0146,-0.2147,0.6072,0.1734,-1.0351,1.417,0.0245,0.9763,2.1174,1.1541,0.9765,-1.8855
-2.1704,-1.12,-1.2913,-0.2217,1.3548,1.6116,3.2013,1.7607,1.9182,2.4912,2.1388,1.2724,2.697,1.569,-2.988,-1.0232,-2.2343,-3.0651,-0.0715,-0.3236,0.5273,0.1061,-1.0553,1.4235,0.0046,1.1167,2.2535,1.3254,1.0377,-1.7542
-2.3284,-1.2179,-1.4811,-0.3947,1.2331,1.4343,3.1917,1.7139,1.9103,2.4643,2.1617,1.4105,2.7435,1.4826,-3.3158,-1.1584,-2.2973,-3.2656,-0.1416,-0.4721,0.4164,0.0179,-1.0751,1.4163,0.0067,1.2611,2.3793,1.4894,1.1018,-1.5688
-2.4829,-1.3633,-1.6743,-0.5704,1.1085,1.2715,3.1723,1.647,1.9082,2.4418,2.1975,1.5365,2.7759,1.3802,-3.6523,-1.3233,-2.3696,-3.3732,-0.2258,-0.645,0.2878,-0.081,-1.0917,1.4009,0.0313,1.3977,2.4873,1.6385,1.1663,-1.3481
-2.6058,-1.5396,-1.8336,-0.731,0.9988,1.1521,3.1472,1.5668,1.9045,2.4272,2.2358,1.6391,2.7942,1.277,-3.9531,-1.4987,-2.4462,-3.3749,-0.3197,-0.8222,0.1576,-0.1781,-1.1004,1.3824,0.0765,1.5137,2.5716,1.7632,1.228,-1.1178
-2.6718,-1.7166,-1.9217,-0.8562,0.9209,1.0994,3.1168,1.4806,1.8888,2.4196,2.2611,1.7059,2.7987,1.1878,-4.1744,-1.6588,-2.5134,-3.274,-0.4116,-0.9812,0.0422,-0.2595,-1.094,1.3644,0.1385,1.5972,2.6284,1.8531,1.2827,-0.9057
-2.6639,-1.8558,-1.9102,-0.9266,0.8887,1.1261,3.0781,1.3947,1.8496,2.4135,2.2558,1.7253,2.7889,1.1248,-4.2838,-1.7762,-2.5499,-3.0886,-0.4847,-1.1001,-0.044,-0.3129,-1.0647,1.3471,0.2118,1.6383,2.6556,1.8976,1.3261,-0.7352
-2.5772,-1.9193,-1.7853,-0.9278,0.9098,1.2308,3.0249,1.3133,1.7764,2.3989,2.2031,1.6878,2.7635,1.0941,-4.2684,-1.827,-2.5324,-2.8475,-0.5203,-1.1616,-0.0918,-0.3298,-1.0064,1.3273,0.2899,1.6299,2.6521,1.8869,1.3542,-0.6198
-2.42,-1.8778,-1.5516,-0.8539,0.9843,1.399,2.9506,1.2386,1.663,2.364,2.0907,1.5879,2.7199,1.0956,-4.1386,-1.796,-2.4415,-2.5847,-0.5032,-1.156,-0.0984,-0.3078,-0.9171,1.2983,0.3656,1.5685,2.6171,1.8135,1.3661,-0.5604
-2.2102,-1.7189,-1.2304,-0.7091,1.1047,1.6065,2.8517,1.1719,1.509,2.2973,1.9143,1.4257,2.656,1.1227,-3.9242,-1.6805,-2.2686,-2.3331,-0.4259,-1.0831,-0.0671,-0.2509,-0.8004,1.2522,0.4317,1.4544,2.5508,1.6735,1.365,-0.5473
-1.9718,-1.4505,-0.8562,-0.5078,1.2576,1.8258,2.73,1.1144,1.3222,2.192,1.6795,1.2078,2.5708,1.1647,-3.6643,-1.4913,-2.0193,-2.1192,-0.2914,-0.9523,-0.0064,-0.1684,-0.6648,1.1823,0.4822,1.2924,2.4547,1.4682,1.3593,-0.5668
-1.7285,-1.1012,-0.4703,-0.2726,1.4252,2.0308,2.5938,1.0684,1.1173,2.0481,1.4018,0.9472,2.4662,1.209,-3.3959,-1.2513,-1.7149,-1.9595,-0.1133,-0.7811,0.0723,-0.0727,-0.5223,1.0863,0.513,1.0913,2.3317,1.2053,1.3607,-0.6073
-1.5003,-0.716,-0.1138,-0.0321,1.5878,2.2007,2.4566,1.0362,0.9142,1.8735,1.1045,0.6621,2.3471,1.244,-3.1451,-0.992,-1.3894,-1.8586,0.0868,-0.5929,0.1565,0.0233,-0.386,0.9677,0.5229,0.8643,2.1862,0.8986,1.381,-0.6634
-1.3014,-0.3482,0.1782,0.1835,1.7265,2.3222,2.335,1.0201,0.7339,1.6831,0.8154,0.374,2.2215,1.2604,-2.9252,-0.748,-1.0833,-1.811,0.2839,-0.4134,0.2348,0.1084,-0.2676,0.8361,0.513,0.6276,2.0245,0.568,1.428,-0.7356
-1.1396,-0.0488,0.3826,0.347,1.8255,2.3899,2.244,1.0201,0.5945,1.4954,0.5616,0.1055,2.0995,1.2538,-2.7386,-0.55,-0.8344,-1.8035,0.4549,-0.2658,0.2984,0.175,-0.1755,0.7063,0.4869,0.3999,1.855,0.2375,1.5012,-0.826
-1.0177,0.1442,0.4915,0.4395,1.875,2.4062,2.1946,1.034,0.5075,1.3298,0.3654,-0.1228,1.9926,1.2251,-2.5826,-0.4189,-0.6699,-1.8198,0.5833,-0.1663,0.3426,0.2198,-0.1141,0.5949,0.4497,0.1996,1.6895,-0.0664,1.5921,-0.9335
-0.9352,0.2131,0.513,0.4538,1.8729,2.3803,2.1905,1.0567,0.4759,1.2023,0.2402,-0.2941,1.9121,1.1803,-2.4544,-0.3616,-0.6003,-1.8444,0.6618,-0.1216,0.3674,0.2438,-0.084,0.5177,0.4073,0.0431,1.5435,-0.3183,1.6854,-1.0506
-0.8901,0.1642,0.4687,0.3961,1.8251,2.3261,2.227,1.0812,0.4935,1.1222,0.1887,-0.3973,1.8676,1.1296,-2.3543,-0.3703,-0.6176,-1.8654,0.6929,-0.1279,0.3769,0.251,-0.0824,0.4856,0.3652,-0.058,1.4346,-0.4968,1.7639,-1.1638
-0.8805,0.0249,0.3883,0.2846,1.7441,2.2594,2.2924,1.0996,0.546,1.0907,0.2027,-0.4284,1.8651,1.0849,-2.2853,-0.4255,-0.6988,-1.876,0.6863,-0.1719,0.3786,0.2468,-0.1049,0.5029,0.3272,-0.0989,1.3804,-0.5875,1.8127,-1.2564
-0.9044,-0.1633,0.3027,0.1454,1.6473,2.195,2.3698,1.1042,0.6141,1.1005,0.2645,-0.3899,1.9065,1.0587,-2.2508,-0.5002,-0.8105,-1.8737,0.6565,-0.2344,0.3821,0.238,-0.1453,0.5668,0.2954,-0.0819,1.3932,-0.5847,1.8242,-1.3139
-0.9588,-0.3537,0.2385,0.0081,1.5537,2.145,2.4413,1.0894,0.6766,1.1379,0.3512,-0.2899,1.9898,1.0619,-2.2505,-0.5654,-0.916,-1.859,0.6196,-0.2931,0.3983,0.2316,-0.196,0.669,0.2702,-0.0157,1.4773,-0.4917,1.7997,-1.3281
-1.0381,-0.5037,0.2132,-0.0997,1.4816,2.1172,2.4921,1.0521,0.7147,1.1863,0.4392,-0.1402,2.1099,1.1034,-2.278,-0.5946,-0.9809,-1.8322,0.5916,-0.3262,0.4382,0.2359,-0.2471,0.7983,0.2516,0.0868,1.6267,-0.3196,1.7488,-1.2991
-1.132,-0.5815,0.234,-0.156,1.4459,2.1155,2.5131,0.9931,0.7154,1.2298,0.5087,0.0457,2.2594,1.1892,-2.3204,-0.5676,-0.9792,-1.7928,0.5856,-0.3151,0.5122,0.2598,-0.2865,0.9434,0.2394,0.2108,1.8261,-0.086,1.687,-1.2353
-1.2239,-0.5709,0.2982,-0.1469,1.4565,2.1407,2.5023,0.9167,0.6737,1.2568,0.5468,0.2528,2.4296,1.3218,-2.3603,-0.4734,-0.8971,-1.7391,0.6108,-0.2468,0.6285,0.3118,-0.3015,1.0942,0.2339,0.3417,2.0537,0.1872,1.6307,-1.1513
-1.2919,-0.4718,0.3963,-0.0679,1.5176,2.1919,2.4643,0.8301,0.5928,1.2616,0.5483,0.466,2.6112,1.4993,-2.378,-0.3109,-0.7358,-1.67,0.671,-0.115,0.7917,0.3982,-0.2809,1.2429,0.2353,0.466,2.2854,0.4749,1.5928,-1.0662
-1.3119,-0.2976,0.5155,0.0768,1.628,2.267,2.4091,0.7432,0.4833,1.245,0.5161,0.67,2.7951,1.7157,-2.3542,-0.0884,-0.5107,-1.5869,0.7648,0.0789,1.0017,0.5215,-0.2179,1.3836,0.2428,0.5719,2.4991,0.7516,1.5796,-1.0014
-1.2627,-0.0705,0.644,0.2759,1.7821,2.364,2.3496,0.667,0.3604,1.213,0.4581,0.8503,2.9734,1.9618,-2.2727,0.1785,-0.2462,-1.494,0.8873,0.3272,1.254,0.6804,-0.1112,1.5118,0.2541,0.6495,2.6775,0.9928,1.5912,-0.9786
-1.1325,0.1849,0.7732,0.5143,1.9722,2.4806,2.2999,0.6123,0.2411,1.1754,0.3857,0.994,3.1416,2.2264,-2.1226,0.4712,0.0314,-1.3969,1.0326,0.6178,1.5405,0.8696,0.0351,1.6239,0.2651,0.691,2.8096,1.1781,1.6226,-1.0161
-0.9225,0.4468,0.8993,0.7757,2.1893,2.6147,2.2722,0.588,0.1405,1.1422,0.3098,1.0915,3.2977,2.4983,-1.9013,0.7717,0.3003,-1.2996,1.1954,0.9363,1.8508,1.0818,0.2125,1.7174,0.2703,0.6907,2.8906,1.2922,1.6664,-1.1247
-0.6482,0.699,1.023,1.044,2.4242,2.7633,2.2749,0.5987,0.0686,1.1216,0.2383,1.1365,3.4424,2.767,-1.6156,1.0654,0.5472,-1.2019,1.3712,1.2675,2.1724,1.3077,0.4095,1.7901,0.2636,0.6451,2.9195,1.3266,1.7143,-1.3045
-0.3356,0.9315,1.1481,1.3055,2.6669,2.9229,2.3105,0.6429,0.0282,1.1163,0.1736,1.1265,3.5762,3.0228,-1.2826,1.3414,0.767,-1.0979,1.555,1.5963,2.492,1.5369,0.613,1.8402,0.2399,0.553,2.8975,1.279,1.7577,-1.5427
-0.0154,1.1397,1.2793,1.5486,2.9062,3.0888,2.3749,0.7126,0.0141,1.1228,0.1119,1.0621,3.6977,3.2564,-0.9275,1.5929,0.9598,-0.9778,1.7399,1.9073,2.7948,1.758,0.8092,1.8659,0.1959,0.4158,2.8268,1.1528,1.7888,-1.8153
0.2838,1.3214,1.42,1.7644,3.1298,3.2552,2.4583,0.7942,0.0146,1.1315,0.0448,0.947,3.8023,3.4589,-0.5787,1.8149,1.1277,-0.8312,1.9159,2.1858,3.0659,1.9592,0.9855,1.8661,0.1318,0.2377,2.7102,0.9564,1.8009,-2.092
0.5398,1.4755,1.5703,1.946,3.3243,3.4149,2.5465,0.8712,0.0141,1.1293,-0.038,0.7875,3.8826,3.6219,-0.2614,2.0036,1.2725,-0.6512,2.0716,2.4179,3.291,2.1295,1.1318,1.8409,0.0511,0.0264,2.5531,0.7021,1.7896,-2.3432
0.7393,1.5994,1.7259,2.0876,3.4764,3.5593,2.6234,0.9282,-0.0027,1.1028,-0.1451,0.5925,3.9297,3.7381,0.0081,2.1556,1.3952,-0.4375,2.1965,2.592,3.4576,2.2599,1.2422,1.7914,-0.0387,-0.2074,2.3639,0.405,1.7535,-2.5468
0.8777,1.689,1.8778,2.1839,3.5743,3.6783,2.6731,0.954,-0.0476,1.0415,-0.2805,0.3727,3.9353,3.802,0.2247,2.2672,1.4969,-0.1975,2.284,2.6997,3.5564,2.3453,1.3154,1.7198,-0.1283,-0.4509,2.1547,0.0824,1.6944,-2.6925
0.958,1.7383,2.0144,2.2295,3.6089,3.7609,2.6821,0.9438,-0.1259,0.9397,-0.4425,0.1397,3.8939,3.8104,0.3928,2.3359,1.5791,0.0557,2.3335,2.7368,3.5831,2.3851,1.355,1.6293,-0.2083,-0.691,1.9397,-0.2478,1.6163,-2.7815
0.9875,1.7414,2.1234,2.2195,3.5759,3.7963,2.6407,0.8996,-0.2363,0.7973,-0.6235,-0.0948,3.8041,3.7638,0.5212,2.3599,1.6444,0.3053,2.3499,2.7037,3.5383,2.3829,1.3684,1.5231,-0.2716,-0.9157,1.7325,-0.5684,1.5247,-2.8224
0.9755,1.6945,2.1951,2.1508,3.4762,3.7759,2.5442,0.8278,-0.371,0.6196,-0.8116,-0.3195,3.6686,3.6655,0.6159,2.3396,1.6955,0.5333,2.3418,2.6054,3.428,2.3456,1.3641,1.4044,-0.3153,-1.1158,1.5437,-0.8641,1.426,-2.8256
0.9296,1.5983,2.225,2.0243,3.3163,3.6959,2.3936,0.7377,-0.5179,0.4156,-0.9923,-0.5245,3.4939,3.5224,0.6746,2.2773,1.7343,0.7219,2.318,2.4508,3.2625,2.2813,1.3496,1.2763,-0.3413,-1.2852,1.3784,-1.1221,1.3262,-2.7973
0.855,1.4592,2.2147,1.8462,3.1082,3.5589,2.1956,0.6385,-0.6626,0.1974,-1.1507,-0.7012,3.2892,3.3433,0.6864,2.177,1.7605,0.8545,2.2847,2.2516,3.0552,2.1979,1.3294,1.1418,-0.3558,-1.4215,1.2352,-1.3335,1.2309,-2.7377
0.7542,1.289,2.1707,1.6282,2.8671,3.3744,1.962,0.5378,-0.7917,-0.0216,-1.2734,-0.8434,3.0649,3.1388,0.6368,2.044,1.7717,0.9177,2.2444,2.021,2.8212,2.1014,1.3039,1.0047,-0.3671,-1.525,1.1069,-1.493,1.1457,-2.6435
0.6289,1.1027,2.102,1.3859,2.6099,3.1569,1.708,0.4408,-0.8945,-0.2286,-1.3509,-0.9471,2.831,2.9202,0.516,1.8839,1.7638,0.9034,2.1964,1.7723,2.5753,1.9961,1.2699,0.8695,-0.3835,-1.598,0.9831,-1.5998,1.0755,-2.5135
0.4817,0.9153,2.0168,1.1367,2.353,2.9229,1.4499,0.3507,-0.9653,-0.412,-1.3793,-1.0117,2.5971,2.6985,0.327,1.7028,1.7327,0.8122,2.1394,1.5185,2.3319,1.8855,1.2236,0.7416,-0.4104,-1.6439,0.854,-1.657,1.0249,-2.3543
0.3169,0.7397,1.9205,0.8972,2.1108,2.6878,1.2032,0.269,-1.0041,-0.563,-1.3615,-1.0403,2.3713,2.4849,0.0895,1.5086,1.6777,0.6564,2.0744,1.2722,2.1043,1.7743,1.163,0.6273,-0.449,-1.6665,0.7153,-1.6711,0.9966,-2.1838
0.1402,0.5863,1.8162,0.6824,1.8961,2.4641,0.9801,0.1962,-1.0171,-0.6763,-1.3076,-1.0398,2.1615,2.2905,-0.1609,1.3125,1.6039,0.4616,2.0078,1.0467,1.9057,1.6699,1.0911,0.5336,-0.4952,-1.6693,0.5709,-1.6515,0.9905,-2.0289
-0.0406,0.4642,1.7074,0.5061,1.7205,2.2618,0.7891,0.1321,-1.0159,-0.7509,-1.2341,-1.0203,1.9758,2.1271,-0.3786,1.1307,1.524,0.2639,1.952,0.8571,1.7496,1.5837,1.0178,0.4675,-0.5406,-1.6557,0.4329,-1.6088,1.0032,-1.9209
-0.2137,0.3841,1.6013,0.3819,1.5966,2.0905,0.6347,0.0759,-1.0153,-0.7908,-1.1622,-0.9945,1.8225,2.007,-0.5162,0.9847,1.4581,0.1054,1.924,0.7207,1.6501,1.5299,0.9584,0.4348,-0.574,-1.6291,0.319,-1.5544,1.0277,-1.8879
-0.3612,0.3602,1.5118,0.3243,1.5382,1.9625,0.5181,0.027,-1.0305,-0.8042,-1.1145,-0.9754,1.7104,1.9431,-0.5342,0.9007,1.4309,0.0262,1.9429,0.6567,1.6216,1.5241,0.931,0.439,-0.5848,-1.5942,0.2473,-1.4991,1.0545,-1.947
-0.4586,0.4108,1.4608,0.3487,1.5607,1.8934,0.4388,-0.0148,-1.0742,-0.8024,-1.1119,-0.9744,1.6474,1.9471,-0.4102,0.9061,1.4685,0.0574,2.0258,0.6843,1.6772,1.58,0.9525,0.4809,-0.5655,-1.5565,0.2308,-1.4519,1.074,-2.0981
-0.478,0.5552,1.4739,0.4685,1.6775,1.9011,0.3956,-0.0481,-1.1529,-0.797,-1.1695,-0.9991,1.6395,2.0281,-0.1452,1.024,1.5935,0.2151,2.1848,0.819,1.8256,1.7062,1.0343,0.557,-0.514,-1.5236,0.2737,-1.4198,1.0784,-2.3218
-0.3941,0.8083,1.5748,0.6916,1.8963,2.0004,0.3868,-0.0704,-1.2662,-0.7981,-1.2944,-1.0521,1.688,2.1891,0.2365,1.2675,1.82,0.497,2.4233,1.068,2.0688,1.9039,1.1798,0.66,-0.4351,-1.5039,0.3683,-1.4071,1.064,-2.5844
-0.1911,1.1739,1.7766,1.0157,2.2143,2.197,0.4097,-0.0782,-1.4067,-0.812,-1.4844,-1.1315,1.7892,2.4252,0.6931,1.6344,2.1498,0.8814,2.7354,1.4265,2.3989,2.1657,1.3834,0.7787,-0.3398,-1.5063,0.496,-1.4166,1.033,-2.8465
0.132,1.6406,2.077,1.4267,2.6158,2.4833,0.4604,-0.0687,-1.5614,-0.8411,-1.7284,-1.2318,1.9335,2.7228,1.1762,2.1057,2.5702,1.3307,3.1056,1.8762,2.798,2.4767,1.6325,0.9004,-0.243,-1.538,0.6307,-1.4495,0.9924,-3.0751
0.5583,2.1814,2.4571,1.8993,3.0729,2.8382,0.534,-0.0405,-1.7145,-0.8832,-2.0077,-1.3451,2.107,3.0612,1.6426,2.6476,3.0561,1.7983,3.5119,2.3872,3.2406,2.8176,1.9104,1.0127,-0.1599,-1.6029,0.7441,-1.5062,0.9524,-3.2526
1.0535,2.7574,2.884,2.401,3.5498,3.2307,0.625,0.0047,-1.8499,-0.9324,-2.2982,-1.4631,2.2937,3.4154,2.0622,3.2176,3.573,2.238,3.9285,2.9221,3.6967,3.1673,2.1995,1.1059,-0.1019,-1.7004,0.8128,-1.5862,0.9229,-3.3804
1.5701,3.3246,3.3164,2.8971,4.008,3.6253,0.7285,0.0623,-1.9542,-0.981,-2.5741,-1.5779,2.4773,3.7597,2.4216,3.7711,4.0824,2.6125,4.3293,3.4415,4.1361,3.506,2.4831,1.1744,-0.0746,-1.8248,0.8227,-1.6881,0.9097,-3.4755
2.0558,3.8407,3.7117,3.3553,4.4126,3.989,0.8401,0.125,-2.0183,-1.0208,-2.8109,-1.6833,2.6436,4.0705,2.7209,4.2681,4.546,2.8993,4.6904,3.9093,4.532,3.8164,2.7461,1.2165,-0.0764,-1.9675,0.7717,-1.8094,0.9119,-3.5634
2.463,4.2699,4.0314,3.7482,4.7364,4.2953,0.9563,0.1843,-2.0388,-1.0451,-2.989,-1.7751,2.7816,4.3286,2.9666,4.6773,4.9309,3.0912,4.9916,4.296,4.8627,4.0839,2.9751,1.2333,-0.1002,-2.1184,0.669,-1.9467,0.9213,-3.6669
2.7578,4.5861,4.2472,4.056,4.9631,4.5267,1.0735,0.2327,-2.0179,-1.0499,-3.0955,-1.8506,2.8842,4.5213,3.1645,4.9783,5.2125,3.1931,5.2179,4.582,5.1136,4.297,3.1588,1.2273,-0.1359,-2.2686,0.532,-2.0956,0.9247,-3.7979
2.9249,4.774,4.3434,4.2663,5.0878,4.6743,1.188,0.2651,-1.9621,-1.0338,-3.1249,-1.908,2.9491,4.6427,3.313,5.1623,5.3789,3.2171,5.3605,4.7579,5.2775,4.4477,3.2881,1.2019,-0.1728,-2.4114,0.3813,-2.2509,0.9079,-3.9529
2.9662,4.8293,4.3188,4.3741,5.1155,4.7372,1.2958,0.2795,-1.8808,-0.9975,-3.0793,-1.9457,2.9784,4.6942,3.402,5.2313,5.4319,3.178,5.4181,4.8251,5.3545,4.5327,3.3584,1.1607,-0.2026,-2.5426,0.2364,-2.4065,0.8601,-4.1134
2.897,4.7589,4.1863,4.3826,5.0597,4.7199,1.3924,0.2767,-1.7846,-0.9436,-2.9673,-1.9618,2.9788,4.6839,3.416,5.197,5.3869,3.0903,5.3965,4.7944,5.3522,4.5545,3.3709,1.1085,-0.2199,-2.6591,0.1128,-2.555,0.7785,-4.2518
2.7388,4.5811,3.9702,4.3023,4.9389,4.6318,1.4733,0.2588,-1.6837,-0.8754,-2.8025,-1.9538,2.9602,4.6252,3.341,5.0789,5.2686,2.9677,5.3086,4.6846,5.2845,4.5213,3.3333,1.0514,-0.2228,-2.7577,0.0203,-2.6884,0.6683,-4.3407
2.515,4.3237,3.7033,4.1506,4.7741,4.4854,1.5343,0.2276,-1.5874,-0.7974,-2.6026,-1.9202,2.9348,4.5352,3.1736,4.9011,5.1052,2.8242,5.1716,4.5194,5.1696,4.4468,3.2597,0.9969,-0.2113,-2.8337,-0.0364,-2.7982,0.5421,-4.3619
2.2473,4.0216,3.4214,3.95,4.5864,4.2959,1.5711,0.1832,-1.5039,-0.7159,-2.3882,-1.861,2.9139,4.4317,2.9282,4.6896,4.9215,2.6747,5.0043,4.3247,5.0275,4.3478,3.1677,0.9532,-0.1863,-2.8811,-0.0564,-2.8766,0.4149,-4.3135
1.9547,3.7122,3.1581,3.7253,4.3941,4.0792,1.5794,0.1236,-1.4407,-0.6392,-2.181,-1.7792,2.9056,4.3306,2.6385,4.4685,4.7344,2.5339,4.824,4.1246,4.8777,4.2411,3.0749,0.9275,-0.1483,-2.8932,-0.0415,-2.9183,0.3001,-4.2123
1.6535,3.4297,2.9388,3.5004,4.2113,3.8507,1.5547,0.0454,-1.4047,-0.578,-2.0027,-1.6821,2.9127,4.2434,2.3512,4.2576,4.5523,2.4141,4.6436,3.9385,4.7353,4.1403,2.995,0.9239,-0.0975,-2.8648,0.0046,-2.9213,0.2061,-4.089
1.3588,3.1998,2.7768,3.2944,4.0467,3.6238,1.4935,-0.0544,-1.4021,-0.544,-1.872,-1.5799,2.9314,4.1757,2.1151,4.0703,4.3771,2.3216,4.4714,3.7795,4.6104,4.0541,2.9352,0.942,-0.0341,-2.7939,0.0768,-2.8881,0.1349,-3.9798
1.0863,3.0362,2.6724,3.1192,3.9039,3.4088,1.394,-0.1761,-1.4368,-0.5471,-1.8027,-1.4843,2.9529,4.1267,1.9667,3.9142,4.2086,2.2542,4.3114,3.6533,4.5066,3.9849,2.8957,0.9766,0.0402,-2.6833,0.1691,-2.8245,0.0838,-3.9143
0.8533,2.9393,2.6147,2.9792,3.7821,3.2131,1.2578,-0.3161,-1.51,-0.5924,-1.801,-1.4057,2.9656,4.0908,1.9201,3.7914,4.0491,2.2024,4.165,3.5592,4.4221,3.9301,2.8709,1.0186,0.1205,-2.5407,0.2751,-2.7386,0.0481,-3.9061
0.6771,2.8986,2.5868,2.8712,3.6783,3.0416,1.091,-0.466,-1.6181,-0.6784,-1.8639,-1.3509,2.9593,4.0594,1.9612,3.7007,3.9052,2.1526,4.0332,3.4922,4.3516,3.8833,2.8518,1.0568,0.1981,-2.3782,0.3888,-2.6385,0.0247,-3.9475
0.5711,2.8966,2.5718,2.788,3.5887,2.8977,0.9043,-0.6135,-1.7529,-0.7961,-1.9795,-1.3211,2.9279,4.0243,2.051,3.639,3.7876,2.092,3.9171,3.4451,4.2883,3.8371,2.8287,1.0803,0.2609,-2.2102,0.5048,-2.531,0.014,-4.0103
0.5406,2.9139,2.5575,2.7203,3.5098,2.7837,0.7112,-0.7449,-1.9024,-0.9313,-2.1288,-1.3124,2.872,3.979,2.1362,3.6027,3.7075,2.0127,3.8188,3.4108,4.2262,3.7847,2.7934,1.0809,0.2958,-2.0512,0.619,-2.4204,0.02,-4.0539
0.5801,2.9337,2.5381,2.6598,3.4382,2.7002,0.5256,-0.8478,-2.0528,-1.0683,-2.2894,-1.3169,2.7978,3.9207,2.1649,3.5868,3.6712,1.9148,3.7392,3.3828,4.1612,3.7211,2.7399,1.0541,0.2914,-1.9138,0.7268,-2.3095,0.0486,-4.0382
0.6732,2.9444,2.5141,2.5998,3.3713,2.6463,0.3586,-0.9137,-2.1915,-1.1943,-2.4398,-1.3254,2.7155,3.8499,2.1038,3.5849,3.6748,1.8057,3.6762,3.3557,4.0918,3.6432,2.6641,0.9993,0.2416,-1.8075,0.8225,-2.1998,0.1044,-3.9369
0.7966,2.94,2.489,2.5363,3.3061,2.6186,0.2168,-0.941,-2.3093,-1.3028,-2.5642,-1.3303,2.6356,3.7698,1.9502,3.5887,3.7023,1.6987,3.6239,3.3255,4.0193,3.5498,2.5641,0.9193,0.147,-1.7384,0.8985,-2.0941,0.1872,-3.7487
0.9262,2.9207,2.4669,2.4676,3.2408,2.6117,0.101,-0.9348,-2.4024,-1.3953,-2.6549,-1.3274,2.5656,3.6846,1.7352,3.5888,3.7285,1.6091,3.5733,3.2892,3.9465,3.4411,2.4404,0.8191,0.0152,-1.7092,0.9468,-1.9969,0.2911,-3.4994
1.0427,2.8906,2.4511,2.3954,3.1747,2.6187,0.007,-0.9058,-2.4721,-1.4802,-2.7139,-1.3167,2.508,3.5991,1.5147,3.5768,3.7259,1.549,3.5151,3.2458,3.8777,3.319,2.2965,0.7047,-0.1408,-1.7198,0.9602,-1.9148,0.4052,-3.236
1.136,2.8566,2.4428,2.3237,3.1091,2.6313,-0.0725,-0.8679,-2.5238,-1.5703,-2.7506,-1.3019,2.4592,3.5169,1.3523,3.548,3.6751,1.5239,3.4441,3.1963,3.8174,3.188,2.1396,0.5824,-0.3055,-1.7676,0.9344,-1.856,0.5166,-3.0127
1.2062,2.826,2.4419,2.2589,3.0468,2.6403,-0.1463,-0.8346,-2.5654,-1.6781,-2.7788,-1.2888,2.4116,3.4408,1.2982,3.503,3.5723,1.5299,3.3622,3.1444,3.7693,3.0552,1.9813,0.4583,-0.4639,-1.8483,0.869,-1.8279,0.6138,-2.8746
1.262,2.8045,2.4467,2.2078,2.9913,2.6356,-0.2223,-0.8162,-2.6047,-1.8125,-2.8128,-1.2836,2.3548,3.3717,1.3734,3.448,3.4328,1.5556,3.2791,3.095,3.7352,2.93,1.8358,0.3376,-0.6045,-1.9556,0.7676,-1.8355,0.6888,-2.8435
1.3156,2.7945,2.4548,2.1761,2.9459,2.6073,-0.3057,-0.8172,-2.6478,-1.975,-2.8637,-1.2907,2.2795,3.309,1.5624,3.3927,3.2874,1.5858,3.2091,3.0534,3.7142,2.8221,1.718,0.2252,-0.7199,-2.0817,0.6358,-1.8793,0.738,-2.9117
1.3764,2.7938,2.463,2.1661,2.9122,2.548,-0.3985,-0.8365,-2.6976,-2.1595,-2.9368,-1.3123,2.1796,3.2508,1.8195,3.3472,3.1731,1.6065,3.1665,3.0227,3.7026,2.7399,1.64,0.1241,-0.8078,-2.218,0.4798,-1.9549,0.7611,-3.0465
1.4454,2.7961,2.4685,2.176,2.8899,2.4545,-0.4998,-0.8683,-2.7536,-2.3533,-3.0309,-1.3475,2.0539,3.1943,2.0837,3.3187,3.1205,1.6089,3.1599,3.0026,3.6942,2.6871,1.608,0.0359,-0.8699,-2.3556,0.3042,-2.0536,0.7604,-3.2019
1.5132,2.7918,2.4688,2.1997,2.8761,2.3294,-0.6062,-0.9045,-2.8122,-2.5406,-3.1389,-1.3933,1.9067,3.1359,2.2983,3.3088,3.1427,1.5909,3.1881,2.9887,3.6811,2.6617,1.6199,-0.0402,-0.9106,-2.4865,0.1114,-2.1649,0.739,-3.3345
1.5613,2.771,2.4621,2.2276,2.8655,2.1809,-0.7129,-0.9368,-2.867,-2.7051,-3.2494,-1.4445,1.7474,3.0721,2.427,3.312,3.2303,1.5582,3.2398,2.9728,3.6554,2.6555,1.6657,-0.1069,-0.9355,-2.6037,-0.0978,-2.2778,0.7004,-3.4161
1.5685,2.7257,2.4469,2.2489,2.8515,2.0213,-0.8143,-0.9588,-2.9101,-2.8331,-3.3481,-1.4942,1.5895,3.0005,2.4609,3.3179,3.354,1.5232,3.2966,2.945,3.6106,2.6564,1.7298,-0.1669,-0.9495,-2.7014,-0.3225,-2.383,0.647,-3.4391
1.5178,2.6527,2.4209,2.2538,2.8273,1.8647,-0.9037,-0.9669,-2.9331,-2.9143,-3.4203,-1.5344,1.4491,2.9208,2.4157,3.3138,3.4743,1.5031,3.3392,2.8965,3.5442,2.6526,1.7948,-0.2212,-0.9554,-2.7741,-0.5588,-2.4725,0.5803,-3.4123
1.4034,2.5549,2.3813,2.2359,2.7872,1.7242,-0.9738,-0.9605,-2.9282,-2.9424,-3.4519,-1.5557,1.3431,2.8364,2.3213,3.2887,3.555,1.515,3.3543,2.823,3.4583,2.6361,1.8472,-0.2667,-0.9521,-2.816,-0.7972,-2.5394,0.5,-3.3527
1.2344,2.4414,2.3243,2.1928,2.7276,1.6093,-1.0176,-0.9423,-2.8897,-2.9148,-3.4321,-1.5487,1.2866,2.7538,2.2088,3.2369,3.5742,1.5713,3.3383,2.7256,3.36,2.6054,1.8799,-0.2956,-0.9351,-2.8208,-1.0213,-2.577,0.4052,-3.2751
1.0337,2.3247,2.2472,2.1268,2.6468,1.5239,-1.0295,-0.917,-2.8159,-2.8327,-3.3548,-1.505,1.29,2.682,2.1012,3.1593,3.5306,1.6738,3.2983,2.6113,3.2595,2.5656,1.8938,-0.2969,-0.8976,-2.7822,-1.2093,-2.5783,0.2958,-3.1867
0.8325,2.2177,2.1498,2.043,2.5449,1.465,-1.0083,-0.8908,-2.7099,-2.7019,-3.2206,-1.4194,1.3566,2.6298,2.0102,3.0627,3.4407,1.8121,3.2483,2.4908,3.1677,2.5262,1.8954,-0.2592,-0.8333,-2.6956,-1.3368,-2.5363,0.1742,-3.0871
0.6624,2.1302,2.0363,1.9473,2.4237,1.4233,-0.958,-0.87,-2.5799,-2.5327,-3.0379,-1.2913,1.4809,2.6033,1.9387,2.957,3.331,1.9648,3.2031,2.3752,3.0926,2.4968,1.8939,-0.1748,-0.7392,-2.5602,-1.3826,-2.4461,0.0448,-2.9725
0.5468,2.0659,1.9155,1.8451,2.2855,1.385,-0.8884,-0.8598,-2.4386,-2.3401,-2.8226,-1.1258,1.6484,2.6035,1.8854,2.8521,3.2276,2.104,3.1723,2.2728,3.0373,2.4836,1.8963,-0.0431,-0.6174,-2.3802,-1.3338,-2.3061,-0.0864,-2.8416
0.4953,2.0219,1.7997,1.7395,2.1332,1.3353,-0.8143,-0.8642,-2.3018,-2.1423,-2.5968,-0.9337,1.8373,2.625,1.85,2.7544,3.1469,2.2025,3.1563,2.1869,2.9983,2.4866,1.9054,0.1276,-0.4762,-2.1651,-1.1907,-2.1202,-0.2137,-2.6995
0.5025,1.9885,1.7011,1.6308,1.9696,1.2617,-0.7526,-0.8861,-2.186,-1.9591,-2.3861,-0.7306,2.0215,2.6567,1.8348,2.6658,3.0918,2.2403,3.1454,2.115,2.9667,2.4993,1.9182,0.321,-0.3283,-1.9292,-0.9685,-1.8988,-0.3326,-2.5578
0.5504,1.9521,1.6287,1.5166,1.7963,1.1562,-0.7197,-0.9275,-2.1065,-1.8101,-2.2159,-0.5348,2.175,2.6836,1.8433,2.583,3.0525,2.2096,3.123,2.0493,2.9296,2.5104,1.928,0.5148,-0.188,-1.6894,-0.6955,-1.6578,-0.4403,-2.4319
0.6133,1.898,1.5851,1.3931,1.6148,1.017,-0.728,-0.9895,-2.0753,-1.711,-2.1075,-0.3643,2.2763,2.69,1.8776,2.4994,3.0125,2.1166,3.0718,1.9799,2.8744,2.507,1.9262,0.6859,-0.068,-1.4626,-0.4073,-1.4171,-0.535,-2.3363
0.6632,1.8142,1.566,1.2574,1.4265,0.8491,-0.7834,-1.0719,-2.0986,-1.6715,-2.074,-0.2334,2.3128,2.6641,1.9334,2.4086,2.9566,1.9795,2.9808,1.8977,2.7923,2.4791,1.9065,0.8146,0.0234,-1.2632,-0.14,-1.1967,-0.6139,-2.279
0.6751,1.6963,1.5618,1.1105,1.2358,0.6639,-0.8832,-1.1721,-2.1755,-1.6935,-2.117,-0.1503,2.2831,2.6007,1.9971,2.308,2.8793,1.8251,2.8514,1.7992,2.6818,2.4227,1.8678,0.8892,0.0846,-1.1009,0.078,-1.0131,-0.6725,-2.2574
0.6303,1.5503,1.5608,0.9599,1.0508,0.4783,-1.0158,-1.2844,-2.2976,-1.7699,-2.2263,-0.115,2.1977,2.5039,2.0443,2.2019,2.7896,1.6834,2.7003,1.6888,2.5506,2.3421,1.8157,0.9078,0.1204,-0.9796,0.2305,-0.8763,-0.7038,-2.2563
0.5191,1.393,1.5528,0.8195,0.8843,0.3125,-1.1624,-1.4001,-2.4501,-1.8872,-2.3814,-0.1201,2.077,2.3859,2.0419,2.1021,2.7114,1.5831,2.5577,1.5793,2.4144,2.2494,1.7617,0.878,0.1409,-0.8974,0.3153,-0.7884,-0.6986,-2.2491
0.3406,1.2488,1.5311,0.7075,0.7506,0.186,-1.3012,-1.5092,-2.6153,-2.0278,-2.5565,-0.1525,1.9462,2.2639,1.9526,2.0253,2.678,1.547,2.4605,1.4885,2.2933,2.1613,1.7208,0.8145,0.1587,-0.8477,0.3417,-0.7438,-0.6472,-2.2022
0.1014,1.1427,1.4928,0.6409,0.6625,0.1133,-1.4118,-1.6023,-2.7759,-2.1744,-2.7261,-0.1973,1.8297,2.1557,1.7424,1.9886,2.7228,1.5882,2.4427,1.4344,2.2061,2.0946,1.7073,0.7347,0.1854,-0.8209,0.3271,-0.7321,-0.542,-2.0827
-0.1873,1.0933,1.4385,0.6309,0.6266,0.1006,-1.4805,-1.6737,-2.9192,-2.3135,-2.871,-0.2412,1.7456,2.0744,1.3904,2.0036,2.8685,1.7088,2.5261,1.4295,2.1654,2.0618,1.7312,0.6544,0.2295,-0.8072,0.2911,-0.7407,-0.38,-1.8672
-0.512,1.1064,1.3709,0.6779,0.6404,0.1438,-1.5032,-1.7223,-3.0395,-2.4376,-2.9821,-0.2749,1.7016,2.0254,0.8974,2.0721,3.1199,1.8989,2.7136,1.4765,2.1737,2.067,1.7949,0.5846,0.2947,-0.7977,0.2514,-0.7577,-0.1655,-1.55
-0.8584,1.1731,1.2939,0.7709,0.6923,0.2289,-1.4868,-1.7528,-3.1381,-2.5453,-3.0605,-0.2949,1.6946,2.0057,0.2903,2.1847,3.4597,2.1392,2.9867,1.5668,2.2227,2.1057,1.8923,0.53,0.3794,-0.7857,0.2203,-0.7738,0.0891,-1.1465
-1.2118,1.2719,1.2119,0.8892,0.7635,0.3353,-1.4469,-1.7733,-3.2223,-2.6403,-3.1162,-0.3022,1.7125,2.0048,-0.3811,2.3225,3.8519,2.4038,3.31,1.6825,2.2959,2.1653,2.0101,0.4898,0.4781,-0.7671,0.2036,-0.7829,0.3646,-0.6911
