FP1,F3,F7,FC3,C3,C5,P3,P7,PO7,PO3,O1,Oz,Pz,CPz,FP2,Fz,F4,F8,FC4,FCz,Cz,C4,C6,P4,P8,PO8,PO4,O2,HEOG_left,HEOG_right
0.3745,0.0132,0.3759,0.4004,0.6117,0.1118,0.6268,0.1256,0.2241,0.4861,0.645,0.9251,1.1612,1.4099,0.812,0.7727,0.73,0.8406,0.715,0.8996,1.09,1.4006,0.6765,1.6174,0.8873,1.1897,1.2755,1.004,-0.4818,-0.4082
0.1751,0.0242,0.0948,0.262,0.4465,-0.0362,0.4464,0.0406,0.0972,0.3489,0.4798,0.7422,0.9181,1.0717,0.6166,0.5347,0.4802,0.5846,0.4997,0.6101,0.8014,1.0721,0.5173,1.3968,0.8367,1.016,1.0951,0.818,-0.5192,-0.4275
-0.0195,0.0166,-0.154,0.1228,0.2846,-0.1749,0.2637,-0.0433,-0.0254,0.2045,0.3159,0.5615,0.674,0.7405,0.4303,0.2991,0.2353,0.3403,0.285,0.327,0.5171,0.753,0.3627,1.1755,0.7842,0.849,0.9133,0.6376,-0.5575,-0.4537
-0.2053,-0.0225,-0.3495,-0.0162,0.1304,-0.2963,0.0816,-0.1226,-0.1383,0.051,0.1554,0.3857,0.4323,0.4266,0.2587,0.0701,0.0011,0.1189,0.0737,0.0595,0.2459,0.4534,0.2163,0.955,0.7265,0.6939,0.7304,0.4683,-0.5961,-0.4889
-0.3758,-0.0985,-0.4819,-0.1513,-0.0105,-0.395,-0.0951,-0.1939,-0.2373,-0.11,0.0002,0.2167,0.1992,0.1415,0.1042,-0.1458,-0.214,-0.0711,-0.1282,-0.181,-0.0003,0.1842,0.0836,0.739,0.6618,0.554,0.548,0.3142,-0.6316,-0.5302
-0.5235,-0.2082,-0.554,-0.277,-0.1318,-0.4677,-0.2592,-0.2532,-0.3199,-0.2722,-0.1477,0.056,-0.0157,-0.102,-0.0344,-0.3404,-0.4003,-0.2249,-0.3116,-0.3827,-0.2075,-0.0437,-0.0287,0.5334,0.5897,0.4308,0.37,0.1777,-0.6591,-0.569
-0.6413,-0.3404,-0.5796,-0.3858,-0.2273,-0.5136,-0.4008,-0.2954,-0.3834,-0.4242,-0.2852,-0.0939,-0.2003,-0.292,-0.1616,-0.5046,-0.5478,-0.3407,-0.466,-0.5346,-0.3615,-0.221,-0.1147,0.3461,0.5111,0.3238,0.2024,0.0601,-0.673,-0.5946
-0.7251,-0.4779,-0.5786,-0.4705,-0.2919,-0.5328,-0.5088,-0.3152,-0.425,-0.5513,-0.4066,-0.2287,-0.3422,-0.4195,-0.2842,-0.6309,-0.6491,-0.4184,-0.5827,-0.6302,-0.452,-0.3424,-0.1706,0.1854,0.4272,0.2311,0.0523,-0.0376,-0.6689,-0.5971
-0.7757,-0.6018,-0.5705,-0.525,-0.3235,-0.5266,-0.5725,-0.3072,-0.4416,-0.6377,-0.5041,-0.3427,-0.4311,-0.4808,-0.4079,-0.7144,-0.7017,-0.4594,-0.6568,-0.6687,-0.475,-0.4077,-0.1972,0.0581,0.3393,0.1496,-0.0731,-0.1151,-0.6455,-0.5718
-0.7985,-0.6954,-0.5692,-0.5467,-0.3236,-0.4963,-0.5844,-0.2682,-0.43,-0.6702,-0.5687,-0.4292,-0.4617,-0.4789,-0.5346,-0.7542,-0.7091,-0.4664,-0.6889,-0.6562,-0.4354,-0.423,-0.2,-0.0319,0.2485,0.0759,-0.1686,-0.1724,-0.6048,-0.5212
-0.8018,-0.7481,-0.5794,-0.5364,-0.2974,-0.4443,-0.5428,-0.1979,-0.388,-0.641,-0.5915,-0.4813,-0.4356,-0.4238,-0.6606,-0.7535,-0.6811,-0.4451,-0.685,-0.6043,-0.3465,-0.3993,-0.1884,-0.0852,0.1552,0.0064,-0.2319,-0.2104,-0.553,-0.4555
-0.7947,-0.7577,-0.596,-0.4993,-0.2536,-0.3735,-0.4534,-0.1003,-0.3163,-0.5505,-0.5664,-0.4942,-0.3618,-0.3313,-0.7757,-0.7193,-0.6315,-0.4048,-0.655,-0.5282,-0.2282,-0.3506,-0.1733,-0.1067,0.0607,-0.062,-0.2644,-0.2309,-0.4987,-0.3908
-0.7842,-0.7305,-0.6068,-0.4439,-0.2026,-0.289,-0.3294,0.0157,-0.2197,-0.4079,-0.4925,-0.4661,-0.2554,-0.2203,-0.8649,-0.6612,-0.5756,-0.3577,-0.6102,-0.4435,-0.103,-0.2909,-0.1643,-0.1043,-0.0326,-0.1303,-0.2704,-0.2366,-0.4513,-0.3449
-0.7738,-0.6789,-0.5967,-0.3805,-0.1547,-0.1977,-0.1897,0.1369,-0.1079,-0.2304,-0.3757,-0.3996,-0.1354,-0.1099,-0.9124,-0.5899,-0.5267,-0.3171,-0.5606,-0.3637,0.0081,-0.2319,-0.1671,-0.0877,-0.12,-0.1974,-0.2566,-0.2303,-0.4183,-0.3322
-0.763,-0.6175,-0.5538,-0.3191,-0.1178,-0.1079,-0.0554,0.2466,0.005,-0.0409,-0.2296,-0.3027,-0.0213,-0.0161,-0.9055,-0.5156,-0.4927,-0.2936,-0.5129,-0.298,0.0897,-0.1811,-0.1818,-0.0657,-0.1945,-0.2593,-0.23,-0.2149,-0.4034,-0.3584
-0.7477,-0.5583,-0.4736,-0.2671,-0.096,-0.0282,0.0543,0.3274,0.102,0.1359,-0.0742,-0.188,0.0706,0.0511,-0.8398,-0.4459,-0.475,-0.2931,-0.4695,-0.2497,0.1346,-0.141,-0.2034,-0.0452,-0.2479,-0.3105,-0.1972,-0.1932,-0.4048,-0.4183
-0.7214,-0.5074,-0.3616,-0.2274,-0.0881,0.0346,0.1263,0.3644,0.1662,0.2775,0.0672,-0.0713,0.1299,0.0886,-0.7218,-0.3848,-0.4677,-0.3156,-0.4287,-0.2164,0.145,-0.1097,-0.2235,-0.0299,-0.2729,-0.3443,-0.1635,-0.1684,-0.4158,-0.4963
-0.6779,-0.4636,-0.2323,-0.1982,-0.0881,0.0773,0.1561,0.349,0.1848,0.368,0.1722,0.0309,0.1541,0.1006,-0.5682,-0.332,-0.4595,-0.3552,-0.3858,-0.191,0.1308,-0.0821,-0.2327,-0.0205,-0.2648,-0.3556,-0.1319,-0.1431,-0.426,-0.5696
-0.6129,-0.4191,-0.1058,-0.1733,-0.0862,0.1013,0.1483,0.2808,0.152,0.3998,0.2241,0.1049,0.1482,0.0962,-0.4033,-0.2832,-0.4368,-0.4009,-0.3349,-0.164,0.1068,-0.0519,-0.2232,-0.015,-0.2236,-0.3417,-0.1037,-0.1201,-0.4251,-0.615
-0.5255,-0.3633,-0.0019,-0.1442,-0.0714,0.1118,0.115,0.169,0.0709,0.3753,0.2155,0.1427,0.1233,0.0876,-0.2516,-0.2317,-0.3872,-0.4367,-0.2706,-0.126,0.0887,-0.0133,-0.1907,-0.0101,-0.1545,-0.3031,-0.0783,-0.1007,-0.4047,-0.6143
-0.419,-0.2863,0.0655,-0.1031,-0.0347,0.117,0.0723,0.0303,-0.0463,0.3053,0.1507,0.1438,0.0934,0.0867,-0.1314,-0.17,-0.3029,-0.4426,-0.1893,-0.0702,0.089,0.0378,-0.1353,-0.0019,-0.067,-0.243,-0.0531,-0.0845,-0.3606,-0.5586
-0.2991,-0.1827,0.0932,-0.0443,0.0292,0.1258,0.036,-0.114,-0.1806,0.2068,0.045,0.1156,0.0724,0.1032,-0.0493,-0.0922,-0.1829,-0.3987,-0.09,0.0069,0.1152,0.1026,-0.0612,0.013,0.0268,-0.1663,-0.0247,-0.0684,-0.2933,-0.4497
-0.173,-0.0535,0.0893,0.0336,0.1201,0.1459,0.0188,-0.2417,-0.3093,0.1,-0.0781,0.072,0.0713,0.1425,0.0009,0.0051,-0.0338,-0.2908,0.0252,0.1041,0.1681,0.1796,0.024,0.0368,0.1153,-0.0782,0.0112,-0.047,-0.2066,-0.2987
-0.0473,0.0941,0.0704,0.1282,0.2321,0.1825,0.0281,-0.3334,-0.4095,0.0044,-0.1911,0.0303,0.0961,0.2051,0.0344,0.1208,0.1315,-0.1175,0.1509,0.2165,0.2426,0.2647,0.1103,0.0701,0.189,0.016,0.0577,-0.0142,-0.1072,-0.1236
0.0728,0.2486,0.0566,0.2335,0.3551,0.2376,0.0654,-0.375,-0.4616,-0.063,-0.268,0.0071,0.1469,0.2864,0.0694,0.2491,0.2959,0.1048,0.2793,0.3355,0.3291,0.3511,0.1868,0.1109,0.2418,0.1114,0.1159,0.035,-0.0027,0.0545
0.1836,0.3964,0.0647,0.3412,0.4759,0.3096,0.1269,-0.3592,-0.4528,-0.0908,-0.2893,0.0141,0.218,0.3776,0.1195,0.3798,0.4412,0.3435,0.4001,0.4499,0.4153,0.4299,0.2429,0.1546,0.2717,0.2026,0.1839,0.1028,0.0988,0.2149
0.2827,0.5248,0.104,0.4419,0.5811,0.3936,0.2048,-0.2863,-0.3789,-0.0744,-0.2465,0.0554,0.2989,0.4664,0.1889,0.4992,0.5517,0.5559,0.5022,0.5472,0.488,0.4914,0.2697,0.1942,0.2795,0.2834,0.2559,0.1858,0.1899,0.3403
0.3685,0.6236,0.1745,0.5259,0.6583,0.4818,0.2888,-0.1644,-0.2464,-0.0169,-0.1439,0.1255,0.3759,0.5386,0.27,0.5923,0.6165,0.7005,0.5746,0.6149,0.5348,0.5257,0.2619,0.2215,0.2678,0.3464,0.3231,0.2755,0.2646,0.4197
0.4402,0.6867,0.2678,0.5849,0.6985,0.5644,0.3669,-0.0091,-0.072,0.071,0.0015,0.2101,0.4338,0.5804,0.3462,0.6463,0.6316,0.7487,0.609,0.6428,0.5459,0.5248,0.2188,0.2281,0.2398,0.3836,0.3744,0.3577,0.3192,0.4498
0.4975,0.7123,0.3698,0.613,0.6969,0.6311,0.4276,0.1584,0.1189,0.173,0.163,0.2885,0.4589,0.5805,0.3971,0.6528,0.6003,0.6921,0.6013,0.6253,0.5153,0.4841,0.1457,0.2067,0.1978,0.3871,0.3981,0.4152,0.3529,0.4356
0.5412,0.7024,0.465,0.6079,0.6538,0.6728,0.4613,0.3143,0.2971,0.2703,0.3101,0.3385,0.4419,0.5333,0.4062,0.6112,0.5323,0.5453,0.5536,0.5628,0.4429,0.4043,0.0535,0.1533,0.1435,0.3509,0.3847,0.4307,0.3689,0.3901
0.5729,0.6629,0.5397,0.5717,0.5751,0.6839,0.4626,0.4368,0.4352,0.3454,0.4153,0.3418,0.3797,0.4404,0.367,0.5289,0.4423,0.342,0.474,0.4632,0.3353,0.2914,-0.0427,0.068,0.0776,0.2725,0.3291,0.391,0.3734,0.3316
0.5952,0.6027,0.5854,0.5115,0.4712,0.664,0.4317,0.5098,0.5133,0.3863,0.46,0.2889,0.2776,0.3122,0.2862,0.4212,0.3466,0.1272,0.3758,0.3411,0.2055,0.1571,-0.1267,-0.0435,0.0008,0.1547,0.2324,0.291,0.3752,0.2803
0.6103,0.5321,0.5995,0.4374,0.3559,0.6182,0.3746,0.5265,0.5234,0.3889,0.4384,0.1816,0.1485,0.166,0.1822,0.3076,0.2604,-0.0535,0.2751,0.2156,0.0714,0.0167,-0.184,-0.1701,-0.0855,0.0062,0.1027,0.1361,0.383,0.2538
0.6199,0.462,0.5851,0.3617,0.2435,0.5558,0.3017,0.4893,0.47,0.3563,0.3583,0.0334,0.0107,0.0227,0.0798,0.2085,0.1953,-0.1647,0.1875,0.1064,-0.0477,-0.1135,-0.2052,-0.2974,-0.1784,-0.1585,-0.046,-0.0578,0.4031,0.2629
0.624,0.4012,0.5485,0.295,0.1458,0.4873,0.2246,0.4089,0.3685,0.2975,0.2378,-0.134,-0.1166,-0.098,0.0037,0.1401,0.1579,-0.1881,0.125,0.0297,-0.136,-0.2187,-0.1875,-0.41,-0.2732,-0.3215,-0.1964,-0.2666,0.4375,0.3088
0.6215,0.356,0.4974,0.2444,0.0691,0.4209,0.1526,0.3002,0.2404,0.2234,0.1005,-0.2947,-0.2175,-0.1827,-0.0282,0.1115,0.1496,-0.1264,0.0945,-0.0056,-0.1846,-0.2887,-0.1351,-0.4949,-0.3636,-0.4638,-0.331,-0.462,0.4832,0.3836
0.6105,0.3283,0.4392,0.2116,0.013,0.3601,0.0903,0.1786,0.1086,0.1436,-0.0303,-0.4248,-0.2834,-0.227,-0.0091,0.1229,0.1673,-0.0005,0.0963,0.0001,-0.1939,-0.3192,-0.0577,-0.544,-0.4423,-0.5689,-0.4356,-0.6172,0.533,0.4724
0.5897,0.3164,0.3804,0.1929,-0.0293,0.3026,0.0367,0.0572,-0.0071,0.0645,-0.136,-0.5061,-0.314,-0.2367,0.0561,0.1663,0.2053,0.1564,0.1257,0.0376,-0.1734,-0.3124,0.0322,-0.5557,-0.5024,-0.6251,-0.5012,-0.7111,0.5784,0.558
0.5597,0.3154,0.3263,0.1807,-0.0685,0.2414,-0.0135,-0.055,-0.0927,-0.0109,-0.2056,-0.5296,-0.3166,-0.2251,0.1532,0.2278,0.2561,0.3083,0.1738,0.0914,-0.139,-0.2761,0.1215,-0.5351,-0.5383,-0.6276,-0.5253,-0.7325,0.612,0.6256
0.5224,0.3183,0.2812,0.1657,-0.116,0.1682,-0.0663,-0.1523,-0.1406,-0.0818,-0.2358,-0.4954,-0.3033,-0.2094,0.2637,0.2905,0.311,0.4249,0.2292,0.1433,-0.1087,-0.2225,0.1982,-0.4919,-0.5473,-0.5794,-0.5115,-0.6808,0.6297,0.6658
0.4811,0.3169,0.2478,0.1395,-0.1793,0.0767,-0.1255,-0.2311,-0.1491,-0.1472,-0.2291,-0.4119,-0.2865,-0.2058,0.3694,0.3382,0.36,0.4872,0.2795,0.177,-0.098,-0.1657,0.2522,-0.4389,-0.53,-0.4902,-0.4682,-0.5661,0.6311,0.6759
0.4384,0.3037,0.2263,0.0971,-0.26,-0.034,-0.1894,-0.2877,-0.1201,-0.204,-0.1913,-0.2934,-0.276,-0.2257,0.4555,0.3575,0.3925,0.4894,0.3125,0.1809,-0.1172,-0.1204,0.2758,-0.389,-0.4915,-0.3757,-0.4074,-0.407,0.6188,0.6587
0.3962,0.2725,0.214,0.0374,-0.3521,-0.1582,-0.2502,-0.3172,-0.0581,-0.2461,-0.1289,-0.1568,-0.2768,-0.2736,0.5108,0.3402,0.3977,0.4368,0.3171,0.1501,-0.169,-0.0996,0.2636,-0.3535,-0.4403,-0.2546,-0.3424,-0.2273,0.5962,0.6197
0.3547,0.2208,0.2055,-0.0358,-0.4435,-0.2837,-0.2956,-0.314,0.0318,-0.265,-0.0476,-0.0192,-0.2885,-0.3467,0.5275,0.2838,0.3663,0.3408,0.2852,0.086,-0.2494,-0.1129,0.2134,-0.3402,-0.3877,-0.1465,-0.2862,-0.0529,0.5663,0.5648
0.313,0.1507,0.1938,-0.1147,-0.519,-0.3951,-0.3118,-0.2724,0.1434,-0.2522,0.0483,0.1047,-0.3069,-0.436,0.4999,0.1916,0.2929,0.215,0.2132,-0.0043,-0.3493,-0.1647,0.1268,-0.3522,-0.3458,-0.0681,-0.2495,0.0928,0.5311,0.4989
0.2701,0.0692,0.1732,-0.1894,-0.5638,-0.477,-0.2879,-0.1895,0.2697,-0.2019,0.1546,0.2041,-0.3254,-0.5284,0.426,0.072,0.1783,0.072,0.103,-0.11,-0.4567,-0.2534,0.0101,-0.3882,-0.3248,-0.0303,-0.2393,0.1926,0.4916,0.4257
0.2248,-0.0132,0.1411,-0.2504,-0.5681,-0.5186,-0.2193,-0.0669,0.4018,-0.1131,0.2667,0.2727,-0.338,-0.6099,0.3092,-0.0633,0.0304,-0.0771,-0.0368,-0.2192,-0.5597,-0.3711,-0.1257,-0.4418,-0.3308,-0.0359,-0.257,0.2378,0.4486,0.3485
0.1767,-0.0853,0.0999,-0.2901,-0.5297,-0.5164,-0.11,0.0882,0.5294,0.0086,0.3784,0.3087,-0.3405,-0.6679,0.1598,-0.2015,-0.1366,-0.2225,-0.1924,-0.3211,-0.6482,-0.5046,-0.2661,-0.5032,-0.3638,-0.0789,-0.2981,0.2302,0.4036,0.271
0.1272,-0.1381,0.0561,-0.3061,-0.4551,-0.4753,0.0278,0.2628,0.6414,0.1522,0.4819,0.3144,-0.3322,-0.6942,-0.0051,-0.3308,-0.3046,-0.3554,-0.3466,-0.4078,-0.7162,-0.6381,-0.3954,-0.5611,-0.4179,-0.1456,-0.353,0.1802,0.3589,0.1979
0.0801,-0.1683,0.0176,-0.3012,-0.3582,-0.4075,0.1762,0.4394,0.7273,0.3027,0.5689,0.2946,-0.3153,-0.6862,-0.1649,-0.443,-0.4553,-0.4677,-0.4817,-0.4762,-0.7619,-0.7554,-0.4988,-0.6044,-0.4823,-0.2184,-0.4092,0.1039,0.3166,0.1343
0.0406,-0.1783,-0.0099,-0.2827,-0.257,-0.3297,0.3152,0.5985,0.779,0.4437,0.6317,0.2551,-0.2946,-0.6474,-0.2994,-0.534,-0.5739,-0.5521,-0.5831,-0.5275,-0.7879,-0.8432,-0.5649,-0.6252,-0.5444,-0.2796,-0.454,0.0187,0.2786,0.0847
0.0153,-0.1757,-0.0255,-0.2604,-0.1694,-0.258,0.4274,0.7221,0.7923,0.5601,0.664,0.2017,-0.2755,-0.5863,-0.3927,-0.604,-0.6519,-0.6027,-0.6418,-0.5661,-0.7997,-0.8928,-0.5875,-0.6201,-0.5922,-0.3162,-0.4783,-0.0616,0.2454,0.052
0.0096,-0.1687,-0.0329,-0.2426,-0.108,-0.205,0.5012,0.7964,0.768,0.6411,0.6626,0.139,-0.2625,-0.5141,-0.4358,-0.6553,-0.6879,-0.6151,-0.6552,-0.5971,-0.8035,-0.9018,-0.5664,-0.5912,-0.6176,-0.3224,-0.4784,-0.129,0.2171,0.0371
0.027,-0.1629,-0.0385,-0.2334,-0.0776,-0.1765,0.5331,0.8145,0.7115,0.6805,0.6278,0.0706,-0.2577,-0.4421,-0.4276,-0.6908,-0.6864,-0.5871,-0.6277,-0.6239,-0.8041,-0.8736,-0.5069,-0.5456,-0.6174,-0.3006,-0.457,-0.1829,0.1935,0.0383
0.0675,-0.1584,-0.0486,-0.2312,-0.0744,-0.1712,0.5266,0.7778,0.632,0.6782,0.5633,-0.0007,-0.2608,-0.3793,-0.375,-0.7119,-0.6562,-0.5205,-0.5688,-0.6465,-0.8035,-0.8168,-0.4193,-0.4936,-0.5937,-0.2599,-0.4225,-0.2285,0.1751,0.0523
0.1279,-0.1497,-0.0662,-0.2295,-0.0882,-0.1825,0.4911,0.6947,0.5407,0.6386,0.4766,-0.0718,-0.2693,-0.3316,-0.2913,-0.7184,-0.6074,-0.4215,-0.4912,-0.662,-0.8012,-0.7434,-0.3167,-0.4471,-0.5534,-0.2139,-0.3864,-0.2735,0.1632,0.0741
0.2021,-0.1281,-0.0895,-0.2197,-0.1059,-0.201,0.4377,0.5796,0.4489,0.5702,0.3774,-0.1389,-0.2803,-0.3011,-0.1937,-0.7096,-0.5493,-0.3025,-0.4085,-0.6658,-0.7945,-0.6668,-0.2129,-0.4174,-0.5059,-0.1769,-0.3606,-0.3248,0.1601,0.0989
0.2823,-0.0853,-0.1116,-0.1945,-0.1159,-0.2182,0.377,0.4491,0.3656,0.483,0.2768,-0.1971,-0.2913,-0.2872,-0.1012,-0.6852,-0.489,-0.1804,-0.3327,-0.6541,-0.781,-0.5998,-0.121,-0.4127,-0.4623,-0.1609,-0.3545,-0.3856,0.1685,0.1222
0.3605,-0.017,-0.122,-0.1501,-0.1115,-0.2288,0.3166,0.3198,0.2971,0.3876,0.1855,-0.2411,-0.3018,-0.2883,-0.0301,-0.6473,-0.4308,-0.075,-0.2728,-0.6256,-0.76,-0.5528,-0.0515,-0.4373,-0.4325,-0.1731,-0.3728,-0.4538,0.1907,0.141
0.43,0.0753,-0.1093,-0.0876,-0.0918,-0.2314,0.2612,0.2062,0.2466,0.2941,0.113,-0.2658,-0.313,-0.3027,0.0086,-0.6003,-0.3772,-0.0042,-0.2343,-0.5833,-0.7336,-0.5328,-0.0113,-0.4908,-0.4251,-0.2148,-0.4147,-0.5222,0.228,0.1537
0.4861,0.1844,-0.0638,-0.0121,-0.061,-0.2275,0.2137,0.1204,0.2165,0.2121,0.0668,-0.2675,-0.3269,-0.3296,0.0117,-0.5506,-0.3302,0.0196,-0.2194,-0.5331,-0.7065,-0.543,-0.0039,-0.5685,-0.4454,-0.2816,-0.4742,-0.5809,0.2797,0.1597
0.5275,0.299,0.0186,0.0694,-0.0253,-0.2186,0.1779,0.0725,0.2103,0.1506,0.0526,-0.2455,-0.345,-0.3689,-0.0155,-0.5054,-0.2924,-0.0066,-0.2274,-0.4828,-0.6849,-0.5825,-0.0293,-0.6619,-0.4955,-0.364,-0.541,-0.6196,0.3425,0.1589
0.5561,0.4066,0.1352,0.1501,0.0091,-0.204,0.1594,0.0716,0.2344,0.119,0.0744,-0.2032,-0.3673,-0.4203,-0.0604,-0.4705,-0.268,-0.0745,-0.2559,-0.4398,-0.675,-0.6469,-0.0845,-0.7604,-0.5732,-0.4493,-0.6032,-0.6314,0.4103,0.1507
0.5758,0.4956,0.2754,0.2245,0.0387,-0.1797,0.166,0.1257,0.2981,0.1255,0.1339,-0.1485,-0.3922,-0.4828,-0.1069,-0.4494,-0.2629,-0.1658,-0.3019,-0.4095,-0.6809,-0.7291,-0.1642,-0.8528,-0.6714,-0.5237,-0.6494,-0.6144,0.4744,0.1339
0.5908,0.556,0.4218,0.2878,0.0617,-0.1402,0.2049,0.2404,0.4126,0.1761,0.2298,-0.0942,-0.4177,-0.5546,-0.1401,-0.4439,-0.2844,-0.256,-0.3626,-0.3954,-0.7052,-0.8214,-0.261,-0.9295,-0.7786,-0.5741,-0.6717,-0.5733,0.5242,0.1061
0.6017,0.5783,0.5523,0.3334,0.0753,-0.083,0.2785,0.4167,0.587,0.2722,0.3566,-0.0571,-0.4441,-0.6346,-0.1518,-0.4562,-0.3406,-0.3215,-0.4375,-0.4006,-0.7492,-0.9174,-0.3671,-0.9843,-0.8791,-0.5896,-0.6675,-0.5186,0.5476,0.0638
0.6019,0.5513,0.6413,0.3494,0.072,-0.0139,0.3806,0.6482,0.8256,0.4076,0.5038,-0.0555,-0.4765,-0.7249,-0.1461,-0.492,-0.4402,-0.3487,-0.5289,-0.4315,-0.8163,-1.0149,-0.4758,-1.0163,-0.9548,-0.5622,-0.64,-0.4642,0.5318,0.002
0.5755,0.4598,0.661,0.3163,0.0358,0.0497,0.4936,0.9201,1.1244,0.5683,0.6568,-0.1057,-0.5258,-0.8327,-0.1424,-0.5643,-0.5917,-0.341,-0.6438,-0.5008,-0.9144,-1.117,-0.583,-1.0299,-0.9863,-0.4863,-0.597,-0.4231,0.4628,-0.0863
0.4969,0.2844,0.583,0.2071,-0.0577,0.0776,0.5897,1.2089,1.4696,0.7331,0.7998,-0.2166,-0.6082,-0.9714,-0.1747,-0.6941,-0.8029,-0.322,-0.7928,-0.6287,-1.0576,-1.2329,-0.6883,-1.0331,-0.9556,-0.3573,-0.5476,-0.4029,0.3266,-0.2102
0.3345,0.0037,0.3798,-0.0089,-0.2385,0.0319,0.6363,1.4852,1.8385,0.8776,0.9192,-0.3847,-0.741,-1.1584,-0.2859,-0.9085,-1.0786,-0.3324,-0.989,-0.8415,-1.265,-1.3754,-0.7948,-1.0339,-0.8474,-0.1702,-0.4973,-0.4012,0.1094,-0.38
0.0573,-0.3999,0.0301,-0.3585,-0.5349,-0.1253,0.6037,1.7171,2.2014,0.9801,1.0081,-0.5907,-0.9365,-1.4102,-0.5183,-1.2348,-1.4193,-0.4191,-1.2437,-1.1657,-1.556,-1.5571,-0.9075,-1.0361,-0.6499,0.0832,-0.4429,-0.4025,-0.1992,-0.6052
-0.3548,-0.9336,-0.4755,-0.8558,-0.9636,-0.4203,0.4748,1.8748,2.5251,1.0277,1.0694,-0.7981,-1.1945,-1.7356,-0.9008,-1.6912,-1.818,-0.6211,-1.5623,-1.6188,-1.9433,-1.7851,-1.0297,-1.034,-0.3564,0.4142,-0.3687,-0.3783,-0.6029,-0.8901
-0.9014,-1.5864,-1.1266,-1.4931,-1.5208,-0.8582,0.2529,1.9347,2.7771,1.0222,1.1171,-0.9551,-1.4958,-2.1275,-1.4366,-2.2778,-2.2589,-0.9539,-1.9391,-2.2002,-2.4245,-2.0551,-1.1601,-1.0097,0.0345,0.8379,-0.2452,-0.2886,-1.094,-1.2297
-1.5541,-2.3245,-1.8864,-2.235,-2.1751,-1.4153,-0.034,1.8826,2.9298,0.9826,1.1751,-1.001,-1.7997,-2.558,-2.0945,-2.968,-2.7153,-1.3997,-2.3529,-2.883,-2.9746,-2.3474,-1.2887,-0.9326,0.5176,1.3693,-0.0311,-0.0875,-1.6492,-1.6058
-2.2546,-3.0896,-2.6891,-3.0174,-2.8665,-2.0381,-0.3348,1.7144,2.9637,0.9433,1.2724,-0.8753,-2.0455,-2.9762,-2.8076,-3.7058,-3.1502,-1.9054,-2.7654,-3.6103,-3.5434,-2.6255,-1.3965,-0.7625,1.0802,2.0188,0.3196,0.2686,-2.2285,-1.9856
-2.9191,-3.8034,-3.4444,-3.7534,-3.5119,-2.649,-0.5829,1.4363,2.8689,0.9481,1.4361,-0.53,-2.1606,-3.3129,-3.4789,-4.4087,-3.5175,-2.391,-3.1232,-4.2985,-4.0577,-2.8392,-1.4559,-0.4571,1.7003,2.7851,0.8469,0.8105,-2.7762,-2.3228
-3.4498,-4.376,-4.0488,-4.3441,-4.0163,-3.1573,-0.7084,1.062,2.6452,1.0394,1.6832,0.0577,-2.0747,-3.4908,-3.9977,-4.9778,-3.7673,-2.7638,-3.3648,-4.8477,-4.4312,-2.9321,-1.436,0.0171,2.3459,3.6476,1.5723,1.5452,-3.2265,-2.5631
-3.7513,-4.72,-4.4032,-4.695,-4.2891,-3.4746,-0.6538,0.6112,2.3015,1.2463,2.0132,0.8752,-1.7351,-3.4395,-4.2597,-5.3142,-3.8519,-2.9378,-3.431,-5.1581,-4.5791,-2.853,-1.3092,0.6731,2.9752,4.5619,2.486,2.4474,-3.513,-2.6527
-3.7481,-4.7651,-4.4326,-4.7326,-4.2614,-3.5309,-0.3872,0.1077,1.8539,1.5746,2.4044,1.8705,-1.1218,-3.1112,-4.1903,-5.3373,-3.7344,-2.8512,-3.277,-5.1491,-4.4357,-2.568,-1.0588,1.4936,3.538,5.4588,3.5405,3.4565,-3.5801,-2.5482
-3.4005,-4.4718,-4.1028,-4.4189,-3.9003,-3.2887,0.0879,-0.422,1.3249,2.0016,2.815,2.9555,-0.2571,-2.4945,-3.7617,-5.0015,-3.3961,-2.48,-2.8836,-4.7761,-3.9697,-2.0707,-0.6851,2.4274,3.9808,6.2508,4.6509,4.4806,-3.3936,-2.2276
-2.7148,-3.8403,-3.4303,-3.7601,-3.2173,-2.7509,0.7312,-0.9489,0.7425,2.478,3.1893,4.0181,0.7934,-1.6202,-3.0013,-4.3079,-2.8411,-1.8427,-2.2634,-4.0422,-3.1939,-1.387,-0.2078,3.3928,4.2535,6.844,5.705,5.4095,-2.9493,-1.6966
-1.745,-2.9126,-2.4801,-2.8071,-2.2688,-1.9619,1.4708,-1.4426,0.1394,2.9365,3.4679,4.9392,1.9294,-0.5603,-1.9872,-3.3062,-2.099,-0.998,-1.4604,-3.0003,-2.1664,-0.573,0.3356,4.2884,4.318,7.1544,6.5805,6.1316,-2.2761,-0.9915
-0.5859,-1.7679,-1.3549,-1.6487,-1.1478,-1.0008,2.2165,-1.8728,-0.4481,3.3046,3.5994,5.6122,3.0308,0.5829,-0.8335,-2.0888,-1.2219,-0.034,-0.5451,-1.7461,-0.9828,0.2928,0.8955,5.0095,4.1556,7.1232,7.1662,6.5532,-1.4324,-0.1755
0.6428,-0.5108,-0.1753,-0.3974,0.0307,0.0307,2.8748,-2.2128,-0.9822,3.5193,3.5499,5.96,3.9781,1.6929,0.331,-0.7759,-0.2788,0.9469,0.3969,-0.4029,0.2387,1.1222,1.4176,5.4661,3.7718,6.7299,7.381,6.6139,-0.4981,0.6708
1.8162,0.7441,0.9412,0.8282,1.1483,1.0254,3.3663,-2.4419,-1.4273,3.5396,3.31,5.9461,4.6719,2.6579,1.3862,0.5043,0.6532,1.8454,1.278,0.8988,1.3775,1.8319,1.8521,5.5985,3.1978,5.997,7.1889,6.2966,0.4389,1.4622
2.826,1.8895,1.8989,1.9219,2.1021,1.8872,3.638,-2.5482,-1.753,3.3546,2.8969,5.5789,5.0487,3.3891,2.2399,1.6364,1.4991,2.5816,2.022,2.0425,2.3304,2.3567,2.1603,5.3876,2.4872,4.9883,6.605,5.6293,1.2957,2.1232
3.5961,2.8406,2.6358,2.8055,2.8198,2.546,3.6722,-2.53,-1.938,2.986,2.3511,4.9077,5.0905,3.8349,2.8398,2.5355,2.196,3.1059,2.5749,2.9435,3.0274,2.6592,2.3202,4.8585,1.7089,3.7995,5.6924,4.6791,2.0072,2.6005
4.0931,3.5461,3.1273,3.4379,3.2686,2.9661,3.487,-2.3944,-1.9721,2.4833,1.7298,4.0125,4.8244,3.9865,3.1765,3.1577,2.7006,3.4032,2.9106,3.5595,3.4414,2.7342,2.3287,4.076,0.9378,2.5437,4.5513,3.5412,2.5337,2.8711
4.3263,3.9918,3.3835,3.8172,3.4564,3.1491,3.131,-2.157,-1.8579,1.9148,1.0968,2.9899,4.3154,3.8765,3.2779,3.5022,2.9943,3.4898,3.0325,3.8919,3.5873,2.6068,2.2006,3.1337,0.2448,1.335,3.3026,2.3233,2.8642,2.9438
4.3401,4.1989,3.4409,3.9753,3.4251,3.1289,2.6723,-1.839,-1.6113,1.3542,0.512,1.938,3.6523,3.5697,3.1975,3.6055,3.0833,3.4057,2.9695,3.9795,3.5148,2.3263,1.965,2.1384,-0.3125,0.2726,2.0687,1.1302,3.0139,2.8548
4.2013,4.2151,3.3529,3.968,3.2394,2.9631,2.1855,-1.4658,-1.2599,0.8675,0.022,0.9426,2.9315,3.1485,3.0006,3.5283,2.9961,3.2049,2.7684,3.8852,3.2943,1.956,1.6607,1.1944,-0.6965,-0.5706,0.9571,0.0512,3.0171,2.6581
3.984,4.1029,3.1801,3.8613,2.9724,2.7202,1.7383,-1.0642,-0.8397,0.503,-0.3451,0.0682,2.2406,2.6967,2.7508,3.3407,2.7773,2.9449,2.4853,3.6812,3.0018,1.5618,1.3303,0.3891,-0.8922,-1.1548,0.0474,-0.8489,2.9191,2.4133
3.7554,3.9277,2.9816,3.7191,2.693,2.4677,1.3823,-0.6609,-0.3909,0.285,-0.5814,-0.6463,1.6468,2.2854,2.5007,3.1083,2.4794,2.6785,2.1762,3.4344,2.7046,1.2025,1.0142,-0.2172,-0.9075,-1.4743,-0.6157,-1.5329,2.7664,2.1749
3.5655,3.7459,2.8082,3.5926,2.455,2.2609,1.1471,-0.28,0.0478,0.2133,-0.6963,-1.1862,1.19,1.963,2.2871,2.8815,2.1547,2.4472,1.8885,3.197,2.4521,0.9209,0.7458,-0.5963,-0.7701,-1.5527,-1.0223,-1.9906,2.6,1.9827
3.4421,3.5976,2.6969,3.5145,2.2914,2.1361,1.0397,0.0589,0.445,0.268,-0.7105,-1.5561,0.8814,1.7502,2.13,2.6905,1.8477,2.2766,1.6564,3.0005,2.2709,0.7404,0.5471,-0.7512,-0.5223,-1.4359,-1.1927,-2.2336,2.4503,1.8584
3.3906,3.5021,2.6669,3.4964,2.2126,2.1077,1.0486,0.343,0.7809,0.4172,-0.6485,-1.7725,0.7079,1.6422,2.0339,2.5452,1.59,2.1751,1.4969,2.8559,2.1654,0.663,0.4267,-0.7114,-0.214,-1.1808,-1.1681,-2.2878,2.3346,1.8046
3.3968,3.458,2.7173,3.5305,2.2088,2.1692,1.1501,0.5684,1.0509,0.6264,-0.5311,-1.8555,0.6405,1.6144,1.9905,2.4381,1.3977,2.1344,1.4109,2.7569,2.1224,0.6729,0.3794,-0.5241,0.1045,-0.8456,-0.9991,-2.1857,2.2576,1.8083
3.4328,3.4468,2.8271,3.5938,2.2549,2.297,1.3157,0.7403,1.2653,0.8665,-0.3704,-1.8234,0.6433,1.6313,1.9803,2.3502,1.2714,2.1318,1.3847,2.6851,2.1167,0.7409,0.388,-0.2437,0.3905,-0.4796,-0.7352,-1.9593,2.212,1.8451
3.4625,3.4383,2.958,3.6543,2.3174,2.4575,1.52,0.8735,1.4478,1.1204,-0.1676,-1.6883,0.6837,1.6559,1.9755,2.2565,1.1983,2.1351,1.394,2.6152,2.1182,0.8308,0.4271,0.0784,0.6141,-0.1174,-0.4154,-1.6352,2.1808,1.8847
3.4477,3.3979,3.0616,3.6774,2.3613,2.6139,1.7452,0.9898,1.6307,1.3852,0.0853,-1.4559,0.7395,1.658,1.9422,2.1302,1.1552,2.1077,1.4085,2.5196,2.0976,0.9065,0.4679,0.4019,0.7624,0.2246,-0.0632,-1.2325,2.141,1.8958
3.3541,3.2933,3.0895,3.6324,2.3568,2.7331,1.9845,1.1156,1.8482,1.6706,0.4015,-1.1276,0.8036,1.6199,1.8452,1.9471,1.1128,2.0147,1.3965,2.3728,2.0306,0.9379,0.4836,0.7035,0.8392,0.5465,0.3145,-0.7638,2.067,1.8504
3.1563,3.1004,3.0037,3.4967,2.2834,2.7909,2.2404,1.2766,2.1302,1.9947,0.7931,-0.7049,0.8835,1.5377,1.6547,1.6876,1.0395,1.8291,1.33,2.1539,1.9018,0.9055,0.4538,0.9776,0.8624,0.8607,0.7245,-0.2383,1.9362,1.7277
2.8425,2.8066,2.7856,3.2591,2.1322,2.7741,2.5219,1.4933,2.4956,2.3763,1.2648,-0.1944,0.9977,1.4203,1.3528,1.3394,0.906,1.5374,1.1879,1.8494,1.705,0.8022,0.3677,1.2336,0.8587,1.1845,1.1802,0.3337,1.7326,1.5166
2.4161,2.4118,2.441,2.9196,1.9049,2.6808,2.8381,1.7767,2.9486,2.8269,1.8091,0.3878,1.1682,1.2848,0.9401,0.8977,0.6887,1.1434,0.9591,1.4535,1.4431,0.6333,0.2248,1.4893,0.8564,1.5326,1.6932,0.9359,1.4506,1.2175
1.8959,1.9262,1.9986,2.488,1.6115,2.5181,3.1931,2.1257,3.4775,3.3452,2.4035,1.0126,1.4125,1.151,0.437,0.3662,0.3731,0.6688,0.6431,0.9692,1.1256,0.4132,0.0345,1.7632,0.8791,1.9108,2.2656,1.5432,1.0957,0.8414
1.3129,1.3674,1.5031,1.9812,1.267,2.2992,3.5818,2.528,4.0567,3.913,3.0114,1.6384,1.7363,1.0357,-0.1188,-0.2433,-0.0438,0.1498,0.2505,0.4077,0.7672,0.1626,-0.1872,2.0675,0.9416,2.3122,2.8844,2.1211,0.6843,0.4089
0.7056,0.7577,1.0055,1.42,0.8883,2.0405,3.9892,2.9624,4.6514,4.4971,3.5862,2.2135,2.13,0.9493,-0.6807,-0.9114,-0.5511,-0.3699,-0.1986,-0.2122,0.3852,-0.0965,-0.4202,2.4029,1.0479,2.7181,3.5203,2.6281,0.2402,-0.0522
0.1138,0.1216,0.5522,0.8284,0.4927,1.7599,4.3919,3.4039,5.2234,5.0533,4.078,2.6824,2.5678,0.8949,-1.2038,-1.6119,-1.1233,-0.8474,-0.6757,-0.8647,-0.0016,-0.3432,-0.6437,2.7574,1.1916,3.1,4.1302,3.0202,-0.2082,-0.5105
-0.4265,-0.5146,0.176,0.2315,0.0974,1.4754,4.7624,3.828,5.737,5.5338,4.4409,2.9923,3.0115,0.8687,-1.6542,-2.3133,-1.7217,-1.2495,-1.1469,-1.5189,-0.3743,-0.5599,-0.8384,3.1076,1.3586,3.4248,4.6627,3.2578,-0.6324,-0.9343
-0.8885,-1.1238,-0.1079,-0.344,-0.2812,1.204,5.0731,4.215,6.1639,5.8945,4.6401,3.1013,3.4155,0.8622,-2.0158,-2.9819,-2.2991,-1.5569,-1.5774,-2.1421,-0.7153,-0.7344,-0.9891,3.4229,1.5301,3.6608,5.0661,3.3115,-1.0072,-1.2959
-1.2578,-1.6788,-0.3014,-0.8722,-0.6279,0.9604,5.3004,4.5513,6.4863,6.1014,4.6571,2.9849,3.7334,0.8635,-2.2909,-3.5859,-2.8083,-1.7659,-1.9365,-2.7035,-1.0103,-0.8603,-1.0866,3.6707,1.6863,3.7833,5.2965,3.168,-1.3149,-1.5753
-1.5336,-2.1556,-0.4186,-1.3301,-0.9303,0.7545,5.4273,4.8296,6.6973,6.1356,4.4923,2.6411,3.9248,0.8589,-2.4969,-4.0996,-3.2108,-1.8852,-2.2034,-3.1795,-1.2512,-0.9378,-1.1294,3.8223,1.8101,3.7803,5.3258,2.8338,-1.5466,-1.764
-1.7284,-2.5372,-0.4785,-1.7018,-1.1812,0.5902,5.4445,5.0476,6.8008,5.9956,4.1655,2.0922,3.9601,0.8342,-2.6596,-4.5089,-3.4864,-1.9313,-2.3716,-3.5583,-1.4374,-0.9736,-1.1246,3.8581,1.89,3.6557,5.1474,2.3372,-1.7043,-1.8662
-1.8644,-2.8186,-0.4986,-1.9823,-1.3805,0.4636,5.351,5.2054,6.8092,5.6976,3.7132,1.3845,3.8253,0.7755,-2.8052,-4.8135,-3.6366,-1.9236,-2.4492,-3.8422,-1.5773,-0.9788,-1.0861,3.7726,1.923,3.4315,4.7793,1.7269,-1.7992,-1.8982
-1.9692,-3.0089,-0.4918,-2.18,-1.5357,0.3634,5.1548,5.3041,6.74,5.2741,3.1839,0.5831,3.5246,0.6716,-2.9539,-5.0276,-3.6843,-1.881,-2.4571,-4.0466,-1.6859,-0.967,-1.0318,3.5766,1.916,3.1461,4.2644,1.0674,-1.8508,-1.8849
-2.0707,-3.1313,-0.4679,-2.3152,-1.6608,0.2731,4.8721,5.3445,6.613,4.7699,2.6315,-0.2354,3.0812,0.5161,-3.1158,-5.1767,-3.6678,-1.8209,-2.4238,-4.1967,-1.7816,-0.951,-0.9802,3.2972,1.8855,2.8504,3.6658,0.4321,-1.8827,-1.8545
-2.1932,-3.2186,-0.4371,-2.4164,-1.7726,0.1746,4.5277,5.3274,6.4479,4.2375,2.1091,-0.9923,2.5362,0.3105,-3.2905,-5.2922,-3.6312,-1.7594,-2.379,-4.3208,-1.8814,-0.9399,-0.9458,2.9753,1.8549,2.6004,3.0602,-0.1062,-1.9198,-1.834
-2.3539,-3.3056,-0.4156,-2.5136,-1.8863,0.0525,4.1533,5.2553,6.2619,3.7315,1.6623,-1.617,1.9451,0.0657,-3.4704,-5.4048,-3.6154,-1.7127,-2.3478,-4.4439,-1.9961,-0.9376,-0.937,2.66,1.8509,2.4489,2.5273,-0.485,-1.9848,-1.8443
-2.5615,-3.4211,-0.4262,-2.6318,-2.0112,-0.1016,3.7856,5.134,6.0702,3.303,1.3255,-2.0551,1.3721,-0.1976,-3.6457,-5.5384,-3.6497,-1.6971,-2.3465,-4.5824,-2.1273,-0.9423,-0.9549,2.4015,1.8976,2.4368,2.139,-0.6606,-2.0958,-1.8996
-2.8154,-3.5815,-0.4958,-2.7851,-2.1481,-0.2875,3.4626,4.974,5.8861,2.9938,1.1198,-2.2731,0.8825,-0.4511,-3.8103,-5.7065,-3.7483,-1.7291,-2.3812,-4.7411,-2.2665,-0.9475,-0.9943,2.243,2.012,2.5863,1.9496,-0.6134,-2.2642,-2.007
-3.1059,-3.7884,-0.648,-2.9746,-2.2888,-0.4962,3.2197,4.7912,5.7225,2.8329,1.0538,-2.2607,0.5343,-0.6633,-3.9662,-5.9107,-3.91,-1.8239,-2.4491,-4.9137,-2.3974,-0.945,-1.0465,2.2135,2.1983,2.8963,1.9878,-0.3496,-2.4938,-2.1689
-3.4162,-4.0289,-0.8939,-3.1888,-2.4174,-0.7113,3.0849,4.606,5.5926,2.8332,1.1249,-2.0292,0.3712,-0.8039,-4.1237,-6.1419,-4.1219,-1.9925,-2.5405,-5.085,-2.499,-0.9267,-1.1019,2.3238,2.4468,3.3425,2.2542,0.1011,-2.7805,-2.3852
-3.7245,-4.2795,-1.2244,-3.4062,-2.5134,-0.9121,3.0765,4.4413,5.5098,2.9919,1.3223,-1.6081,0.417,-0.8488,-4.2988,-6.3828,-4.3634,-2.2387,-2.6425,-5.2344,-2.5495,-0.8872,-1.1526,2.5652,2.7341,3.8807,2.7215,0.6901,-3.1122,-2.6541
-4.0074,-4.511,-1.6073,-3.5991,-2.5543,-1.0758,3.2011,4.3202,5.4863,3.2911,1.6281,-1.0404,0.6739,-0.7826,-4.5063,-6.6108,-4.6101,-2.5554,-2.7409,-5.3396,-2.5293,-0.8231,-1.1936,2.9125,3.0278,4.454,3.3406,1.3579,-3.4703,-2.9715
-4.2424,-4.6926,-1.9899,-3.738,-2.5189,-1.18,3.4539,4.2623,5.5302,3.7008,2.0192,-0.3778,1.1238,-0.5995,-4.7534,-6.8011,-4.8375,-2.9212,-2.8215,-5.3797,-2.4239,-0.7329,-1.221,3.3299,3.2925,5.0011,4.0482,2.0412,-3.8302,-3.3298
-4.4104,-4.796,-2.308,-3.7947,-2.3896,-1.2047,3.8198,4.2803,5.6423,4.183,2.4673,0.3251,1.7319,-0.3029,-5.0334,-6.9291,-5.0226,-3.3,-2.8706,-5.3371,-2.2241,-0.6147,-1.2317,3.778,3.4971,5.466,4.7755,2.6805,-4.1641,-3.7148
-4.4977,-4.7971,-2.4988,-3.7458,-2.1543,-1.134,4.2759,4.3766,5.8134,4.6961,2.9401,1.0149,2.4525,0.0968,-5.3246,-6.9726,-5.1448,-3.6436,-2.8745,-5.199,-1.9268,-0.4655,-1.2202,4.2196,3.621,5.805,5.4573,3.2258,-4.4434,-4.1054
-4.4967,-4.6774,-2.5137,-3.5747,-1.8074,-0.9576,4.7936,4.5426,6.0235,5.1986,3.4011,1.6428,3.2346,0.5844,-5.5924,-6.9128,-5.187,-3.8993,-2.8196,-4.957,-1.5341,-0.2803,-1.1788,4.6254,3.6574,5.9927,6.0381,3.6399,-4.6427,-4.474
-4.4063,-4.4247,-2.3287,-3.2723,-1.3502,-0.6713,5.3421,4.7594,6.2436,5.6536,3.8114,2.1661,4.0278,1.1417,-5.7959,-6.7353,-5.1347,-4.0195,-2.6922,-4.6073,-1.0526,-0.0519,-1.0965,4.9756,3.614,6.0229,6.4773,3.8993,-4.7433,-4.7906
-4.2313,-4.0343,-1.9485,-2.8378,-0.7908,-0.2775,5.8913,5.0001,6.4389,6.0312,4.131,2.5486,4.7877,1.7501,-5.8965,-6.4307,-4.9765,-3.9712,-2.4793,-4.1493,-0.4918,0.2275,-0.9608,5.2618,3.5105,5.9083,6.7513,3.9922,-4.7366,-5.0279
-3.9811,-3.5093,-1.4039,-2.2786,-0.1426,0.2146,6.4151,5.2349,6.5747,6.3106,4.3225,2.7611,5.48,2.3921,-5.8653,-5.995,-4.7035,-3.744,-2.1697,-3.5854,0.1373,0.5662,-0.7588,5.4857,3.3746,5.6756,6.8541,3.9168,-4.6267,-5.167
-3.6685,-2.8622,-0.7449,-1.6096,0.5766,0.7897,6.8936,5.4361,6.6221,6.4813,4.3545,2.782,6.0827,3.0527,-5.69,-5.4306,-4.3112,-3.3535,-1.755,-2.9204,0.8226,0.9711,-0.4793,5.6571,3.2368,5.361,6.7958,3.6799,-4.4303,-5.2014
-3.3082,-2.1149,-0.0303,-0.8526,1.3463,1.4275,7.3146,5.5827,6.5636,6.5425,4.207,2.5988,6.587,3.7204,-5.378,-4.7473,-3.8009,-2.8397,-1.2324,-2.1627,1.5517,1.4464,-0.1161,5.791,3.1244,5.003,6.5996,3.2957,-4.1745,-5.1395
-2.9164,-1.2977,0.6817,-0.0347,2.1445,2.1038,7.6734,5.6639,6.3959,6.5016,3.8753,2.2108,6.9954,4.3862,-4.956,-3.963,-3.1819,-2.2612,-0.6068,-1.3258,2.3111,1.9908,0.33,5.9033,3.0576,4.6371,6.297,2.7853,-3.8935,-5.0039
-2.5101,-0.4479,1.3416,0.8121,2.9488,2.7918,7.9711,5.6798,6.1314,6.3727,3.3725,1.6311,7.318,5.0418,-4.4665,-3.1056,-2.474,-1.6851,0.1068,-0.4303,3.0848,2.5953,0.8486,6.0067,3.0463,4.2897,5.9225,2.176,-3.6235,-4.8273
-2.1075,0.3927,1.9124,1.6526,3.7356,3.464,8.2116,5.6404,5.796,6.1733,2.7304,0.8889,7.5672,5.6767,-3.9618,-2.2126,-1.709,-1.1756,0.8811,0.4937,3.8526,3.2405,1.4182,6.1059,3.0883,3.9762,5.5084,1.5005,-3.3972,-4.648
-1.7279,1.1806,2.3713,2.4491,4.4804,4.0932,8.3985,5.5626,5.4244,5.9224,1.9968,0.03,7.7526,6.2753,-3.496,-1.331,-0.931,-0.7832,1.6762,1.4063,4.5889,3.8954,2.0061,6.1963,3.1707,3.7002,5.0811,0.7959,-3.2395,-4.5032
-1.3915,1.8747,2.7085,3.1641,5.1575,4.6548,8.5327,5.4661,5.0553,5.6386,1.2312,-0.8835,7.8779,6.815,-3.1177,-0.5133,-0.1938,-0.5366,2.4411,2.2593,5.2622,4.5185,2.5708,6.2632,3.2725,3.4557,4.6592,0.1022,-3.1644,-4.4235
-1.1189,2.4406,2.9249,3.7634,5.7412,5.1286,8.612,5.3707,4.7255,5.3401,0.4991,-1.7775,7.9393,7.267,-2.8635,0.1878,0.4454,-0.4408,3.1192,3.0017,5.8381,5.0618,3.0663,6.2856,3.3678,3.2317,4.254,-0.5391,-3.1741,-4.4298
-0.9291,2.854,3.0287,4.2202,6.2081,5.501,8.632,5.2937,4.4662,5.0445,-0.1345,-2.5715,7.9275,7.5996,-2.7537,0.7265,0.9332,-0.4805,3.6557,3.5858,6.2825,5.4778,3.4477,6.2405,3.431,3.0165,3.8716,-1.0881,-3.2605,-4.5318
-0.8374,3.104,3.0326,4.5187,6.5401,5.7663,8.5893,5.2487,4.2999,4.7699,-0.6106,-3.1875,7.8317,7.7839,-2.7914,1.0709,1.2288,-0.6286,4.006,3.9756,6.5673,5.7266,3.6784,6.109,3.4399,2.8018,3.516,-1.5093,-3.4093,-4.7302
-0.8532,3.1931,2.9516,4.6563,6.7276,5.9274,8.4841,5.2459,4.2402,4.5355,-0.882,-3.5595,7.6442,7.8003,-2.9643,1.208,1.3111,-0.8555,4.1431,4.1528,6.6754,5.7834,3.7358,5.8811,3.3801,2.5858,3.1916,-1.7753,-3.6037,-5.0192
-0.978,3.1359,2.8016,4.644,6.7724,5.9946,8.3231,5.2921,4.2919,4.3608,-0.9175,-3.6424,7.3652,7.6435,-3.249,1.145,1.1823,-1.1383,4.0622,4.1201,6.6042,5.643,3.6146,5.559,3.2464,2.3734,2.9045,-1.8698,-3.8288,-5.3895
-1.2047,2.9559,2.5997,4.5043,6.6881,5.985,8.1204,5.3908,4.452,4.263,-0.706,-3.4196,7.0046,7.3259,-3.6165,0.9085,0.867,-1.464,3.7808,3.9007,6.3675,5.3209,3.3277,5.1567,3.0435,2.1752,2.6623,-1.7903,-4.073,-5.8302
-1.5174,2.682,2.3634,4.2683,6.5001,5.92,7.8954,5.5421,4.71,4.2538,-0.259,-2.9067,6.5821,6.8768,-4.0366,0.5388,0.4079,-1.8292,3.3353,3.5343,5.994,4.8503,2.9033,4.6977,2.7842,2.0033,2.4715,-1.5507,-4.3289,-6.3288
-1.8934,2.3456,2.1099,3.9718,6.2429,5.8237,7.6702,5.7423,5.0478,4.3351,0.3879,-2.1519,6.1243,6.3385,-4.4827,0.0834,-0.1421,-2.2351,2.7744,3.0704,5.5239,4.2766,2.3801,4.2101,2.4865,1.8674,2.3342,-1.1808,-4.5917,-6.8703
-2.3056,1.9776,1.8547,3.6509,5.9559,5.7206,7.4655,5.9825,5.4396,4.4972,1.1765,-1.2317,5.6609,5.7603,-4.9328,-0.4099,-0.7283,-2.6814,2.1518,2.561,5.0031,3.6505,1.8013,3.7221,2.1701,1.7709,2.246,-0.7256,-4.8574,-7.4361
-2.725,1.6061,1.6106,3.3383,5.6787,5.633,7.2966,6.249,5.8531,4.7176,2.0299,-0.2421,5.2203,5.1913,-5.3694,-0.8994,-1.3016,-3.1596,1.5197,2.0531,4.478,3.0213,1.2097,3.2576,1.853,1.7088,2.1944,-0.2405,-5.1209,-8.0035
-3.1239,1.2549,1.387,3.0599,5.4456,5.5789,7.1707,6.5227,6.2511,4.9633,2.8604,0.7123,4.8268,4.6748,-5.7787,-1.3533,-1.8234,-3.6499,0.9241,1.5845,3.9899,2.4327,0.6438,2.8351,1.5507,1.6685,2.1616,0.2151,-5.3749,-8.5457
-3.4777,0.9418,1.1901,2.8332,5.2821,5.5695,7.0869,6.7805,6.5952,5.1949,3.579,1.5313,4.4991,4.2441,-6.1485,-1.7512,-2.2676,-4.1219,0.4026,1.1816,3.5721,1.9199,0.1366,2.4676,1.2752,1.6333,2.1278,0.5858,-5.6099,-9.0335
-3.7663,0.6783,1.0238,2.6666,5.2018,5.6081,7.0362,6.9972,6.8497,5.3724,4.1062,2.1305,4.2495,3.9212,-6.4683,-2.0825,-2.6189,-4.5394,-0.0168,0.8596,3.2477,1.5097,-0.2855,2.1646,1.0364,1.5871,2.0767,0.8285,-5.8151,-9.4379
-3.9761,0.4703,0.8893,2.5608,5.2061,5.69,7.0046,7.1491,6.9863,5.4611,4.383,2.4523,4.0844,3.7166,-6.7297,-2.3446,-2.871,-4.8683,-0.3154,0.6242,3.0296,1.2207,-0.6021,1.9342,0.8433,1.5194,1.9994,0.9181,-5.9799,-9.7334
-4.1005,0.3185,0.7862,2.5097,5.286,5.8035,6.9762,7.2168,6.9882,5.4384,4.3784,2.4718,4.0045,3.6309,-6.9264,-2.5397,-3.0229,-5.0845,-0.4836,0.4737,2.921,1.0637,-0.7988,1.7832,0.7046,1.4283,1.8969,0.8518,-6.0957,-9.9011
-4.1415,0.2202,0.7124,2.503,5.4237,5.9331,6.9366,7.1896,6.8529,5.297,4.0954,2.2003,4.0052,3.6559,-7.0554,-2.6734,-3.0776,-5.1787,-0.5216,0.4005,2.9161,1.0407,-0.8683,1.7165,0.6276,1.321,1.7791,0.6478,-6.1578,-9.932
-4.11,0.1691,0.6645,2.5275,5.5968,6.0616,6.8751,7.0669,6.593,5.0474,3.5708,1.6826,4.0752,3.775,-7.1166,-2.7536,-3.042,-5.1584,-0.4406,0.3914,3.0007,1.1432,-0.812,1.734,0.6164,1.2107,1.6614,0.3423,-6.1653,-9.829
-4.0244,0.1563,0.6379,2.5679,5.7806,6.1731,6.786,6.8598,6.2358,4.716,2.8712,0.9922,4.1969,3.9638,-7.1124,-2.7914,-2.9282,-5.0448,-0.263,0.4275,3.1525,1.3503,-0.6421,1.8269,0.669,1.1123,1.5596,-0.0175,-6.1217,-9.6071
-3.9076,0.1698,0.6275,2.6081,5.9506,6.2553,6.6687,6.5892,5.8194,4.3407,2.0852,0.2219,4.3458,4.1911,-7.0483,-2.8016,-2.7552,-4.8674,-0.022,0.4844,3.3417,1.6287,-0.3825,1.9758,0.7745,1.0371,1.4846,-0.3804,-6.0333,-9.2919
-3.7841,0.1951,0.6271,2.632,6.0851,6.3006,6.5264,6.2833,5.3881,3.9654,1.3121,-0.5271,4.4923,4.4199,-6.9329,-2.8021,-2.5492,-4.6564,0.2411,0.5337,3.533,1.9343,-0.0679,2.1505,0.913,0.9889,1.4388,-0.6991,-5.9084,-8.9162
-3.675,0.216,0.6303,2.6244,6.1666,6.3063,6.3653,5.9733,4.9868,3.6325,0.649,-1.1571,4.6052,4.6119,-6.778,-2.8132,-2.3418,-4.4375,0.4822,0.5455,3.6893,2.2182,0.26,2.3134,1.0564,0.9623,1.4153,-0.9357,-5.7549,-8.5149
-3.5959,0.2164,0.6299,2.5733,6.1836,6.2745,6.1927,5.6894,4.6546,3.3772,0.1781,-1.5853,4.6558,4.7322,-6.5977,-2.8547,-2.1658,-4.2279,0.6605,0.4935,3.7764,2.4339,0.5579,2.4253,1.1729,0.9446,1.3993,-1.066,-5.5796,-8.1202
-3.5544,0.1829,0.6196,2.4719,6.132,6.2116,6.0172,5.4564,4.4203,3.2231,-0.0439,-1.7545,4.6238,4.7551,-6.4074,-2.9426,-2.0502,-4.0368,0.7458,0.3595,3.7692,2.5456,0.788,2.4533,1.2323,0.9184,1.3727,-1.0812,-5.3873,-7.7569
-3.5506,0.1074,0.5943,2.3201,6.0163,6.1266,5.8474,5.2907,4.2983,3.1795,0.006,-1.64,4.5012,4.6695,-6.2217,-3.0861,-2.0145,-3.8683,0.7222,0.1377,3.6566,2.5349,0.9232,2.3775,1.2117,0.8669,1.3193,-0.9879,-5.181,-7.4401
-3.5781,-0.011,0.5523,2.1259,5.8491,6.0303,5.6918,5.1981,4.2869,3.2407,0.3139,-1.2536,4.2949,4.4815,-6.0531,-3.2852,-2.0652,-3.7249,0.5911,-0.1634,3.444,2.4044,0.9519,2.1959,1.1003,0.7772,1.2284,-0.8069,-4.9626,-7.1746
-3.626,-0.1648,0.4956,1.9048,5.6495,5.933,5.5575,5.1727,4.3685,3.3875,0.8307,-0.6432,4.0255,4.2138,-5.9097,-3.5303,-2.1946,-3.6105,0.3696,-0.5218,3.153,2.1763,0.8789,1.9248,0.9014,0.6433,1.0977,-0.5699,-4.7346,-6.9566
-3.6811,-0.3394,0.431,1.6774,5.4403,5.8418,5.4484,5.1973,4.5116,3.5896,1.4786,0.1123,3.7237,3.9015,-5.7946,-3.8034,-2.383,-3.5297,0.0871,-0.9052,2.818,1.888,0.7241,1.5959,0.6322,0.4666,0.9331,-0.3169,-4.5006,-6.7763
-3.7296,-0.515,0.3686,1.4671,5.2439,5.7596,5.3646,5.2457,4.6754,3.8095,2.1618,0.9126,3.425,3.5859,-5.7052,-4.0798,-2.602,-3.4863,-0.2194,-1.2759,2.4803,1.5848,0.5189,1.2501,0.32,0.2556,0.7467,-0.0906,-4.2657,-6.6201
-3.7588,-0.6696,0.3191,1.296,5.0796,5.6842,5.3017,5.2871,4.8166,4.0082,2.7809,1.6499,3.1631,3.307,-5.6344,-4.3319,-2.8193,-3.48,-0.511,-1.5965,2.1816,1.3125,0.3008,0.9307,-0.0017,0.024,0.5542,0.0688,-4.0364,-6.4736
-3.7579,-0.7824,0.2912,1.1818,4.9609,5.6099,5.2524,5.2916,4.8961,4.1513,3.2472,2.2243,2.9652,3.097,-5.5727,-4.5327,-3.0028,-3.5053,-0.7517,-1.8352,1.9577,1.1103,0.1081,0.6767,-0.2986,-0.2107,0.3725,0.1297,-3.8202,-6.3236
-3.7199,-0.8376,0.2881,1.135,4.8942,5.5291,5.2084,5.2356,4.8862,4.214,3.4958,2.5588,2.8483,2.9762,-5.51,-4.6598,-3.125,-3.5511,-0.913,-1.9699,1.8329,1.0053,-0.0265,0.517,-0.5411,-0.4297,0.217,0.0749,-3.6246,-6.1598
-3.6423,-0.8277,0.3076,1.1569,4.8786,5.4354,5.1625,5.1059,4.7751,4.1854,3.4946,2.6108,2.818,2.9511,-5.4377,-4.6987,-3.1663,-3.6022,-0.9766,-1.9911,1.8181,1.0101,-0.0796,0.4677,-0.7073,-0.6143,0.1009,-0.0953,-3.4558,-5.9757
-3.5279,-0.7558,0.3415,1.239,4.9065,5.3249,5.1108,4.9021,4.5678,4.0698,3.2483,2.3782,2.8698,3.0154,-5.3491,-4.645,-3.1174,-3.6413,-0.9368,-1.9021,1.9096,1.1225,-0.0403,0.5306,-0.7859,-0.7485,0.034,-0.3617,-3.318,-5.7693
-3.385,-0.6356,0.3778,1.3639,4.9654,5.1981,5.054,4.6371,4.2858,3.8855,2.7964,1.8995,2.9912,3.1539,-5.2394,-4.5055,-2.9807,-3.6509,-0.8,-1.7177,2.092,1.3273,0.0891,0.6947,-0.7767,-0.82,0.0231,-0.6887,-3.2128,-5.5423
-3.2258,-0.4895,0.4032,1.5089,5.0401,5.0592,4.9975,4.3351,3.9621,3.6621,2.2062,1.2478,3.1658,3.346,-5.1058,-4.2962,-2.7693,-3.6148,-0.5833,-1.4612,2.3414,1.6001,0.2942,0.9387,-0.6899,-0.8223,0.0709,-1.0297,-3.1387,-5.3005
-3.0641,-0.3436,0.4048,1.6501,5.1164,4.9163,4.9499,4.0271,3.6362,3.4353,1.5623,0.519,3.3763,3.571,-4.946,-4.0391,-2.5049,-3.5202,-0.311,-1.1601,2.6309,1.9121,0.5526,1.2352,-0.5441,-0.7556,0.1765,-1.334,-3.0907,-5.0512
-2.9114,-0.2219,0.3733,1.7679,5.1832,4.7791,4.9214,3.7453,3.3464,3.2404,0.9525,-0.1827,3.6078,3.8114,-4.7588,-3.7579,-2.2133,-3.3588,-0.0102,-0.8407,2.9356,2.2353,0.8376,1.5553,-0.3626,-0.6271,0.3347,-1.5552,-3.061,-4.8025
-2.7751,-0.1407,0.3043,1.8505,5.2349,4.6569,4.9202,3.5164,3.1232,3.1059,0.4543,-0.7614,3.8485,4.0544,-4.5432,-3.4726,-1.9204,-3.1287,0.2942,-0.5237,3.2362,2.5467,1.1243,1.8722,-0.1694,-0.4504,0.5362,-1.6592,-3.0387,-4.5607
-2.656,-0.1058,0.201,1.8956,5.2712,4.5567,4.9498,3.3559,2.9839,3.0482,0.1227,-1.1439,4.0902,4.2926,-4.2979,-3.1966,-1.6468,-2.8349,0.583,-0.2218,3.5216,2.8317,1.393,2.1647,0.0146,-0.2434,0.7675,-1.6297,-3.0115,-4.3294
-2.5495,-0.1114,0.0733,1.9103,5.2968,4.4823,5.007,3.2655,2.9296,3.068,-0.0179,-1.2914,4.3267,4.523,-4.0222,-2.9345,-1.4054,-2.4904,0.8457,0.0617,3.7884,3.0846,1.6329,2.4183,0.1744,-0.0267,1.0116,-1.4721,-2.9674,-4.1091
-2.447,-0.1429,-0.0626,1.9083,5.3192,4.4333,5.0813,3.2327,2.9455,3.1494,0.0242,-1.204,4.5516,4.745,-3.7162,-2.683,-1.1993,-2.1159,1.0805,0.3313,4.0389,3.3079,1.842,2.6253,0.3027,0.1793,1.2489,-1.2128,-2.8965,-3.898
-2.3396,-0.1812,-0.1878,1.9058,5.3458,4.4061,5.1558,3.2343,3.0045,3.2634,0.2106,-0.9197,4.757,4.9578,-3.3822,-2.4342,-1.0233,-1.7385,1.2924,0.5955,4.2785,3.5089,2.0253,2.7829,0.3992,0.3562,1.4583,-0.8954,-2.7929,-3.6928
-2.2212,-0.2075,-0.2842,1.9178,5.3816,4.3944,5.2098,3.2421,3.0727,3.3725,0.4819,-0.5054,4.9317,5.1591,-3.0259,-2.1798,-0.8666,-1.3895,1.4902,0.863,4.5118,3.6959,2.1912,2.8918,0.4687,0.4896,1.62,-0.5732,-2.656,-3.4907
-2.0908,-0.2083,-0.3388,1.9534,5.4272,4.3899,5.2215,3.2289,3.1163,3.4381,0.769,-0.0446,5.0614,5.343,-2.658,-1.9151,-0.7174,-1.0992,1.6819,1.138,4.7397,3.8742,2.3472,2.9536,0.5192,0.5705,1.717,-0.2997,-2.4912,-3.2906
-1.9532,-0.1785,-0.3472,2.0139,5.4772,4.3835,5.1719,3.1739,3.108,3.4276,1.0062,0.3788,5.1299,5.4999,-2.2941,-1.6428,-0.5674,-0.892,1.8707,1.4174,4.9578,4.0437,2.4962,2.9703,0.559,0.5963,1.7381,-0.1194,-2.3091,-3.0946
-1.8182,-0.1227,-0.3145,2.0915,5.5205,4.3651,5.0472,3.0659,3.0315,3.3202,1.1418,0.6944,5.1213,5.6167,-1.9542,-1.3739,-0.415,-0.7811,2.0535,1.6898,5.1556,4.1978,2.6356,2.9428,0.5954,0.5703,1.6789,-0.06,-2.1247,-2.9076
-1.6982,-0.0536,-0.255,2.1708,5.5419,4.3243,4.8415,2.9044,2.8833,3.1104,1.1465,0.8568,5.0233,5.6792,-1.6608,-1.1262,-0.2665,-0.7651,2.2198,1.937,5.3182,4.3246,2.7578,2.872,0.6326,0.5016,1.5434,-0.1281,-1.9542,-2.737
-1.6043,0.0108,-0.1888,2.2316,5.5245,4.2519,4.5578,2.6972,2.6717,2.8088,1.0164,0.8511,4.8304,5.6737,-1.4353,-0.9215,-0.1351,-0.8273,2.3545,2.137,5.4285,4.4095,2.8534,2.7591,0.6723,0.4036,1.3431,-0.3087,-1.8127,-2.5904
-1.5442,0.0515,-0.1375,2.2538,5.4538,4.1406,4.2083,2.4581,2.4142,2.44,0.7711,0.6934,4.5462,5.5911,-1.2933,-0.7801,-0.0376,-0.9381,2.4404,2.2685,5.4709,4.4391,2.9143,2.6071,0.7132,0.2923,1.0965,-0.5687,-1.7107,-2.4736
-1.5199,0.0537,-0.1193,2.222,5.3208,3.9874,3.8137,2.2024,2.1332,2.0389,0.4493,0.4252,4.185,5.4292,-1.2403,-0.7167,0.01,-1.0613,2.4634,2.3159,5.4347,4.4045,2.9364,2.4215,0.7528,0.1841,0.8268,-0.8631,-1.6525,-2.3889
-1.528,0.0094,-0.1457,2.1293,5.1261,3.7957,3.4008,1.9449,1.8522,1.6451,0.0998,0.1051,3.7713,5.1949,-1.2696,-0.7364,-0.0027,-1.1631,2.4156,2.2732,5.3177,4.3038,2.9206,2.212,0.7888,0.0945,0.5598,-1.1424,-1.6358,-2.3349
-1.5609,-0.0803,-0.2191,1.9799,4.8804,3.5763,3,1.6981,1.5919,1.2972,-0.2261,-0.2023,3.3379,4.9049,-1.3627,-0.8328,-0.0774,-1.22,2.298,2.1457,5.1273,4.1432,2.8729,1.992,0.8198,0.0363,0.3214,-1.3603,-1.6523,-2.3064
-1.6094,-0.2058,-0.3327,1.7882,4.6044,3.3472,2.6415,1.4716,1.3683,1.0275,-0.483,-0.436,2.922,4.5839,-1.4932,-0.9898,-0.2062,-1.2241,2.1208,1.9497,4.881,3.9364,2.8021,1.7782,0.8467,0.0189,0.135,-1.4798,-1.69,-2.2966
-1.6648,-0.3518,-0.472,1.5759,4.3246,3.1305,2.3505,1.272,1.1907,0.857,-0.6377,-0.5478,2.5603,4.2612,-1.6326,-1.1841,-0.3727,-1.1832,1.9016,1.7094,4.6031,3.7023,2.7183,1.5888,0.8721,0.0468,0.0189,-1.4778,-1.7355,-2.2974
-1.7205,-0.5005,-0.6156,1.3668,4.0683,2.9483,2.1436,1.1022,1.0611,0.7927,-0.6729,-0.5084,2.2831,3.9661,-1.7564,-1.3902,-0.5558,-1.1164,1.6618,1.4523,4.321,3.4618,2.6307,1.4409,0.899,0.1194,-0.0162,-1.3476,-1.7756,-2.3015
-1.7734,-0.6353,-0.7391,1.1823,3.8574,2.8175,2.0258,0.9617,0.9744,0.8267,-0.5886,-0.31,2.1101,3.7228,-1.8482,-1.5853,-0.7341,-1.0464,1.4228,1.2036,4.0594,3.2342,2.546,1.3468,0.9292,0.2295,0.0311,-1.0993,-1.7992,-2.3024
-1.8233,-0.7438,-0.8176,1.0363,3.7039,2.7461,1.9902,0.847,0.9198,0.9376,-0.401,0.033,2.0469,3.5467,-1.9015,-1.7528,-0.8906,-0.9927,1.2015,0.9823,3.8366,3.0342,2.4683,1.3119,0.9619,0.3638,0.1518,-0.7581,-1.7976,-2.2946
-1.8716,-0.8194,-0.8316,0.9341,3.608,2.7316,2.0196,0.7517,0.8826,1.0949,-0.1391,0.4871,2.085,3.4423,-1.9185,-1.8848,-1.016,-0.9658,1.0085,0.7986,3.6615,2.8697,2.3992,1.333,0.9936,0.5042,0.3284,-0.3607,-1.7654,-2.2741
-1.92,-0.8618,-0.7709,0.8712,3.5584,2.762,2.0905,0.6686,0.8473,1.2647,0.1602,1.0055,2.204,3.404,-1.9072,-1.9817,-1.1098,-0.9662,0.8465,0.6537,3.534,2.7418,2.339,1.3991,1.0194,0.6311,0.5375,0.0504,-1.7009,-2.2377
-1.9686,-0.8764,-0.6379,0.8359,3.5363,2.8185,2.178,0.5913,0.8004,1.4157,0.458,1.5348,2.3761,3.4178,-1.8785,-2.0507,-1.1798,-0.9857,0.7117,0.5414,3.4465,2.6459,2.2875,1.4937,1.0347,0.727,0.7542,0.4335,-1.6064,-2.1835
-2.0155,-0.8738,-0.4484,0.812,3.5193,2.8797,2.2597,0.5152,0.7326,1.5238,0.7184,2.0225,2.5706,3.4647,-1.8433,-2.1035,-1.2399,-1.0114,0.5957,0.4507,3.3864,2.5729,2.2445,1.5979,1.0368,0.78,0.9561,0.7536,-1.4879,-2.1108
-2.0571,-0.8678,-0.2283,0.7826,3.486,2.9258,2.319,0.4384,0.6406,1.575,0.9132,2.4236,2.7585,3.5238,-1.81,-2.1538,-1.3064,-1.0305,0.4879,0.3693,3.3397,2.5118,2.2094,1.6936,1.0257,0.7864,1.1258,0.9865,-1.355,-2.0211
-2.0901,-0.8739,-0.0093,0.7331,3.4201,2.9416,2.3458,0.3618,0.527,1.5654,1.0244,2.7057,2.9157,3.5751,-1.7847,-2.2146,-1.395,-1.0345,0.3774,0.285,3.2924,2.4504,2.1796,1.7656,1.0039,0.7504,1.2522,1.1205,-1.2198,-1.9186
-2.1135,-0.9062,0.1769,0.6535,3.3117,2.9181,2.3357,0.2882,0.4,1.4994,1.0454,2.8517,3.0243,3.601,-1.771,-2.2971,-1.5177,-1.0226,0.2553,0.1878,3.2323,2.3771,2.1503,1.8034,0.9751,0.6823,1.3302,1.1567,-1.0949,-1.8101
-2.13,-0.9747,0.3036,0.5405,3.1579,2.8529,2.2889,0.2217,0.2711,1.387,0.9803,2.861,3.0736,3.5883,-1.7715,-2.4084,-1.68,-1.0016,0.1154,0.0709,3.1499,2.2823,2.1141,1.8018,0.9428,0.5959,1.3598,1.1061,-0.9926,-1.7049
-2.1463,-1.0817,0.354,0.3973,2.9626,2.7498,2.2079,0.1662,0.1533,1.2406,0.8426,2.7474,3.0599,3.5295,-1.7885,-2.5504,-1.8795,-0.9848,-0.0441,-0.0686,3.0395,2.1602,2.0627,1.7605,0.9094,0.5047,1.3442,0.9865,-0.9222,-1.6135
-2.1714,-1.2199,0.3237,0.2341,2.7348,2.6176,2.0966,0.1246,0.0579,1.073,0.6519,2.536,2.9856,3.4236,-1.8251,-2.7175,-2.1044,-0.988,-0.2201,-0.2284,2.8998,2.0092,1.989,1.6831,0.8752,0.4184,1.2883,0.8186,-0.8888,-1.5459
-2.2132,-1.3715,0.2224,0.0668,2.4883,2.4692,1.9596,0.0981,-0.0077,0.8955,0.4312,2.2585,2.8585,3.276,-1.8835,-2.8962,-2.3342,-1.0251,-0.4041,-0.4001,2.7347,1.8332,1.8902,1.5756,0.8381,0.3413,1.1968,0.622,-0.8917,-1.5093
-2.2758,-1.5095,0.0728,-0.0845,2.2398,2.3199,1.8025,0.0868,-0.0412,0.7179,0.2033,1.9478,2.6901,3.0983,-1.9641,-3.0649,-2.5412,-1.1034,-0.5828,-0.5694,2.5533,1.641,1.7685,1.445,0.7941,0.2712,1.0743,0.413,-0.9239,-1.5066
-2.3557,-1.6014,-0.0924,-0.1979,2.0086,2.1869,1.6327,0.0896,-0.0453,0.5488,-0.011,1.6348,2.495,2.9068,-2.0625,-3.196,-2.6948,-1.2203,-0.7387,-0.7162,2.3699,1.4455,1.6326,1.2988,0.7395,0.2016,0.9253,0.2036,-0.9727,-1.5349
-2.4415,-1.6152,-0.2367,-0.2526,1.814,2.0871,1.4601,0.1059,-0.026,0.3968,-0.194,1.3458,2.2899,2.7202,-2.1679,-3.2592,-2.7662,-1.3622,-0.853,-0.8172,2.2025,1.2619,1.4957,1.1449,0.6723,0.1251,0.7561,0.0032,-1.0218,-1.5854
-2.5148,-1.5258,-0.3262,-0.2323,1.6737,2.0355,1.2973,0.1354,0.009,0.2706,-0.3321,1.1014,2.0921,2.5568,-2.263,-3.2273,-2.7346,-1.5054,-0.9085,-0.8498,2.0701,1.1063,1.3739,0.9927,0.5944,0.0373,0.5762,-0.1794,-1.0538,-1.6443
-2.5541,-1.3208,-0.3375,-0.1294,1.5999,2.042,1.158,0.1787,0.0522,0.1786,-0.4161,0.9161,1.9187,2.4319,-2.3261,-3.0821,-2.5913,-1.6219,-0.8931,-0.7972,1.9895,0.9924,1.2825,0.8531,0.5122,-0.0604,0.3996,-0.3352,-1.054,-1.6951
-2.5396,-1.0048,-0.2628,0.0533,1.5967,2.1093,1.0551,0.2357,0.0978,0.1275,-0.4412,0.7985,1.7839,2.3546,-2.3357,-2.8194,-2.3433,-1.6857,-0.8034,-0.6529,1.9712,0.93,1.2333,0.7379,0.4358,-0.1599,0.2433,-0.4542,-1.013,-1.7215
-2.4591,-0.6004,-0.1118,0.3009,1.6577,2.231,0.9974,0.3053,0.1418,0.1205,-0.4076,0.7513,1.6973,2.3264,-2.276,-2.4524,-2.0124,-1.6808,-0.6466,-0.4247,2.016,0.9219,1.231,0.6588,0.3763,-0.2477,0.1257,-0.527,-0.9298,-1.7118
-2.3117,-0.1457,0.0899,0.5873,1.7656,2.3914,0.9872,0.3841,0.1819,0.1549,-0.3206,0.7709,1.6617,2.3403,-2.1424,-2.0109,-1.6327,-1.606,-0.4405,-0.1348,2.1134,0.9633,1.2715,0.6249,0.3436,-0.308,0.0628,-0.5466,-0.8124,-1.6615
-2.1101,0.3111,0.3068,0.8786,1.8933,2.5671,1.0184,0.4664,0.2175,0.2219,-0.1906,0.8486,1.6719,2.3816,-1.9444,-1.5388,-1.2462,-1.4762,-0.2125,0.1822,2.2416,1.0407,1.342,0.6396,0.3431,-0.3272,0.0648,-0.5101,-0.6769,-1.5764
-1.8788,0.7186,0.5012,1.1372,2.0078,2.7304,1.0766,0.5441,0.2487,0.3067,-0.0323,0.9702,1.7147,2.4293,-1.7057,-1.0874,-0.8971,-1.319,0.0043,0.4839,2.3704,1.1335,1.4218,0.6992,0.3744,-0.2971,0.1332,-0.4202,-0.5458,-1.4724
-1.6498,1.0299,0.6415,1.3272,2.0753,2.8528,1.1408,0.6079,0.2754,0.39,0.1363,1.1182,1.7706,2.4601,-1.4603,-0.7076,-0.6257,-1.1684,0.176,0.7267,2.4658,1.2166,1.4862,0.7925,0.4308,-0.2171,0.2599,-0.2846,-0.4432,-1.373
-1.4562,1.2105,0.7088,1.4196,2.0666,2.9092,1.1867,0.6486,0.2973,0.4514,0.296,1.2734,1.8179,2.4524,-1.2468,-0.4425,-0.4627,-1.0564,0.2727,0.8731,2.496,1.2641,1.5107,0.9024,0.5011,-0.0948,0.4286,-0.1159,-0.3905,-1.3044
-1.3248,1.243,0.7001,1.3978,1.9629,2.8824,1.1919,0.6586,0.3135,0.473,0.4285,1.4167,1.8362,2.3902,-1.0998,-0.3198,-0.4254,-1.0063,0.2744,0.8981,2.4379,1.255,1.4754,1.009,0.5717,0.0563,0.618,0.0704,-0.4017,-1.2892
-1.2705,1.1301,0.6275,1.2601,1.7594,2.7654,1.1401,0.6339,0.3223,0.4429,0.5193,1.5313,1.811,2.2662,-1.0421,-0.3479,-0.5149,-1.0272,0.174,0.793,2.2812,1.1768,1.3702,1.0937,0.6301,0.2185,0.8048,0.2567,-0.4795,-1.3397
-1.2943,0.8938,0.5129,1.0202,1.4665,2.5637,1.0252,0.5748,0.3218,0.3575,0.5583,1.6036,1.736,2.0835,-1.0783,-0.5144,-0.7163,-1.1129,-0.0205,0.5675,2.0313,1.0287,1.1965,1.1421,0.667,0.3728,0.9674,0.4247,-0.6143,-1.4538
-1.384,0.5718,0.3814,0.7058,1.1087,2.2949,0.852,0.4867,0.31,0.2222,0.5415,1.6239,1.6144,1.8547,-1.1927,-0.7888,-1.0005,-1.2431,-0.2875,0.2474,1.7082,0.8219,0.9681,1.1464,0.6785,0.5015,1.0888,0.5563,-0.7856,-1.6143
-1.5189,0.2113,0.2549,0.354,0.7203,1.987,0.6366,0.3793,0.2858,0.0504,0.4709,1.5867,1.4574,1.5992,-1.3528,-1.128,-1.3291,-1.389,-0.5951,-0.129,1.3433,0.5777,0.7088,1.106,0.6663,0.5905,1.1571,0.6353,-0.9657,-1.7917
-1.6748,-0.1389,0.1484,0.0055,0.3396,1.6744,0.4022,0.2657,0.249,-0.1397,0.3534,1.4907,1.2815,1.3401,-1.517,-1.4831,-1.6591,-1.5198,-0.9063,-0.5178,0.9736,0.3237,0.4486,1.0261,0.637,0.6301,1.1663,0.6486,-1.125,-1.9506
-1.8287,-0.436,0.0691,-0.3015,0.0031,1.392,0.1751,0.1596,0.201,-0.3288,0.1996,1.3386,1.1039,1.0994,-1.6456,-1.8083,-1.9505,-1.6101,-1.1856,-0.8764,0.6348,0.0878,0.2176,0.9161,0.5995,0.6159,1.1154,0.5878,-1.2381,-2.0578
-1.963,-0.6505,0.0176,-0.538,-0.2614,1.1692,-0.0212,0.0728,0.1438,-0.5007,0.022,1.1367,0.9392,0.8935,-1.7116,-2.0678,-2.1717,-1.6454,-1.4052,-1.1708,0.3552,-0.1073,0.0407,0.7866,0.5627,0.5487,1.0074,0.4508,-1.2885,-2.0907
-2.0662,-0.7707,-0.0097,-0.6885,-0.4397,1.0242,-0.1712,0.0125,0.0796,-0.6458,-0.1671,0.8948,0.7958,0.7304,-1.7073,-2.2424,-2.306,-1.6234,-1.5499,-1.3812,0.1501,-0.2488,-0.0673,0.6472,0.5329,0.4341,0.8492,0.2426,-1.2724,-2.0422
-2.1339,-0.8036,-0.0186,-0.7539,-0.5334,0.9602,-0.2702,-0.0205,0.0099,-0.7617,-0.3568,0.626,0.675,0.6081,-1.6447,-2.3309,-2.3534,-1.5526,-1.6198,-1.5053,0.0195,-0.336,-0.1039,0.5055,0.5134,0.283,0.6506,-0.0232,-1.1984,-1.9219
-2.167,-0.7726,-0.0162,-0.7503,-0.5595,0.9651,-0.3257,-0.0318,-0.0648,-0.8535,-0.5386,0.3463,0.5713,0.516,-1.5505,-2.3488,-2.3306,-1.4474,-1.6285,-1.5571,-0.0504,-0.3791,-0.0779,0.3673,0.5051,0.111,0.4256,-0.3246,-1.0854,-1.7527
-2.1703,-0.7104,-0.0099,-0.7053,-0.5464,1.0142,-0.3545,-0.0322,-0.1449,-0.9314,-0.7063,0.0738,0.4754,0.4383,-1.4576,-2.3229,-2.2656,-1.3241,-1.6,-1.5633,-0.0835,-0.3952,-0.0065,0.2375,0.5078,-0.0623,0.1913,-0.6334,-0.9581,-1.5651
-2.1515,-0.6516,-0.006,-0.6511,-0.528,1.0758,-0.3784,-0.0351,-0.2306,-1.0071,-0.8562,-0.173,0.3773,0.358,-1.3946,-2.2838,-2.1899,-1.1975,-1.5613,-1.5555,-0.1075,-0.4035,0.0894,0.1214,0.522,-0.2156,-0.0324,-0.9181,-0.8412,-1.3892
-2.1201,-0.6237,-0.009,-0.6177,-0.5362,1.1181,-0.419,-0.0532,-0.3219,-1.0906,-0.9866,-0.3774,0.2694,0.2616,-1.3778,-2.2575,-2.1313,-1.0794,-1.5366,-1.5633,-0.1467,-0.4196,0.1904,0.0251,0.5494,-0.3288,-0.2254,-1.1493,-0.7542,-1.2487
-2.0865,-0.6423,-0.0208,-0.6269,-0.5947,1.1151,-0.4919,-0.0962,-0.4173,-1.1879,-1.0971,-0.5271,0.1492,0.1424,-1.4076,-2.2604,-2.1065,-0.978,-1.542,-1.6076,-0.2177,-0.4524,0.2812,-0.0453,0.5924,-0.3869,-0.3702,-1.3048,-0.708,-1.156
-2.0614,-0.7084,-0.0409,-0.6884,-0.7148,1.0517,-0.6035,-0.1682,-0.5142,-1.2992,-1.188,-0.6153,0.0199,0.0011,-1.4696,-2.2962,-2.1193,-0.8984,-1.583,-1.6971,-0.326,-0.5035,0.3528,-0.085,0.653,-0.3826,-0.4553,-1.3732,-0.7037,-1.112
-2.0546,-0.811,-0.0669,-0.8001,-0.8942,0.9258,-0.7499,-0.2671,-0.6088,-1.4186,-1.2594,-0.6419,-0.11,-0.1545,-1.5417,-2.3581,-2.1618,-0.8427,-1.6551,-1.8286,-0.4668,-0.5684,0.4013,-0.0923,0.7313,-0.318,-0.4771,-1.3555,-0.7339,-1.1084
-2.0733,-0.9313,-0.0951,-0.9499,-1.1191,0.7471,-0.9183,-0.3852,-0.6971,-1.5358,-1.3103,-0.6119,-0.2291,-0.3131,-1.6024,-2.4329,-2.2183,-0.8112,-1.7472,-1.9896,-0.6276,-0.6395,0.4268,-0.0696,0.8245,-0.2042,-0.4403,-1.2644,-0.7864,-1.1316
-2.1204,-1.0484,-0.1223,-1.1194,-1.3673,0.5353,-1.0903,-0.5112,-0.7749,-1.6378,-1.3382,-0.5341,-0.3255,-0.462,-1.6401,-2.5065,-2.2709,-0.8034,-1.8449,-2.163,-0.7922,-0.7092,0.432,-0.0236,0.9268,-0.0592,-0.3575,-1.1203,-0.8477,-1.1681
-2.1945,-1.1442,-0.1462,-1.2884,-1.6136,0.315,-1.246,-0.6319,-0.8383,-1.7111,-1.3383,-0.4189,-0.3897,-0.5908,-1.6566,-2.5682,-2.3038,-0.819,-1.9353,-2.3318,-0.9451,-0.7724,0.4201,0.0356,1.0299,0.0958,-0.2455,-0.9472,-0.9062,-1.2071
-2.2892,-1.2065,-0.1666,-1.4384,-1.8342,0.1118,-1.368,-0.7348,-0.8837,-1.7443,-1.3048,-0.2763,-0.416,-0.6928,-1.6661,-2.6131,-2.3075,-0.8583,-2.0087,-2.4825,-1.0748,-0.827,0.395,0.0968,1.124,0.2399,-0.1222,-0.768,-0.9539,-1.2428
-2.3954,-1.23,-0.1861,-1.5553,-2.0109,-0.0523,-1.4437,-0.8098,-0.9073,-1.7293,-1.2314,-0.1144,-0.4035,-0.7652,-1.6881,-2.642,-2.2791,-0.9208,-2.0609,-2.6069,-1.1748,-0.8741,0.3604,0.15,1.1991,0.3562,-0.003,-0.6004,-0.9875,-1.2738
-2.5021,-1.2164,-0.2094,-1.631,-2.1326,-0.1621,-1.4666,-0.8508,-0.905,-1.6629,-1.1133,0.0607,-0.3559,-0.8085,-1.7395,-2.6597,-2.2235,-1.0039,-2.0922,-2.7021,-1.2442,-0.9165,0.3202,0.1878,1.2466,0.4335,0.1012,-0.4552,-1.0066,-1.3012
-2.5981,-1.1739,-0.2427,-1.6643,-2.1969,-0.211,-1.4369,-0.8557,-0.874,-1.5473,-0.9494,0.2445,-0.2802,-0.8257,-1.8272,-2.6719,-2.1511,-1.1003,-2.1068,-2.7694,-1.286,-0.9574,0.2781,0.2065,1.2602,0.4677,0.1846,-0.3362,-1.0138,-1.3272
-2.673,-1.1148,-0.2917,-1.6603,-2.2089,-0.2013,-1.3608,-0.8272,-0.8133,-1.3901,-0.7444,0.4323,-0.186,-0.8217,-1.9452,-2.6835,-2.0765,-1.1975,-2.1113,-2.8126,-1.3059,-0.9993,0.2373,0.2062,1.2377,0.4611,0.2461,-0.242,-1.0126,-1.3535
-2.7184,-1.0535,-0.3596,-1.6285,-2.1793,-0.1426,-1.2494,-0.7718,-0.7259,-1.2043,-0.5091,0.6191,-0.0836,-0.8023,-2.0763,-2.6969,-2.0155,-1.2792,-2.1134,-2.8369,-1.3102,-1.0435,0.1999,0.19,1.1813,0.4209,0.2876,-0.1675,-1.0072,-1.3808
-2.7286,-1.003,-0.4455,-1.5804,-2.1222,-0.0491,-1.1171,-0.6988,-0.6194,-1.0066,-0.2603,0.7987,0.0169,-0.7739,-2.1972,-2.7114,-1.9811,-1.3281,-2.12,-2.8471,-1.3051,-1.0893,0.168,0.1633,1.0985,0.3587,0.3134,-0.1065,-1.0014,-1.4088
-2.7026,-0.9713,-0.5423,-1.5264,-2.0523,0.0636,-0.9798,-0.6192,-0.5058,-0.8154,-0.0181,0.9648,0.1076,-0.7427,-2.2854,-2.7234,-1.9803,-1.3304,-2.1351,-2.8467,-1.2951,-1.1341,0.1437,0.1333,1.0008,0.2884,0.3285,-0.0528,-0.9978,-1.4364
-2.6441,-0.9596,-0.6372,-1.4741,-1.9827,0.1806,-0.8527,-0.5439,-0.4001,-0.6486,0.1967,1.1116,0.1827,-0.7139,-2.3253,-2.7276,-2.0112,-1.2801,-2.1586,-2.8379,-1.2829,-1.1732,0.1303,0.1075,0.9028,0.2243,0.3387,-0.0016,-0.9977,-1.4621
-2.5619,-0.9615,-0.7122,-1.4274,-1.9233,0.2902,-0.749,-0.4823,-0.3174,-0.5206,0.3664,1.2347,0.2398,-0.6914,-2.3115,-2.7183,-2.0629,-1.1816,-2.1857,-2.8214,-1.2698,-1.2008,0.132,0.0934,0.8193,0.1797,0.3495,0.0503,-1.0003,-1.4846
-2.4687,-0.9652,-0.7474,-1.3866,-1.8811,0.3837,-0.6777,-0.4407,-0.27,-0.4402,0.4791,1.332,0.2787,-0.6772,-2.25,-2.6909,-2.1179,-1.0502,-2.2081,-2.7975,-1.2561,-1.2111,0.1535,0.0967,0.7633,0.1639,0.3654,0.1039,-1.0033,-1.5031
-2.3793,-0.9565,-0.7245,-1.3498,-1.859,0.4566,-0.643,-0.4214,-0.2654,-0.4093,0.5306,1.4038,0.3018,-0.6717,-2.1558,-2.6433,-2.1558,-0.91,-2.2164,-2.7662,-1.2415,-1.1996,0.1986,0.1212,0.7436,0.1815,0.3897,0.158,-1.0037,-1.5173
-2.3081,-0.9222,-0.6309,-1.3143,-1.8571,0.5074,-0.644,-0.4223,-0.3046,-0.4233,0.5247,1.4525,0.3128,-0.674,-2.0491,-2.5757,-2.1582,-0.7878,-2.2022,-2.7285,-1.2259,-1.1641,0.2693,0.1681,0.7634,0.2316,0.4238,0.2101,-0.9988,-1.5284
-2.2658,-0.8537,-0.4632,-1.2772,-1.8725,0.5381,-0.6751,-0.4385,-0.3824,-0.4724,0.4713,1.4827,0.3161,-0.6823,-1.9492,-2.4907,-2.1129,-0.706,-2.1604,-2.6853,-1.2095,-1.1051,0.3648,0.2358,0.8209,0.309,0.4674,0.2575,-0.9868,-1.538
-2.2565,-0.7489,-0.2284,-1.2362,-1.9007,0.5532,-0.7279,-0.4637,-0.4895,-0.5445,0.3848,1.5003,0.3161,-0.6942,-1.8698,-2.3921,-2.0172,-0.6756,-2.0908,-2.6381,-1.1922,-1.026,0.4816,0.3208,0.909,0.4057,0.519,0.2987,-0.9677,-1.5479
-2.2762,-0.6132,0.0562,-1.1904,-1.9359,0.5591,-0.7927,-0.4919,-0.6145,-0.6273,0.2809,1.5118,0.3163,-0.7076,-1.8154,-2.2848,-1.8788,-0.693,-1.9984,-2.5882,-1.1742,-0.9327,0.6137,0.4174,1.0175,0.5131,0.5761,0.3343,-0.9428,-1.5594
-2.3135,-0.4581,0.3666,-1.14,-1.9724,0.5628,-0.8602,-0.5191,-0.746,-0.7104,0.1738,1.5233,0.3193,-0.7206,-1.7814,-2.1738,-1.7143,-0.7415,-1.8925,-2.5367,-1.1553,-0.8325,0.7535,0.5192,1.1346,0.6234,0.6359,0.3666,-0.9143,-1.5726
