FP1,F3,F7,FC3,C3,C5,P3,P7,PO7,PO3,O1,Oz,Pz,CPz,FP2,Fz,F4,F8,FC4,FCz,Cz,C4,C6,P4,P8,PO8,PO4,O2,(corr) HEOG,(corr) VEOG
0.8108,2.2827,1.5709,2.466,2.7434,2.2206,2.6434,1.625,1.6422,2.7986,1.2639,1.2376,2.5766,2.9923,0.9679,2.341,1.5375,1.4896,1.6305,2.713,3.0793,2.1655,1.6244,1.6192,-0.0885,-0.2378,1.3971,0.6441,0.0716,-0.7609
1.0627,2.3154,1.4916,2.5363,2.8504,2.3056,2.7933,1.7686,1.781,2.9862,1.5166,1.4869,2.7569,3.1448,0.9754,2.2924,1.4652,1.4144,1.599,2.6176,2.9992,2.2841,1.7184,1.8934,0.2481,0.0924,1.6603,0.9196,0.132,-0.7501
1.2651,2.3081,1.402,2.5603,2.9136,2.352,2.9079,1.887,1.9119,3.1503,1.7584,1.7248,2.904,3.2591,0.9577,2.2136,1.3743,1.3146,1.5467,2.4994,2.8967,2.3621,1.7793,2.1357,0.5527,0.4098,1.9061,1.1858,0.1849,-0.7374
1.3789,2.23,1.2958,2.5024,2.8972,2.3281,2.9548,1.9563,2.0195,3.2666,1.9737,1.9346,2.9885,3.3028,0.8976,2.0824,1.2535,1.1781,1.4584,2.3419,2.7538,2.3677,1.7814,2.3164,0.7963,0.6987,2.1141,1.4285,0.221,-0.7155
1.3805,2.0625,1.1669,2.3412,2.7795,2.2143,2.9128,1.9589,2.0859,3.3144,2.1459,2.0996,2.9901,3.2546,0.7843,1.8865,1.0967,1.002,1.325,2.1359,2.5601,2.2827,1.7083,2.4145,0.9574,0.9421,2.2657,1.6324,0.2338,-0.6771
1.2652,1.8016,1.0103,2.0726,2.5552,2.0051,2.7741,1.8857,2.0923,3.2787,2.2578,2.204,2.8998,3.107,0.6149,1.6253,0.9034,0.794,1.1445,1.8815,2.3136,2.1056,1.5551,2.4192,1.0247,1.1241,2.3454,1.782,0.2209,-0.6157
1.0458,1.458,0.8233,1.7092,2.2345,1.709,2.5433,1.7353,2.0216,3.1508,2.2944,2.2345,2.7197,2.8658,0.3958,1.3102,0.6798,0.5697,0.9224,1.5872,2.0204,1.8505,1.3293,2.3316,0.9981,1.2328,2.3433,1.8644,0.1833,-0.5276
0.7495,1.055,0.6076,1.2783,1.8404,1.3468,2.2349,1.5136,1.862,2.9301,2.2451,2.1828,2.4612,2.5481,0.1434,0.962,0.4378,0.3498,0.6708,1.2687,1.6929,1.5443,1.0496,2.1623,0.8888,1.2639,2.2567,1.8717,0.1244,-0.4137
0.4124,0.6256,0.3719,0.8171,1.4035,0.9477,1.8699,1.2328,1.6113,2.624,2.1065,2.0479,2.1424,2.1784,-0.1182,0.6086,0.1949,0.1557,0.4073,0.9462,1.3475,1.2208,0.7433,1.9298,0.7171,1.2225,2.0913,1.8035,0.0497,-0.2798
0.0738,0.2078,0.1324,0.367,0.9579,0.5451,1.4723,0.9104,1.279,2.2478,1.8834,1.8366,1.7846,1.7843,-0.3592,0.2807,-0.0281,0.0051,0.1524,0.6421,1.0029,0.9138,0.4415,1.6565,0.509,1.1226,1.8605,1.6672,-0.0345,-0.1368
-0.2289,-0.1603,-0.0885,-0.0326,0.5358,0.1722,1.0657,0.568,0.8869,1.8231,1.5886,1.5629,1.4092,1.3924,-0.5493,0.0074,-0.2098,-0.0908,-0.0728,0.3774,0.6776,0.6504,0.1735,1.3653,0.2916,0.9847,1.5838,1.4769,-0.1212,0.0012
-0.4645,-0.4458,-0.2663,-0.3503,0.1636,-0.1426,0.6709,0.2289,0.4654,1.3742,1.2402,1.2463,1.0347,1.0244,-0.6637,-0.1888,-0.3327,-0.1304,-0.2509,0.1685,0.3871,0.4462,-0.0386,1.0759,0.0886,0.831,1.2828,1.2502,-0.2029,0.1196
-0.6121,-0.6272,-0.3801,-0.568,-0.1413,-0.3799,0.304,-0.0848,0.0487,0.9244,0.8592,0.9078,0.6748,0.6945,-0.6886,-0.2961,-0.3874,-0.1222,-0.3714,0.0238,0.1421,0.303,-0.1837,0.8028,-0.0826,0.6811,0.9776,1.0051,-0.2721,0.206
-0.6636,-0.6977,-0.4186,-0.6834,-0.3721,-0.5313,-0.0244,-0.3546,-0.3313,0.4927,0.4651,0.5667,0.3374,0.4078,-0.6248,-0.3159,-0.3757,-0.0836,-0.433,-0.0582,-0.054,0.2095,-0.2637,0.5539,-0.2128,0.5484,0.6839,0.7561,-0.322,0.2521
-0.6258,-0.667,-0.3841,-0.7098,-0.5331,-0.6013,-0.3097,-0.5687,-0.6511,0.0909,0.0735,0.237,0.0246,0.161,-0.4884,-0.2631,-0.3112,-0.0366,-0.4446,-0.0891,-0.2047,0.145,-0.2919,0.3305,-0.3005,0.4381,0.4095,0.5114,-0.3478,0.2558
-0.5187,-0.5596,-0.2938,-0.6729,-0.6373,-0.6054,-0.553,-0.7229,-0.8991,-0.277,-0.306,-0.0744,-0.2658,-0.0557,-0.3081,-0.163,-0.2167,-0.0027,-0.4225,-0.0884,-0.3202,0.084,-0.2894,0.1285,-0.3506,0.3468,0.1549,0.2721,-0.348,0.2212
-0.3729,-0.4101,-0.1762,-0.6046,-0.7031,-0.5678,-0.76,-0.8214,-1.0763,-0.6133,-0.6688,-0.3676,-0.5383,-0.2555,-0.1185,-0.0459,-0.1188,0.0033,-0.3868,-0.0788,-0.4138,0.0034,-0.2801,-0.0598,-0.3722,0.2644,-0.0866,0.0326,-0.3248,0.1582
-0.2227,-0.2554,-0.0657,-0.5365,-0.7493,-0.5159,-0.9381,-0.8748,-1.1936,-0.9232,-1.0132,-0.6474,-0.797,-0.45,0.0467,0.0597,-0.0417,-0.0236,-0.3557,-0.0805,-0.4978,-0.1127,-0.2848,-0.2429,-0.3768,0.1769,-0.3249,-0.216,-0.2842,0.0805
-0.099,-0.1272,0.0068,-0.4923,-0.7903,-0.4745,-1.0934,-0.8972,-1.2666,-1.2095,-1.3365,-0.9189,-1.0422,-0.6457,0.1624,0.134,-0.0003,-0.0774,-0.3401,-0.1053,-0.5794,-0.2676,-0.3166,-0.4275,-0.3755,0.0704,-0.5688,-0.4812,-0.2346,0.0021
-0.0222,-0.0447,0.0213,-0.4828,-0.8322,-0.4606,-1.2273,-0.9019,-1.3094,-1.4692,-1.6312,-1.1829,-1.268,-0.8403,0.2171,0.1703,0.0034,-0.1439,-0.3409,-0.1528,-0.6572,-0.4513,-0.3779,-0.6154,-0.378,-0.0656,-0.8215,-0.7648,-0.1853,-0.0664
0.0021,-0.0112,-0.026,-0.5038,-0.871,-0.4788,-1.3345,-0.8974,-1.3291,-1.6904,-1.883,-1.4325,-1.4616,-1.022,0.2151,0.1765,-0.0188,-0.2043,-0.3477,-0.2097,-0.7205,-0.6417,-0.4597,-0.802,-0.3906,-0.2359,-1.0771,-1.0599,-0.1439,-0.1198
-0.0169,-0.0144,-0.122,-0.538,-0.8942,-0.5213,-1.4032,-0.886,-1.3242,-1.8545,-2.072,-1.6524,-1.6048,-1.1722,0.1744,0.1718,-0.0454,-0.2409,-0.3432,-0.2536,-0.7524,-0.8096,-0.5447,-0.9762,-0.416,-0.4379,-1.3204,-1.3496,-0.1153,-0.1595
-0.0588,-0.032,-0.2411,-0.5606,-0.8852,-0.5702,-1.418,-0.864,-1.286,-1.9393,-2.1763,-1.8209,-1.6779,-1.2699,0.1208,0.1796,-0.0517,-0.2406,-0.3083,-0.2596,-0.735,-0.9255,-0.6109,-1.1223,-0.4521,-0.6611,-1.5284,-1.6091,-0.1005,-0.1922
-0.0994,-0.0394,-0.3526,-0.5474,-0.8289,-0.604,-1.3645,-0.8255,-1.2032,-1.926,-2.1772,-1.9146,-1.6645,-1.2971,0.0805,0.2201,-0.0179,-0.199,-0.2289,-0.2085,-0.6561,-0.9667,-0.6385,-1.223,-0.4932,-0.8881,-1.6754,-1.8097,-0.0976,-0.2261
-0.1178,-0.0181,-0.4287,-0.483,-0.7176,-0.6041,-1.2344,-0.7662,-1.0671,-1.8054,-2.0646,-1.9139,-1.5569,-1.2448,0.0718,0.3022,0.0647,-0.121,-0.1013,-0.0934,-0.5146,-0.9225,-0.6145,-1.2632,-0.5305,-1.0961,-1.7384,-1.9241,-0.1026,-0.2681
-0.1029,0.0383,-0.452,-0.3655,-0.5549,-0.5608,-1.0297,-0.6861,-0.8769,-1.5823,-1.8402,-1.8084,-1.3593,-1.1157,0.1005,0.4204,0.1899,-0.0201,0.0656,0.0759,-0.3239,-0.7969,-0.5364,-1.2336,-0.5539,-1.2595,-1.7021,-1.9314,-0.1109,-0.321
-0.0567,0.122,-0.4194,-0.2085,-0.3568,-0.4762,-0.7639,-0.5912,-0.6406,-1.2762,-1.5186,-1.5997,-1.0882,-0.9247,0.1579,0.5548,0.3384,0.0841,0.2516,0.2743,-0.1098,-0.6079,-0.4131,-1.1328,-0.5539,-1.3533,-1.5628,-1.8216,-0.1187,-0.3825
0.0064,0.2132,-0.3421,-0.0378,-0.1486,-0.364,-0.4611,-0.4915,-0.3752,-0.919,-1.1255,-1.3025,-0.7709,-0.6966,0.2242,0.6759,0.4818,0.1696,0.4295,0.4652,0.0939,-0.3841,-0.2632,-0.9688,-0.5237,-1.3576,-1.3298,-1.5979,-0.1233,-0.4462
0.0636,0.2857,-0.2431,0.1144,0.039,-0.2462,-0.1524,-0.3986,-0.1031,-0.5495,-0.6948,-0.9429,-0.4408,-0.4616,0.2734,0.7506,0.589,0.2161,0.5709,0.6083,0.2522,-0.1589,-0.1107,-0.7579,-0.4613,-1.2623,-1.0246,-1.2778,-0.1231,-0.5032
0.0912,0.3138,-0.1505,0.2171,0.1769,-0.1473,0.129,-0.3227,0.1513,-0.2073,-0.2644,-0.5556,-0.1323,-0.2499,0.2804,0.75,0.6329,0.2086,0.6515,0.6678,0.3367,0.0345,0.0195,-0.5231,-0.3701,-1.0706,-0.6784,-0.8915,-0.1175,-0.5436
0.0711,0.2784,-0.0906,0.247,0.2427,-0.0884,0.3534,-0.2695,0.3659,0.0732,0.1284,-0.179,0.1249,-0.0864,0.2283,0.6555,0.5966,0.1407,0.6564,0.6198,0.3315,0.1694,0.1073,-0.2902,-0.2581,-0.801,-0.327,-0.4788,-0.1077,-0.5573
-0.0033,0.1727,-0.081,0.1939,0.2264,-0.0819,0.4997,-0.2395,0.5238,0.2686,0.4514,0.1504,0.3101,0.0132,0.113,0.4635,0.477,0.0172,0.5833,0.4581,0.2369,0.2301,0.1423,-0.0841,-0.1355,-0.4853,-0.0062,-0.0834,-0.0959,-0.5355
-0.125,0.0027,-0.1262,0.0628,0.1314,-0.1288,0.5583,-0.2282,0.6155,0.368,0.6816,0.4025,0.4139,0.045,-0.0544,0.1862,0.2855,-0.1462,0.4423,0.1954,0.0688,0.214,0.1261,0.0757,-0.0119,-0.1627,0.2541,0.2533,-0.0858,-0.471
-0.276,-0.214,-0.2172,-0.1284,-0.0258,-0.2192,0.5325,-0.2273,0.6395,0.3738,0.8082,0.5578,0.4387,0.0154,-0.2502,-0.1499,0.0457,-0.3244,0.254,-0.1385,-0.1451,0.131,0.0712,0.1775,0.1058,0.1273,0.4341,0.4995,-0.0814,-0.36
-0.4325,-0.453,-0.3348,-0.3526,-0.2202,-0.3348,0.4361,-0.2275,0.6017,0.2992,0.8336,0.6104,0.3957,-0.0618,-0.4441,-0.5101,-0.2124,-0.4886,0.0443,-0.5037,-0.3723,0.0001,-0.0026,0.2189,0.2135,0.3533,0.5266,0.6377,-0.0857,-0.2037
-0.5711,-0.6885,-0.4553,-0.5802,-0.4237,-0.4544,0.2893,-0.2208,0.5137,0.1648,0.7723,0.5679,0.3013,-0.1699,-0.6067,-0.8578,-0.4589,-0.6124,-0.1615,-0.8578,-0.5827,-0.1566,-0.0749,0.205,0.3092,0.4981,0.5368,0.6683,-0.0994,-0.0089
-0.6742,-0.8987,-0.5566,-0.7838,-0.6109,-0.5583,0.1144,-0.2028,0.3896,-0.0063,0.6478,0.4501,0.1727,-0.2939,-0.717,-1.1615,-0.6696,-0.6787,-0.344,-1.1644,-0.7546,-0.3189,-0.1306,0.1463,0.3912,0.5608,0.4797,0.6079,-0.1196,0.2109
-0.7335,-1.0687,-0.6231,-0.9435,-0.7636,-0.6325,-0.0694,-0.1742,0.2438,-0.1922,0.4872,0.2841,0.0246,-0.4232,-0.7665,-1.3996,-0.8301,-0.6835,-0.4926,-1.3987,-0.8779,-0.4724,-0.1636,0.0551,0.4568,0.5555,0.3757,0.4854,-0.1403,0.4369
-0.7497,-1.1913,-0.648,-1.0479,-0.8728,-0.6705,-0.2488,-0.1404,0.0888,-0.3763,0.316,0.0995,-0.1332,-0.5533,-0.7595,-1.563,-0.9365,-0.6371,-0.6057,-1.5504,-0.9545,-0.6108,-0.1781,-0.0576,0.5014,0.5047,0.2452,0.3341,-0.1529,0.6467
-0.7302,-1.2659,-0.6326,-1.0946,-0.9388,-0.6739,-0.4179,-0.1101,-0.0661,-0.5489,0.1532,-0.0777,-0.2963,-0.6853,-0.7092,-1.6534,-0.9929,-0.5605,-0.6888,-1.6228,-0.9954,-0.734,-0.1862,-0.1846,0.5191,0.4325,0.1035,0.1841,-0.1483,0.8179
-0.685,-1.2954,-0.5844,-1.0879,-0.9693,-0.65,-0.5781,-0.0933,-0.2148,-0.7076,0.0085,-0.2297,-0.4655,-0.8239,-0.632,-1.6806,-1.0082,-0.4781,-0.75,-1.629,-1.0169,-0.8463,-0.2035,-0.3234,0.5037,0.3573,-0.0422,0.0554,-0.119,0.9325
-0.623,-1.2836,-0.5132,-1.037,-0.9768,-0.6102,-0.7356,-0.0981,-0.3546,-0.8567,-0.1187,-0.3497,-0.6441,-0.9755,-0.5416,-1.6575,-0.9915,-0.4113,-0.7964,-1.5875,-1.036,-0.9523,-0.2439,-0.4759,0.4506,0.2871,-0.1933,-0.0455,-0.0615,0.9807
-0.549,-1.2335,-0.4282,-0.9533,-0.9756,-0.5668,-0.8992,-0.1294,-0.4863,-1.005,-0.2376,-0.4423,-0.8367,-1.1451,-0.445,-1.5969,-0.9495,-0.372,-0.831,-1.5172,-1.0666,-1.0546,-0.316,-0.6462,0.3575,0.2183,-0.3577,-0.126,0.0224,0.9633
-0.4635,-1.1471,-0.3362,-0.8488,-0.9781,-0.5306,-1.0766,-0.1878,-0.6132,-1.1628,-0.3626,-0.5207,-1.0463,-1.3344,-0.3415,-1.5083,-0.8847,-0.3606,-0.8524,-1.4338,-1.1171,-1.1518,-0.4207,-0.8388,0.2256,0.137,-0.5466,-0.2037,0.1256,0.8916
-0.3633,-1.0259,-0.24,-0.7341,-0.993,-0.5088,-1.2712,-0.2691,-0.7391,-1.3384,-0.5085,-0.602,-1.2723,-1.5406,-0.225,-1.398,-0.7973,-0.3677,-0.8561,-1.3484,-1.1895,-1.2386,-0.5511,-1.0555,0.059,0.0243,-0.7692,-0.3003,0.2368,0.7851
-0.2445,-0.8728,-0.1389,-0.6181,-1.0229,-0.5032,-1.4794,-0.365,-0.8658,-1.5342,-0.685,-0.7012,-1.5094,-1.7555,-0.0871,-1.2703,-0.6867,-0.3774,-0.8365,-1.2672,-1.2804,-1.3072,-0.6941,-1.2931,-0.1347,-0.1371,-1.0281,-0.4344,0.3436,0.6671
-0.1053,-0.6935,-0.0296,-0.507,-1.0642,-0.5102,-1.6898,-0.464,-0.9892,-1.7438,-0.8921,-0.8258,-1.7463,-1.9663,0.0773,-1.1294,-0.5549,-0.3737,-0.7903,-1.1926,-1.3816,-1.3487,-0.8331,-1.5417,-0.3454,-0.3569,-1.3164,-0.6149,0.4353,0.5596
0.0517,-0.4979,0.0909,-0.4047,-1.1084,-0.5216,-1.8841,-0.5527,-1.0983,-1.951,-1.1175,-0.9725,-1.9673,-2.1573,0.2668,-0.9823,-0.4081,-0.345,-0.7188,-1.1251,-1.4829,-1.356,-0.9512,-1.7848,-0.5603,-0.6319,-1.6171,-0.8371,0.5051,0.4791
0.2172,-0.3004,0.2224,-0.3136,-1.1453,-0.5283,-2.0405,-0.6185,-1.1749,-2.1314,-1.3376,-1.1271,-2.1533,-2.3119,0.4715,-0.8396,-0.2579,-0.2876,-0.6286,-1.0653,-1.5743,-1.3252,-1.0341,-2.0014,-0.7651,-0.9447,-1.9047,-1.0821,0.5503,0.4338
0.3752,-0.1195,0.3585,-0.2362,-1.166,-0.5232,-2.1385,-0.6522,-1.1983,-2.2571,-1.5217,-1.2676,-2.286,-2.416,0.6731,-0.7153,-0.1199,-0.2064,-0.5313,-1.0147,-1.648,-1.2571,-1.0725,-2.1694,-0.9448,-1.2656,-2.1497,-1.3203,0.5711,0.4225
0.5044,0.0247,0.4867,-0.176,-1.1663,-0.5049,-2.164,-0.65,-1.15,-2.3021,-1.638,-1.3692,-2.3504,-2.46,0.8481,-0.6243,-0.0118,-0.1137,-0.4417,-0.9765,-1.7002,-1.1572,-1.0635,-2.2693,-1.0855,-1.5574,-2.3242,-1.517,0.569,0.4372
0.5822,0.1139,0.5898,-0.137,-1.1477,-0.4782,-2.113,-0.6142,-1.0202,-2.249,-1.6614,-1.4095,-2.3382,-2.4409,0.9725,-0.5796,0.0506,-0.0259,-0.3747,-0.9546,-1.7309,-1.0354,-1.0104,-2.289,-1.1763,-1.7828,-2.4067,-1.64,0.5447,0.4662
0.5899,0.1355,0.6502,-0.1232,-1.1172,-0.4532,-1.9928,-0.5529,-0.8109,-2.0928,-1.5781,-1.3734,-2.2487,-2.3619,1.0271,-0.588,0.0563,0.0411,-0.3423,-0.9522,-1.7436,-0.9047,-0.922,-2.2254,-1.2115,-1.911,-2.3857,-1.6656,0.4975,0.4978
0.5174,0.0861,0.6551,-0.1367,-1.084,-0.442,-1.8204,-0.4769,-0.5369,-1.8427,-1.3898,-1.2559,-2.0894,-2.2321,1.002,-0.6476,0.0022,0.0751,-0.351,-0.9702,-1.7435,-0.7792,-0.8115,-2.0858,-1.1916,-1.9243,-2.2618,-1.5837,0.4256,0.5235
0.3671,-0.0265,0.6003,-0.1752,-1.057,-0.4539,-1.6184,-0.3974,-0.2225,-1.5204,-1.1121,-1.0626,-1.8741,-2.0641,0.8999,-0.7471,-0.1062,0.0706,-0.4008,-1.0057,-1.7356,-0.6722,-0.6942,-1.8866,-1.1241,-1.8221,-2.0476,-1.3994,0.3284,0.5388
0.155,-0.1828,0.4936,-0.231,-1.0406,-0.4919,-1.4099,-0.3226,0.1039,-1.1563,-0.7723,-0.8098,-1.6208,-1.8716,0.7364,-0.8662,-0.2543,0.0304,-0.4846,-1.0508,-1.7224,-0.594,-0.585,-1.6509,-1.0222,-1.6221,-1.7657,-1.133,0.2085,0.5436
-0.0896,-0.3539,0.3554,-0.2895,-1.0327,-0.5495,-1.2138,-0.256,0.4152,-0.784,-0.4038,-0.5213,-1.349,-1.6667,0.5379,-0.9786,-0.4203,-0.0349,-0.5884,-1.0923,-1.7026,-0.55,-0.496,-1.4043,-0.9036,-1.3581,-1.4462,-0.8166,0.0742,0.5402
-0.3289,-0.5061,0.2155,-0.3317,-1.024,-0.6114,-1.0421,-0.1962,0.6896,-0.4353,-0.0413,-0.2267,-1.0774,-1.4585,0.3378,-1.0555,-0.5769,-0.1085,-0.6934,-1.1132,-1.6704,-0.5399,-0.4344,-1.1719,-0.7876,-1.0755,-1.1228,-0.4897,-0.0601,0.532
-0.5224,-0.6071,0.1081,-0.3367,-1.0005,-0.6562,-0.899,-0.1391,0.9118,-0.136,0.2839,0.0434,-0.8225,-1.2529,0.17,-1.0711,-0.6965,-0.1709,-0.7783,-1.0947,-1.6165,-0.5577,-0.4016,-0.9748,-0.6926,-0.8231,-0.8289,-0.193,-0.1755,0.5218
-0.6349,-0.6325,0.0647,-0.2873,-0.9472,-0.662,-0.783,-0.0793,1.0733,0.0966,0.5475,0.2616,-0.5978,-1.0534,0.0635,-1.0073,-0.7551,-0.2039,-0.8235,-1.0204,-1.5305,-0.5934,-0.394,-0.8284,-0.6336,-0.6445,-0.5932,0.0379,-0.2514,0.51
-0.6436,-0.5717,0.1067,-0.1744,-0.8524,-0.6112,-0.6894,-0.0128,1.1706,0.2547,0.7344,0.4078,-0.4137,-0.8627,0.0373,-0.8577,-0.7373,-0.1948,-0.8152,-0.8801,-1.4048,-0.635,-0.4041,-0.7404,-0.6198,-0.5695,-0.4365,0.1789,-0.2702,0.4947
-0.5422,-0.4292,0.2412,0,-0.7115,-0.4951,-0.6134,0.0622,1.2036,0.3386,0.8396,0.4721,-0.2772,-0.6842,0.0978,-0.6287,-0.6389,-0.1387,-0.7482,-0.6726,-1.2369,-0.6716,-0.4226,-0.7112,-0.6535,-0.6089,-0.3683,0.2209,-0.2215,0.4718
-0.3416,-0.2239,0.4594,0.2228,-0.5292,-0.3168,-0.5534,0.143,1.1734,0.3537,0.866,0.4549,-0.1934,-0.5241,0.2378,-0.3392,-0.4681,-0.0396,-0.6271,-0.4073,-1.0325,-0.6945,-0.4406,-0.7346,-0.7297,-0.7521,-0.3871,0.1701,-0.1048,0.4365
-0.0679,0.0155,0.7385,0.4716,-0.3205,-0.0914,-0.5129,0.2218,1.08,0.3068,0.8207,0.3648,-0.1658,-0.3917,0.4392,-0.0169,-0.244,0.091,-0.4663,-0.1038,-0.806,-0.6998,-0.4514,-0.8001,-0.837,-0.9702,-0.4815,0.0454,0.0692,0.3851
0.2428,0.256,1.045,0.7184,-0.109,0.1552,-0.5016,0.2841,0.9214,0.2023,0.7109,0.215,-0.198,-0.2999,0.6755,0.306,0.0069,0.2358,-0.2866,0.2105,-0.5796,-0.6885,-0.4518,-0.8952,-0.9598,-1.2222,-0.6338,-0.1269,0.2807,0.3161
0.5501,0.4654,1.3397,0.9337,0.0753,0.3891,-0.5342,0.31,0.6944,0.041,0.5418,0.0201,-0.2931,-0.2635,0.9166,0.5982,0.2547,0.3749,-0.1122,0.5036,-0.3803,-0.6657,-0.442,-1.0078,-1.0807,-1.4625,-0.8229,-0.3184,0.5037,0.2313
0.8152,0.6173,1.5832,1.0907,0.2011,0.5737,-0.6261,0.2772,0.3983,-0.1784,0.3173,-0.205,-0.4526,-0.2963,1.1327,0.8327,0.4716,0.4887,0.0336,0.7443,-0.2351,-0.6394,-0.4256,-1.1275,-1.1832,-1.6486,-1.0271,-0.5026,0.7096,0.1356
1.006,0.6939,1.7403,1.1686,0.2411,0.6745,-0.7888,0.1664,0.0396,-0.4547,0.0436,-0.4449,-0.6738,-0.4071,1.2982,0.9905,0.6355,0.5609,0.1323,0.9064,-0.1659,-0.6182,-0.4076,-1.2452,-1.2539,-1.7474,-1.2254,-0.657,0.8719,0.0362
1.1008,0.6869,1.7858,1.1549,0.1778,0.6663,-1.024,-0.0324,-0.3637,-0.7787,-0.2661,-0.6828,-0.9465,-0.5955,1.3944,1.0611,0.7324,0.5804,0.1724,0.9732,-0.1842,-0.6089,-0.3936,-1.353,-1.2833,-1.7385,-1.3982,-0.7638,0.9693,-0.0579
1.0908,0.5976,1.7072,1.0479,0.0075,0.5376,-1.3204,-0.3144,-0.7803,-1.1296,-0.5888,-0.8986,-1.2521,-0.8498,1.4114,1.0433,0.758,0.5427,0.1507,0.9396,-0.2889,-0.6153,-0.3879,-1.4427,-1.2668,-1.6156,-1.5273,-0.8092,0.9883,-0.1375
0.9809,0.4354,1.5076,0.856,-0.2576,0.2939,-1.6534,-0.659,-1.1685,-1.4749,-0.8925,-1.0705,-1.5642,-1.1472,1.3489,0.9434,0.7162,0.451,0.0722,0.8118,-0.4658,-0.6379,-0.3927,-1.5056,-1.2039,-1.3858,-1.5969,-0.7836,0.9249,-0.1937
0.789,0.2162,1.2058,0.5983,-0.5907,-0.0418,-1.9881,-1.0315,-1.4832,-1.7748,-1.1414,-1.1773,-1.8511,-1.4563,1.2151,0.7745,0.6181,0.3152,-0.0513,0.6066,-0.6897,-0.6737,-0.4072,-1.5328,-1.0977,-1.067,-1.5946,-0.6825,0.7853,-0.2189
0.5435,-0.039,0.8342,0.3018,-0.9537,-0.432,-2.2848,-1.3899,-1.6853,-1.9895,-1.3024,-1.2017,-2.0806,-1.7418,1.026,0.5555,0.4803,0.152,-0.2026,0.3485,-0.9285,-0.7161,-0.4275,-1.5154,-0.954,-0.685,-1.5131,-0.508,0.5857,-0.2071
0.2804,-0.3042,0.4357,0.0005,-1.3017,-0.8289,-2.5054,-1.6923,-1.7501,-2.0866,-1.3526,-1.1343,-2.2243,-1.9684,0.8041,0.3112,0.3241,-0.0162,-0.3604,0.0685,-1.1463,-0.7548,-0.4462,-1.446,-0.7796,-0.2699,-1.3513,-0.269,0.35,-0.1554
0.0394,-0.5493,0.0596,-0.2672,-1.588,-1.1801,-2.6178,-1.9036,-1.6714,-2.0459,-1.2828,-0.9745,-2.2602,-2.1049,0.5771,0.0723,0.1754,-0.1626,-0.4997,-0.1974,-1.3073,-0.7753,-0.4519,-1.3192,-0.5829,0.1471,-1.1141,0.0184,0.1068,-0.065
-0.1395,-0.7398,-0.2433,-0.4605,-1.7676,-1.4336,-2.5988,-1.9993,-1.4625,-1.8616,-1.0976,-0.7303,-2.1737,-2.1257,0.3775,-0.124,0.0646,-0.2584,-0.5927,-0.409,-1.3771,-0.7587,-0.4304,-1.1331,-0.3729,0.5351,-0.812,0.3326,-0.1158,0.058
-0.2195,-0.8383,-0.4247,-0.538,-1.8001,-1.5428,-2.4343,-1.967,-1.1506,-1.5399,-0.8124,-0.4155,-1.9576,-2.0115,0.2407,-0.2355,0.0256,-0.2748,-0.6089,-0.5232,-1.3247,-0.6828,-0.365,-0.8895,-0.1605,0.8651,-0.4594,0.649,-0.2943,0.2023
-0.1686,-0.8062,-0.4426,-0.4602,-1.6527,-1.4705,-2.1186,-1.805,-0.7704,-1.0954,-0.4481,-0.0469,-1.6103,-1.7484,0.2042,-0.2177,0.0944,-0.1864,-0.5169,-0.4957,-1.1223,-0.5235,-0.2379,-0.5934,0.0423,1.1113,-0.073,0.9433,-0.4137,0.3521
0.0383,-0.6071,-0.2652,-0.1931,-1.3016,-1.1926,-1.6535,-1.5202,-0.3563,-0.547,-0.0267,0.3588,-1.1341,-1.3277,0.3042,-0.028,0.3058,0.0275,-0.2863,-0.2847,-0.7467,-0.2575,-0.0311,-0.2524,0.2227,1.2522,0.3314,1.1953,-0.4699,0.4904
0.4172,-0.212,0.125,0.2879,-0.735,-0.7005,-1.0477,-1.1264,0.0642,0.0853,0.4325,0.787,-0.5345,-0.7461,0.5711,0.3677,0.6887,0.3802,0.1086,0.1433,-0.1811,0.1348,0.2716,0.1256,0.3698,1.2742,0.741,1.3921,-0.469,0.6017
0.9718,0.394,0.7278,0.9913,0.0426,-0.0046,-0.3179,-0.6431,0.4733,0.7815,0.9145,1.2261,0.1783,-0.0076,1.0232,0.9873,1.2598,0.8753,0.683,0.8066,0.5806,0.6652,0.6819,0.5335,0.4756,1.1749,1.1471,1.531,-0.4251,0.6746
1.6892,1.2054,1.5209,1.9041,1.007,0.8635,0.5092,-0.096,0.8625,1.5202,1.4079,1.6672,0.9866,0.8723,1.6595,1.8253,2.0168,1.504,1.4356,1.7002,1.5281,1.3331,1.2028,0.965,0.5364,0.9648,1.5453,1.6189,-0.3567,0.7046
2.5368,2.19,2.4589,2.9871,2.1113,1.8509,1.3957,0.4832,1.2296,2.2764,1.9031,2.1028,1.8623,1.8634,2.4546,2.8475,2.9336,2.2425,2.3435,2.7908,2.6296,2.1209,1.8248,1.4131,0.5523,0.6682,1.9332,1.6707,-0.2828,0.6933
3.4614,3.2891,3.4753,4.1749,3.2864,2.8857,2.2923,1.0577,1.5742,3.0196,2.3902,2.5246,2.7651,2.9183,3.3579,3.9912,3.9599,3.052,3.3609,4.0155,3.8301,2.9934,2.5229,1.8677,0.5259,0.3199,2.3078,1.7053,-0.2199,0.6482
4.3938,4.4216,4.4886,5.3815,4.4469,3.8841,3.1413,1.5877,1.8931,3.7135,2.857,2.9225,3.6431,3.9744,4.2985,5.1715,5.0251,3.8805,4.4219,5.2874,5.0542,3.8989,3.2575,2.3134,0.4605,-0.0397,2.6626,1.7408,-0.1803,0.5804
5.2571,5.4958,5.4135,6.5113,5.5009,4.7611,3.8819,2.0342,2.1771,4.3184,3.2878,3.2836,4.4378,4.9595,5.1948,6.2926,6.0471,4.6689,5.4495,6.5068,6.2148,4.7757,3.9776,2.7286,0.3578,-0.3719,2.9862,1.7895,-0.1709,0.5019
5.979,6.4238,6.1734,7.4741,6.3639,5.4429,4.4579,2.3637,2.4098,4.7962,3.6629,3.5927,5.0911,5.8015,5.9683,7.2629,6.9455,5.3591,6.3666,7.5763,7.2259,5.5609,4.628,3.0875,0.2176,-0.6458,3.2625,1.8555,-0.1939,0.4239
6.5044,7.1375,6.7131,8.2001,6.9721,5.8793,4.8265,2.5526,2.569,5.1164,3.9604,3.8344,5.5553,6.4396,6.5569,8.0098,7.6538,5.9028,7.1094,8.4167,8.0168,6.201,5.1583,3.3636,0.0388,-0.8431,3.4735,1.9341,-0.2467,0.3547
6.8048,7.6001,7.0076,8.6518,7.2937,6.052,4.9651,2.5911,2.6311,5.2611,4.1596,3.9956,5.801,6.8355,6.925,8.4913,8.1308,6.27,7.6377,8.9794,8.5434,6.6607,5.5314,3.5355,-0.1787,-0.9592,3.6034,2.0139,-0.3227,0.2998
6.8825,7.811,7.0646,8.8282,7.3328,5.9767,4.8753,2.4845,2.5766,5.2291,4.2445,4.0679,5.823,6.9795,7.0672,8.7002,8.3653,6.4535,7.9394,9.2527,8.7945,6.9279,5.7299,3.5913,-0.4317,-1.0022,3.642,2.0804,-0.4116,0.2618
6.7671,7.8021,6.9206,8.7617,7.1267,5.6981,4.5825,2.2515,2.3959,5.036,4.208,4.0498,5.6409,6.8916,7.0054,8.6613,8.3752,6.468,8.0299,9.2593,8.7914,7.0135,5.7573,3.5317,-0.7121,-0.9893,3.5879,2.12,-0.5014,0.2421
6.5063,7.6266,6.6305,8.5071,6.7356,5.2794,4.1311,1.9206,2.0924,4.7112,4.0537,3.9462,5.295,6.6164,6.7806,8.4216,8.1991,6.3458,7.9432,9.0474,8.5796,6.9454,5.6353,3.3688,-1.0072,-0.942,3.4488,2.1226,-0.5804,0.2424
6.1539,7.3439,6.2544,8.1274,6.2294,4.7878,3.5759,1.5244,1.6833,4.293,3.7958,3.7678,4.8383,6.2123,6.4415,8.0374,7.8858,6.1268,7.7221,8.6773,8.2176,6.7595,5.3962,3.1238,-1.3016,-0.8819,3.2396,2.0836,-0.6394,0.2663
5.758,7.0049,5.8452,7.6799,5.6741,4.2817,2.9733,1.0953,1.1975,3.823,3.4568,3.5295,4.3268,5.7403,6.0343,7.5614,7.4814,5.8499,7.4061,8.2069,7.7637,6.4906,5.0755,2.822,-1.5797,-0.8268,2.9802,2.0035,-0.6743,0.3189
5.3523,6.6433,5.4403,7.2071,5.1215,3.8022,2.3735,0.6615,0.6708,3.3403,3.0643,3.2484,3.811,5.2532,5.5949,7.0338,7.0217,5.5443,7.0246,7.682,7.2665,6.1652,4.7049,2.4886,-1.8281,-0.7878,2.6922,1.8883,-0.6864,0.4056
4.9537,6.2737,5.0589,6.734,4.6047,3.3708,1.8158,0.2459,0.1407,2.879,2.6477,2.9424,3.33,4.7894,5.1459,6.4796,6.5285,5.2263,6.5943,7.1321,6.7589,5.7993,4.308,2.1462,-2.0365,-0.7678,2.3963,1.7476,-0.6814,0.5295
4.5661,5.8964,4.7058,6.2715,4.1396,2.9924,1.3269,-0.1334,-0.3577,2.4661,2.2348,2.6296,2.9101,4.3713,4.6989,5.911,6.0124,4.9002,6.1224,6.5724,6.2589,5.4001,3.901,1.8136,-2.1973,-0.7615,2.1116,1.594,-0.6666,0.6887
4.1872,5.5072,4.3776,5.8234,3.7307,2.6631,0.9232,-0.461,-0.7955,2.1223,1.8508,2.3279,2.5661,4.0082,4.259,5.3352,5.479,4.5631,5.6135,6.0109,5.7746,4.9725,3.495,1.5064,-2.3036,-0.7562,1.8553,1.4424,-0.6477,0.8752
3.8163,5.1068,4.0711,5.3947,3.3783,2.3782,0.6136,-0.7232,-1.1502,1.8635,1.517,2.0555,2.3055,3.7024,3.831,4.7619,4.9368,4.2118,5.0768,5.4565,5.3114,4.5245,3.1003,1.2393,-2.3483,-0.7343,1.6435,1.3092,-0.6272,1.0741
3.4605,4.7066,3.7877,4.9973,3.0845,2.1384,0.4037,-0.9062,-1.4052,1.7022,1.2516,1.8302,2.1327,3.4556,3.4242,4.209,4.4028,3.8493,4.532,4.9246,4.8779,4.0725,2.7301,1.0273,-2.3228,-0.6759,1.4925,1.2114,-0.6035,1.2665
3.1356,4.3295,3.5354,4.6504,2.8568,1.9513,0.2979,-0.997,-1.5481,1.6484,1.0697,1.6695,2.0524,3.2729,3.0542,3.7041,3.9036,3.4878,4.0097,4.4393,4.4899,3.6418,2.4019,0.8862,-2.2175,-0.5616,1.4183,1.1661,-0.5733,1.4318
2.8632,4.0051,3.3255,4.3782,2.7072,1.8299,0.3001,-0.9856,-1.5691,1.7092,0.9839,1.5893,2.07,3.1643,2.7415,3.2796,3.4727,3.1483,3.5477,4.0297,4.1686,3.2634,2.1365,0.832,-2.0247,-0.376,1.436,1.1886,-0.5336,1.552
2.6648,3.7616,3.1684,4.2025,2.648,1.7869,0.412,-0.8671,-1.4613,1.8873,1.0029,1.6016,2.1905,3.1422,2.5073,2.9666,3.1426,2.8562,3.1839,3.723,3.937,2.9679,1.9539,0.8776,-1.7409,-0.1102,1.5569,1.2907,-0.4841,1.6139
2.5555,3.618,3.0695,4.1359,2.6869,1.8294,0.6315,-0.6445,-1.2215,2.1797,1.1308,1.7122,2.4159,3.2175,2.3673,2.7861,2.9377,2.6334,2.9474,3.5374,3.8131,2.7786,1.8687,1.0306,-1.3698,0.237,1.7861,1.4787,-0.4282,1.6107
2.5394,3.5784,3.0276,4.1776,2.8231,1.9552,0.9512,-0.3288,-0.8522,2.576,1.3644,1.9195,2.7423,3.3952,2.328,2.7432,2.8676,2.492,2.8524,3.476,3.8053,2.7069,1.8862,1.2905,-0.9244,0.6576,2.1197,1.7518,-0.3711,1.542
2.6091,3.6314,3.0356,4.3128,3.0462,2.1521,1.3577,0.0622,-0.3625,3.0595,1.6932,2.2133,3.1588,3.6717,2.3838,2.8263,2.9248,2.4299,2.8952,3.5263,3.9102,2.75,2.001,1.6483,-0.4268,1.1356,2.5446,2.1016,-0.3181,1.4125
2.7476,3.7542,3.084,4.5169,3.3382,2.4007,1.8337,0.5067,0.2313,3.6088,2.0994,2.5763,3.6483,4.0354,2.5192,3.0101,3.0878,2.4322,3.0568,3.6633,4.1141,2.8941,2.1979,2.0874,0.0946,1.6486,3.0393,2.5122,-0.272,1.23
2.9327,3.9196,3.1637,4.7617,3.678,2.6786,2.3603,0.9821,0.9064,4.2002,2.5601,2.9866,4.1896,4.4685,2.7123,3.262,3.3272,2.4757,3.3085,3.8578,4.397,3.1184,2.456,2.5861,0.6084,2.1703,3.5777,2.9622,-0.2316,1.0034
3.1411,4.103,3.2675,5.0226,4.046,2.9655,2.9184,1.4679,1.6351,4.8106,3.0503,3.4206,4.7599,4.9503,2.9394,3.5498,3.6129,2.537,3.619,4.0832,4.7379,3.4011,2.7532,3.1203,1.0853,2.6744,4.1318,3.427,-0.1928,0.7418
3.3514,4.2868,3.3902,5.2821,4.4265,3.2459,3.4908,1.9467,2.3858,5.4185,3.5447,3.8555,5.3371,5.4592,3.1794,3.8469,3.9198,2.5987,3.9602,4.3214,5.118,3.7225,3.0692,3.6659,1.5022,3.1368,4.675,3.8806,-0.15,0.4543
3.5464,4.4615,3.5262,5.5312,4.8087,3.5094,4.0613,2.4045,3.1253,6.0052,4.0205,4.2708,5.9004,5.9753,3.4154,4.1349,4.2298,2.6534,4.3106,4.5644,5.5232,4.0673,3.388,4.2003,1.845,3.5387,5.1845,4.2988,-0.0986,0.1502
3.7135,4.6238,3.6683,5.7674,5.1855,3.7501,4.6148,2.8297,3.8205,6.5538,4.4578,4.6497,6.4316,6.4809,3.6351,4.4034,4.5317,2.7031,4.6556,4.8126,5.9433,4.4248,3.6981,4.7043,2.1106,3.8676,5.6422,4.6606,-0.0379,-0.1594
3.8451,4.774,3.8065,5.9914,5.5518,3.9645,5.1365,3.2114,4.4414,7.0501,4.8408,4.9788,6.9158,6.9616,3.8295,4.6474,4.8183,2.7573,4.9867,5.071,6.3718,4.7873,3.9926,5.163,2.3072,4.1194,6.036,4.9503,0.0285,-0.4626
3.9387,4.9139,3.9292,6.2049,5.9041,4.1512,5.6128,3.5396,4.964,7.4823,5.1585,5.2488,7.3423,7.4082,3.9924,4.8663,5.0851,2.8278,5.2998,5.3459,6.8051,5.1508,4.2689,5.5675,2.4526,4.2976,6.3607,5.1595,0.0925,-0.747
3.9966,5.0456,4.0262,6.4094,6.2399,4.3104,6.0323,3.8055,5.3731,7.8425,5.4045,5.4548,7.7066,7.8182,4.1201,5.0615,5.3291,2.9248,5.5949,5.6418,7.2417,5.5141,4.5286,5.9167,2.5723,4.4138,6.6181,5.2878,0.144,-1.0028
4.026,5.1726,4.0912,6.6066,6.5593,4.4454,6.3886,4.0032,5.665,8.1281,5.5784,5.597,8.0116,8.1963,4.2121,5.2373,5.5495,3.0533,5.8756,5.9615,7.6835,5.8794,4.7775,6.2175,2.6956,4.4857,6.8172,5.3432,0.1735,-1.226
4.0373,5.2994,4.1247,6.7994,6.8658,4.5633,6.6812,4.1324,5.8467,8.343,5.6852,5.6806,8.2681,8.5553,4.272,5.4002,5.7491,3.2117,6.1492,6.3055,8.1353,6.2526,5.0248,6.4844,2.8515,4.5363,6.9738,5.3418,0.1743,-1.4203
4.0424,5.4325,4.1336,6.9921,7.1661,4.6744,6.9164,4.1989,5.935,8.4974,5.7354,5.7156,8.4938,8.9134,4.3071,5.5589,5.9345,3.3925,6.4268,6.6736,8.6053,6.6422,5.2825,6.7377,3.0645,4.5913,7.1086,5.3058,0.1441,-1.598
4.0515,5.5787,4.1297,7.1903,7.4693,4.7905,7.1063,4.2138,5.9523,8.6065,5.7438,5.7157,8.7105,9.2914,4.3273,5.7232,6.1156,3.5842,6.7219,7.0656,9.103,7.0574,5.5631,6.9993,3.3507,4.6761,7.2444,5.2614,0.0847,-1.7774
4.0707,5.7437,4.1265,7.4006,7.7841,4.922,7.2666,4.1917,5.923,8.6883,5.7277,5.6966,8.9406,9.7077,4.3425,5.9026,6.3041,3.7746,7.0486,7.4813,9.6377,7.5062,5.8777,7.2896,3.7147,4.8129,7.4034,5.2349,0.0004,-1.979
4.1006,5.9304,4.1366,7.6286,8.1168,5.075,7.4135,4.1478,5.8698,8.7607,5.7057,5.6743,9.2027,10.1749,4.3597,6.1046,6.5105,3.9529,7.4184,7.9207,10.2153,7.9925,6.2334,7.6227,4.1482,5.0159,7.6025,5.2492,-0.1032,-2.2208
4.1361,6.1372,4.1685,7.8778,8.4691,5.2496,7.5607,4.0953,5.8114,8.8381,5.6949,5.6637,9.5083,10.6954,4.3808,6.3331,6.7412,4.1118,7.8372,8.3824,10.8357,8.5143,6.6317,8.0036,4.631,5.2887,7.8512,5.3199,-0.2203,-2.5143
4.1683,6.3575,4.2251,8.1482,8.8363,5.4393,7.7166,4.0431,5.7607,8.929,5.7079,5.6761,9.8591,11.2607,4.4019,6.5874,6.9964,4.2467,8.3028,8.8628,11.4911,9.0625,7.0668,8.4269,5.1332,5.6225,8.1484,5.4532,-0.3444,-2.8621
4.1871,6.5806,4.3032,8.4355,9.2082,5.632,7.8826,3.995,5.7234,9.0337,5.7501,5.7179,10.2464,11.851,4.4137,6.8615,7.2686,4.3553,8.8032,9.3541,12.1652,9.6214,7.5254,8.8774,5.6207,5.9967,8.4825,5.6444,-0.4688,-3.2572
4.1843,6.7928,4.3937,8.7305,9.5696,5.813,8.0532,3.9495,5.6977,9.1447,5.8179,5.7893,10.6525,12.4385,4.4051,7.145,7.5441,4.4372,9.3177,9.8444,12.8344,10.171,7.9892,9.3326,6.0601,6.3821,8.8336,5.8791,-0.586,-3.6842
4.1551,6.9805,4.4833,9.0208,9.9033,5.9675,8.2178,3.9016,5.6767,9.2491,5.8992,5.8846,11.0542,12.9917,4.3658,7.4241,7.8048,4.4933,9.8193,10.3182,13.4706,10.6898,8.4371,9.7679,6.4254,6.747,9.1778,6.136,-0.6884,-4.1216
4.099,7.1319,4.5563,9.2914,10.1929,6.0846,8.3649,3.8463,5.6513,9.3326,5.9773,5.9943,11.4282,13.4813,4.2898,7.6836,8.0324,4.5266,10.2802,10.7585,14.0457,11.1584,8.8498,10.1613,6.7025,7.0631,9.4925,6.3919,-0.7697,-4.5455
4.0192,7.2391,4.5978,9.5282,10.4268,6.1593,8.4866,3.7821,5.6162,9.3854,6.0373,6.1088,11.7568,13.887,4.1777,7.91,8.2122,4.5418,10.6762,11.15,14.5373,11.5639,9.213,10.4986,6.8906,7.3116,9.7627,6.6272,-0.826,-4.9341
3.921,7.2997,4.5964,9.7202,10.6015,6.1946,8.5826,3.7138,5.5744,9.4069,6.0717,6.2216,12.0328,14.2018,4.0362,8.0941,8.3371,4.545,10.9932,11.4826,14.9337,11.9019,9.52,10.7767,7.002,7.4854,9.984,6.8299,-0.8568,-5.2729
3.8101,7.3169,4.5465,9.8631,10.724,6.2014,8.6625,3.6544,5.5398,9.4078,6.0848,6.3315,12.2619,14.4353,3.8782,8.2334,8.4095,4.5425,11.2296,11.7537,15.2372,12.1783,9.7725,11.0041,7.0583,7.5894,10.1641,6.9979,-0.8656,-5.5586
3.6912,7.2998,4.4503,9.9606,10.8115,6.1976,8.7453,3.6231,5.5364,9.4091,6.0926,6.4433,12.4619,14.6116,3.7193,8.3327,8.4413,4.5407,11.3979,11.9697,15.4642,12.4076,9.9801,11.1992,7.085,7.6376,10.3203,7.138,-0.8594,-5.8002
3.5679,7.2619,4.3172,10.0246,10.8893,6.2049,8.855,3.642,5.5936,9.437,6.1196,6.5659,12.6587,14.7648,3.5751,8.4037,8.4518,4.5451,11.5214,12.1439,15.6413,12.6111,10.1578,11.3858,7.1067,7.6489,10.4749,7.2628,-0.8471,-6.017
3.4425,7.2191,4.1625,10.0728,10.9852,6.2453,9.0157,3.7312,5.739,9.5168,6.1918,6.7085,12.8792,14.9309,3.4578,8.4616,8.4632,4.5601,11.6286,12.2933,15.7988,12.8119,10.3237,11.5883,7.1433,7.6425,10.6496,7.3858,-0.8378,-6.2336
3.3165,7.1859,4.0034,10.124,11.1233,6.3364,9.245,3.904,5.9915,9.6649,6.3294,6.8769,13.1448,15.1388,3.3733,8.5209,8.4956,4.5886,11.7466,12.4333,15.9624,13.0303,10.4954,11.8255,7.207,7.6344,10.8595,7.5163,-0.8388,-6.4728
3.1909,7.1726,3.8565,10.1938,11.3177,6.4877,9.5488,4.1632,6.3548,9.884,6.5401,7.0697,13.4641,15.4034,3.3213,8.5909,8.5617,4.631,11.8946,12.5733,16.1474,13.2795,10.6873,12.1068,7.3025,7.634,11.1088,7.6549,-0.8543,-6.7502
3.0667,7.1829,3.7334,10.2897,11.5681,6.6985,9.9183,4.4995,6.8149,10.1609,6.8158,7.2763,13.83,15.7212,3.2955,8.6732,8.6638,4.6857,12.0788,12.7137,16.3543,13.5629,10.9077,12.4288,7.4264,7.6424,11.3885,7.7913,-0.8841,-7.0696
2.9447,7.2131,3.64,10.4092,11.8594,6.9574,10.3304,4.8923,7.3399,10.4677,7.1325,7.4763,14.2192,16.0702,3.2861,8.7608,8.7928,4.7489,12.2921,12.8461,16.5696,13.8722,11.1573,12.7755,7.5685,7.6507,11.6763,7.9047,-0.9248,-7.4217
2.8257,7.254,3.5756,10.5399,12.1642,7.2443,10.7506,5.3129,7.8844,10.7665,7.453,7.6421,14.5951,16.4148,3.2822,8.8401,8.9302,4.816,12.5152,12.955,16.7694,14.1894,11.4289,13.1193,7.7122,7.6406,11.9391,7.9656,-0.9707,-7.7856
2.7103,7.2931,3.5357,10.6625,12.449,7.5348,11.1387,5.7281,8.3955,11.0159,7.7337,7.7429,14.9147,16.7127,3.274,8.8943,9.0516,4.8818,12.7212,13.0224,16.9257,14.4894,11.708,13.4253,7.8364,7.5862,12.1381,7.9413,-1.0155,-8.1324
2.599,7.3181,3.5139,10.7557,12.681,7.8039,11.456,6.1055,8.8217,11.1785,7.9314,7.7498,15.1361,16.9237,3.2535,8.9071,9.1313,4.9412,12.8807,13.0315,17.0125,14.7439,11.9751,13.6559,7.9176,7.4587,12.2353,7.8019,-1.053,-8.4302
2.4919,7.3197,3.5049,10.8003,12.8348,8.0314,11.6715,6.4179,9.1214,11.2273,8.0115,7.6423,15.2267,17.0173,3.2148,8.8659,9.1468,4.9892,12.9667,12.9704,17.0112,14.9263,12.2077,13.7775,7.933,7.233,12.2006,7.5274,-1.0778,-8.6489
2.3886,7.2919,3.505,10.7834,12.8976,8.2038,11.7676,6.6473,9.2708,11.1507,7.9542,7.414,15.1699,16.9786,3.1525,8.763,9.0817,5.0201,12.9591,12.8336,16.9139,15.0155,12.3831,13.7666,7.8642,6.8951,12.0186,7.1141,-1.0857,-8.7653
2.2867,7.2318,3.5106,10.6996,12.8702,8.3158,11.7426,6.7865,9.2681,10.9547,7.7592,7.0756,14.9688,16.8108,3.0608,8.5961,8.927,5.0268,12.8459,12.622,16.7241,14.9983,12.4813,13.6143,7.7003,6.4484,11.6935,6.5783,-1.0731,-8.7672
2.1808,7.1373,3.5165,10.5512,12.7652,8.3682,11.6098,6.8389,9.1341,10.6621,7.4462,6.6559,14.6459,16.5338,2.9317,8.366,8.6804,4.9993,12.6248,12.341,16.4547,14.8709,12.4865,13.3294,7.4411,5.9171,11.2499,5.9576,-1.0375,-8.6564
2.0618,7.0051,3.5135,10.3454,12.603,8.3659,11.3942,6.816,8.9075,10.3083,7.0523,6.1985,14.2399,16.1802,2.7552,8.0752,8.3453,4.9246,12.3012,11.9985,16.1246,14.6383,12.3892,12.9379,7.0979,5.3443,10.7308,5.3072,-0.9769,-8.4492
1.9177,6.8302,3.4882,10.0923,12.4059,8.3144,11.1271,6.734,8.6372,9.9353,6.6256,5.7558,13.7985,15.7883,2.5209,7.7268,7.9292,4.7883,11.8879,11.6033,15.7558,14.3138,12.1882,12.4797,6.6933,4.7867,10.1924,4.6931,-0.89,-8.1744
1.7352,6.6069,3.4247,9.8025,12.1943,8.218,10.8402,6.6094,8.3726,9.5845,6.2178,5.3806,13.3703,15.3962,2.2207,7.3247,7.4431,4.5782,11.4034,11.1638,15.3694,13.9177,11.8911,12.0027,6.2585,4.3043,9.6951,4.182,-0.7765,-7.869
1.5026,6.3312,3.3084,9.4851,11.9823,8.0791,10.5603,6.4562,8.1543,9.2905,5.8746,5.1174,12.9973,15.0351,1.8524,6.8749,6.9018,4.288,10.8703,10.6889,14.9836,13.4752,11.5148,11.5552,5.8297,3.9494,9.2947,3.8298,-0.6376,-7.5713
1.2124,6.0033,3.1295,9.1476,11.7771,7.8991,10.3056,6.2838,8.0068,9.0756,5.6293,4.9948,12.7081,14.7257,1.4212,6.386,6.3233,3.9211,10.3127,10.1881,14.6122,13.0139,11.084,11.1785,5.4422,3.7567,9.0324,3.6721,-0.4766,-7.3148
0.8642,5.6292,2.8856,8.7956,11.5788,7.6794,10.0844,6.0974,7.9348,8.9482,5.4976,5.0206,12.5146,14.4764,0.9411,5.8705,5.7285,3.4908,9.7539,9.6723,14.2634,12.5607,10.6273,10.8996,5.125,3.7361,8.9282,3.7171,-0.2986,-7.1228
0.4659,5.2205,2.5832,8.4331,11.3829,7.4239,9.8956,5.8994,7.9244,8.902,5.4764,5.1815,12.4116,14.2836,0.4326,5.3432,5.139,3.0189,9.2134,9.1531,13.9398,12.1383,10.174,10.7284,4.8961,3.8711,8.9776,3.9442,-0.1109,-7.005
0.0334,4.7929,2.2366,8.0638,11.1823,7.1397,9.7307,5.691,7.9462,8.9193,5.546,5.4449,12.3797,14.1343,-0.0794,4.8199,4.5748,2.5324,8.7058,8.6424,13.6399,11.763,9.7499,10.6565,4.7605,4.1213,9.1528,4.3078,0.0777,-6.9575
-0.4115,4.363,1.8653,7.6915,10.9705,6.8377,9.5775,5.4737,7.9626,8.9742,5.6738,5.7646,12.3901,14.0099,-0.5696,4.3153,4.0522,2.0592,8.2395,8.1507,13.3592,11.443,9.3746,10.6611,4.7093,4.4301,9.4087,4.7447,0.2575,-6.9641
-0.8442,3.9453,1.4914,7.3201,10.7443,6.5315,9.4234,5.2505,7.9349,9.0378,5.821,6.0887,12.4114,13.8912,-1.0154,3.8407,3.5821,1.6248,7.8185,7.6868,13.0928,11.1797,9.0604,10.7105,4.723,4.735,9.6908,5.1852,0.4188,-6.9999
-1.2411,3.5503,1.1353,6.9546,10.5047,6.2367,9.2588,5.0261,7.831,9.0835,5.9485,6.367,12.4159,13.762,-1.3998,3.4036,3.1695,1.2499,7.4435,7.2569,12.8378,10.969,8.8117,10.7715,4.7756,4.9787,9.9455,5.5641,0.5533,-7.0365
-1.5824,3.1841,0.8143,6.6013,10.2585,5.9685,9.0802,4.8068,7.631,9.0908,6.0234,6.559,12.385,13.6135,-1.7132,3.0079,2.8151,0.9496,7.1144,6.8656,12.5951,10.8045,8.6271,10.816,4.8396,5.1194,10.1295,5.8315,0.6548,-7.0457
-1.8533,2.8498,0.5407,6.2687,10.0176,5.7405,8.8904,4.5997,7.3309,9.0483,6.0229,6.6391,12.3123,13.446,-1.9531,2.6552,2.5168,0.7331,6.8324,6.5169,12.3706,10.6803,8.5014,10.8269,4.8911,5.1371,10.2167,5.9588,0.7199,-7.005
-2.0454,2.5499,0.322,5.9668,9.7969,5.5634,8.6981,4.4115,6.9424,8.9552,5.9363,6.5989,12.203,13.269,-2.1235,2.3465,2.2722,0.604,6.6007,6.2152,12.1746,10.5927,8.4287,10.7994,4.9141,5.0357,10.2007,5.9414,0.7484,-6.9007
-2.157,2.2876,0.161,5.7068,9.6117,5.4431,8.5149,4.2468,6.4904,8.8193,5.7652,6.4469,12.0717,13.0986,-2.2327,2.083,2.0795,0.5601,6.4237,5.965,12.0195,10.5409,8.4039,10.7412,4.9022,4.8402,10.0935,5.797,0.7426,-6.7302
-2.1939,2.0669,0.0564,5.4982,9.4733,5.3794,8.3521,4.107,6.0066,8.6545,5.5206,6.2041,11.9362,12.9531,-2.2917,1.8654,1.9375,0.5933,6.3052,5.7695,11.916,10.5257,8.424,10.668,4.8585,4.59,9.9206,5.5591,0.7066,-6.5028
-2.169,1.8912,0.0029,5.3456,9.3859,5.3655,8.2161,3.989,5.5232,8.4765,5.2198,5.8993,11.8119,12.8475,-2.3124,1.6927,1.8438,0.6891,6.245,5.6281,11.869,10.5471,8.4866,10.5979,4.7939,4.3299,9.713,5.2687,0.6457,-6.2374
-2.1026,1.7604,-0.0087,5.2461,9.3439,5.3881,8.1058,3.8851,5.0661,8.2985,4.8828,5.5628,11.7064,12.7884,-2.3069,1.5593,1.7923,0.8274,6.2354,5.534,11.8745,10.6008,8.5876,10.5454,4.7235,4.1007,9.4997,4.9662,0.5657,-5.9587
-2.02,1.6685,0.0085,5.188,9.3325,5.4286,8.012,3.7842,4.6511,8.1286,4.5296,5.2221,11.617,12.7713,-2.2868,1.4549,1.7717,0.9836,6.2605,5.4731,11.9187,10.6767,8.7187,10.517,4.663,3.9325,9.3018,4.6836,0.4723,-5.6916
-1.9485,1.6035,0.0386,5.1518,9.3305,5.4669,7.9186,3.6735,4.2818,7.9684,4.1781,4.8987,11.5317,12.78,-2.262,1.365,1.766,1.1329,6.2972,5.4255,11.9801,10.7588,8.8661,10.5088,4.6255,3.8398,9.1297,4.4413,0.3709,-5.4567
-1.9113,1.5489,0.0649,5.1145,9.3148,5.4847,7.8067,3.5411,3.9512,7.8141,3.8432,4.607,11.433,12.7911,-2.24,1.2736,1.7573,1.2537,6.3195,5.37,12.034,10.8276,9.0113,10.5083,4.6196,3.8213,8.9834,4.2461,0.2662,-5.2654
-1.9229,1.4871,0.0727,5.0544,9.2663,5.469,7.6587,3.3781,3.6445,7.6589,3.5356,4.3538,11.3037,12.7789,-2.2248,1.1679,1.7302,1.3322,6.3048,5.2887,12.0585,10.8648,9.1342,10.4982,4.6485,3.8617,8.8552,4.0929,0.1622,-5.1192
-1.9854,1.4038,0.0514,4.9567,9.1744,5.4148,7.4626,3.1813,3.3432,7.495,3.2609,4.1397,11.1321,12.7226,-2.2164,1.0419,1.6755,1.3637,6.2394,5.1727,12.0393,10.8577,9.2169,10.4612,4.7096,3.936,8.7338,3.968,0.0614,-5.0101
-2.0882,1.2904,-0.0038,4.8165,9.0387,5.3253,7.215,2.9533,3.0296,7.3163,3.0198,3.9601,10.9155,12.6111,-2.2106,0.8985,1.5934,1.3532,6.1218,5.0248,11.9732,10.802,9.2474,10.3848,4.7951,4.014,8.6076,3.853,-0.0349,-4.9246
-2.211,1.1462,-0.0918,4.6398,8.869,5.2101,6.9214,2.702,2.691,7.1197,2.8084,3.8072,10.6614,12.4464,-2.2013,0.7491,1.4922,1.3121,5.9626,4.8584,11.8684,10.7029,9.2226,10.2643,4.8923,4.0658,8.4679,3.7291,-0.127,-4.8481
-2.3302,0.9772,-0.2066,4.4416,8.6819,5.0825,6.595,2.4386,2.3221,6.9054,2.6188,3.6716,10.3856,12.2421,-2.1819,0.6104,1.3858,1.255,5.7819,4.6946,11.7414,10.5733,9.1482,10.1035,4.9857,4.0668,8.3105,3.5813,-0.2159,-4.7702
-2.4251,0.7942,-0.3392,4.2418,8.4961,4.9554,6.2539,2.1749,1.9257,6.6765,2.4409,3.5439,10.1086,12.0208,-2.1487,0.4995,1.2889,1.1955,5.6036,4.5558,11.6125,10.4304,9.0379,9.913,5.0584,4.001,8.136,3.4011,-0.3029,-4.6862
-2.4834,0.6102,-0.4795,4.0607,8.3277,4.8385,5.9176,1.9203,1.5119,6.4386,2.2642,3.4165,9.8515,11.8081,-2.1018,0.4297,1.213,1.1448,5.4502,4.4607,11.5005,10.2916,8.9098,9.7084,5.0954,3.865,7.9499,3.1887,-0.3887,-4.5975
-2.503,0.4383,-0.617,3.9154,8.1875,4.7367,5.6049,1.6805,1.0959,6.1991,2.0811,3.2852,9.6331,11.6281,-2.0451,0.4075,1.1633,1.1103,5.3384,4.4202,11.4191,10.1713,8.7835,9.5072,5.0863,3.6686,7.7623,2.954,-0.4736,-4.5085
-2.4894,0.2907,-0.7417,3.8182,8.0807,4.6507,5.3325,1.4585,0.6959,5.9681,1.8897,3.1514,9.4677,11.4997,-1.9842,0.433,1.139,1.0964,5.2772,4.4364,11.3756,10.0789,8.676,9.3267,5.0275,3.4338,7.5876,2.7159,-0.5567,-4.4243
-2.4515,0.1791,-0.8431,3.7767,8.0081,4.5788,5.1149,1.2557,0.3318,5.7582,1.6958,3.0231,9.3656,11.4349,-1.9238,0.5013,1.1357,1.1048,5.2685,4.5054,11.3723,10.0186,8.5995,9.1824,4.9229,3.1913,7.443,2.4997,-0.6362,-4.3478
-2.3952,0.1147,-0.9102,3.7949,7.9698,4.5199,4.9642,1.0744,0.0233,5.5844,1.5137,2.9144,9.3331,11.4388,-1.8643,0.6072,1.1487,1.1358,5.3096,4.6202,11.4086,9.9908,8.5604,9.087,4.7831,2.9746,7.3464,2.333,-0.7091,-4.2792
-2.3199,0.1097,-0.9305,3.8754,7.9673,4.4754,4.8894,0.9188,-0.212,5.4626,1.3637,2.8429,9.3727,11.5108,-1.7999,0.7482,1.1769,1.1892,5.3963,4.7755,11.4839,9.9936,8.5591,9.0492,4.6234,2.814,7.3136,2.2402,-0.7706,-4.2171
-2.217,0.1762,-0.8913,4.0199,8.0055,4.4504,4.8959,0.7948,-0.3603,5.4066,1.2679,2.8254,9.4832,11.6458,-1.7191,0.9272,1.2246,1.2655,5.5253,4.9698,11.5987,10.0253,8.5915,9.0726,4.4605,2.7305,7.3546,2.2378,-0.8152,-4.1603
-2.0715,0.326,-0.7814,4.2301,8.0921,4.4533,4.9833,0.7089,-0.4144,5.4254,1.2448,2.8739,9.6587,11.8352,-1.6056,1.1518,1.3022,1.3653,5.6965,5.2062,11.7548,10.0854,8.6515,9.1554,4.3105,2.7332,7.4717,2.3306,-0.8366,-4.1104
-1.8669,0.5683,-0.5934,4.5063,8.2355,4.4944,5.1447,0.6661,-0.3755,5.52,1.3038,2.991,9.8884,12.0682,-1.4424,1.4329,1.4239,1.4895,5.9128,5.4908,11.955,10.1752,8.7329,9.2899,4.1863,2.8181,7.6572,2.5105,-0.829,-4.0732
-1.5891,0.9068,-0.3261,4.8462,8.4421,4.5837,5.3663,0.668,-0.2547,5.6811,1.4417,3.1682,10.1565,12.3322,-1.2142,1.7806,1.6055,1.6382,6.1785,5.8297,12.2009,10.2971,8.8315,9.4635,4.0966,2.9705,7.8945,2.7572,-0.7885,-4.0588
-1.2317,1.3368,0.0139,5.2431,8.7132,4.7283,5.6289,0.7121,-0.0732,5.89,1.6412,3.3859,10.4435,12.6133,-0.912,2.2,1.8596,1.8095,6.4966,6.2251,12.4921,10.4531,8.9454,9.6599,4.0455,3.1681,8.1594,3.042,-0.7144,-4.0792
-0.7999,1.8426,0.4109,5.6844,9.0425,4.9299,5.9089,0.791,0.1395,6.1193,1.8728,3.6158,10.7275,12.897,-0.5355,2.687,2.1914,1.9991,6.8649,6.672,12.824,10.6426,9.0737,9.8604,4.0319,3.3855,8.4232,3.3319,-0.6097,-4.1451
-0.3115,2.3968,0.8416,6.1504,9.4145,5.1828,6.1815,0.8937,0.3492,6.3375,2.0994,3.8263,10.9862,13.1682,-0.0959,3.2265,2.5951,2.1988,7.2733,7.156,13.186,10.8604,9.2143,10.0457,4.05,3.5981,8.6565,3.5953,-0.4817,-4.2628
0.2042,2.9623,1.2763,6.6153,9.8056,5.4731,6.4233,1.0075,0.5232,6.5134,2.284,3.9879,11.1994,13.4118,0.3841,3.7924,3.0525,2.3973,7.7017,7.6537,13.5618,11.095,9.3616,10.1977,4.0893,3.7857,8.8329,3.8066,-0.3411,-4.431
0.7106,3.4965,1.6831,7.0496,10.1863,5.7801,6.6156,1.1209,0.6366,6.6217,2.397,4.0792,11.3513,13.6141,0.8719,4.3512,3.5345,2.5813,8.1222,8.136,13.9297,11.3291,9.5052,10.3018,4.1364,3.9348,8.9332,3.9496,-0.2006,-4.6403
1.1709,3.9585,2.0327,7.4242,10.5252,6.0788,6.7458,1.2252,0.677,6.6471,2.4229,4.0907,11.4325,13.7632,1.3303,4.8668,4.0043,2.7369,8.5022,8.5722,14.2654,11.5412,9.6308,10.3486,4.1764,4.0393,8.9472,4.0193,-0.0727,-4.874
1.5548,4.3157,2.3022,7.7153,10.7937,6.3436,6.809,1.3162,0.647,6.5871,2.3626,4.0255,11.4404,13.8506,1.7233,5.3067,4.4239,2.8526,8.8093,8.9352,14.545,11.7082,9.7217,10.3344,4.1951,4.0987,8.8747,4.02,0.0319,-5.1097
1.843,4.5492,2.4787,7.9073,10.9698,6.5521,6.8067,1.3933,0.562,6.4511,2.2314,3.8971,11.3782,13.8715,2.0229,5.6465,4.7588,2.9212,9.017,9.2055,14.7475,11.8095,9.7627,10.261,4.1809,4.1161,8.724,3.9625,0.1064,-5.3235
2.0293,4.6564,2.5601,7.9951,11.0412,6.6887,6.7454,1.458,0.445,6.2575,2.0537,3.7243,11.2537,13.8242,2.2137,5.8732,4.9841,2.9409,9.1081,9.3728,14.8583,11.8294,9.7426,10.1341,4.1267,4.0951,8.509,3.8597,0.1487,-5.4931
2.1186,4.6495,2.5543,7.9839,11.0067,6.7457,6.6346,1.512,0.32,6.0301,1.8564,3.5267,11.0763,13.7104,2.2954,5.9851,5.0868,2.9157,9.0775,9.4361,14.8703,11.7603,9.6569,9.9616,4.0306,4.0377,8.2466,3.7227,0.1611,-5.6015
2.1242,4.5523,2.476,7.8872,10.8756,6.7251,6.4847,1.5562,0.2066,5.7929,1.6627,3.3204,10.8563,13.5344,2.2815,5.9903,5.0679,2.855,8.9326,9.4031,14.7852,11.6028,9.508,9.7513,3.8961,3.9439,7.9535,3.5592,0.1496,-5.6397
2.0635,4.3944,2.3438,7.7238,10.6663,6.6372,6.3067,1.5898,0.1162,5.5668,1.4887,3.1174,10.6037,13.3035,2.1951,5.9044,4.9416,2.7711,8.6926,9.2878,14.6139,11.3664,9.3055,9.5105,3.7311,3.8128,7.6455,3.3738,0.1222,-5.6071
1.9555,4.206,2.1769,7.5157,10.4037,6.4992,6.1112,1.6109,0.0515,5.3675,1.3414,2.9248,10.3294,13.0283,2.0646,5.7478,4.7337,2.6779,8.3859,9.1098,14.3759,11.0683,9.0651,9.2462,3.5467,3.6446,7.3365,3.1696,0.0861,-5.5111
1.8186,4.0137,1.9926,7.2848,10.1161,6.3325,5.9095,1.6177,0.0082,5.2045,1.2211,2.747,10.0459,12.7238,1.9184,5.5442,4.4777,2.5895,8.0479,8.8926,14.0974,10.7321,8.807,8.9666,3.3564,3.4432,7.0393,2.9513,0.0467,-5.366
1.6701,3.8374,1.8053,7.0523,9.8322,6.1595,5.7141,1.6092,-0.0217,5.0824,1.1237,2.5877,9.7685,12.4096,1.7822,5.3192,4.2116,2.5185,7.7172,8.6624,13.8098,10.3864,8.5542,8.6829,3.1751,3.2185,6.7673,2.7271,0.0056,-5.1904
1.5256,3.6901,1.6263,6.837,9.5789,6.0003,5.5386,1.5863,-0.0455,5.0034,1.0452,2.4517,9.5161,12.1093,1.6771,5.0997,3.9726,2.4764,7.4317,8.4472,13.5463,10.0629,8.331,8.4106,3.0188,2.9871,6.5345,2.5105,-0.0387,-5.0051
1.3984,3.5782,1.4637,6.6556,9.3781,5.8704,5.3982,1.5523,-0.0663,4.9693,0.985,2.3465,9.31,11.8495,1.6191,4.912,3.7932,2.4727,7.2249,8.2744,13.338,9.7928,8.1596,8.1699,2.9035,2.7719,6.3566,2.3198,-0.0904,-4.8308
1.2993,3.5041,1.323,6.5215,9.2455,5.7793,5.3072,1.5129,-0.0804,4.9839,0.9485,2.2824,9.1714,11.6554,1.6179,4.7792,3.6969,2.5138,7.1217,8.1676,13.2096,9.6039,8.0578,7.9837,2.8439,2.5994,6.2498,2.1767,-0.1545,-4.6858
1.2351,3.4665,1.2069,6.4436,9.1878,5.7296,5.2775,1.4754,-0.0775,5.0525,0.9465,2.2709,9.1173,11.5467,1.6764,4.7176,3.6952,2.6019,7.1343,8.1428,13.1746,9.516,8.0352,7.8732,2.8502,2.4948,6.2276,2.1025,-0.2354,-4.5843
1.2077,3.462,1.1153,6.4248,9.2019,5.7174,5.3151,1.4478,-0.0431,5.18,0.9924,2.3215,9.1564,11.5325,1.7889,4.733,3.7857,2.7322,7.2604,8.2041,13.2316,9.537,8.0912,7.8532,2.9249,2.4762,6.2977,2.1133,-0.3351,-4.5348
1.2138,3.485,1.0458,6.4605,9.274,5.7334,5.4174,1.4364,0.0366,5.3684,1.0974,2.4379,9.285,11.6074,1.9409,4.8191,3.9526,2.8925,7.4815,8.3409,13.3635,9.6608,8.2135,7.9269,3.0602,2.549,6.4584,2.2156,-0.4523,-4.5387
1.2448,3.5272,0.9943,6.5385,9.3818,5.7649,5.5722,1.4449,0.169,5.6129,1.2652,2.6145,9.4855,11.7511,2.1098,4.9571,4.1687,3.0638,7.7649,8.5282,13.539,9.8666,8.3795,8.0831,3.237,2.7031,6.6961,2.4026,-0.5817,-4.5896
1.2888,3.5782,0.9566,6.6397,9.497,5.7977,5.7586,1.473,0.3514,5.8993,1.4877,2.8349,9.7284,11.9301,2.2683,5.1184,4.3991,3.2224,8.0672,8.7296,13.7172,10.1217,8.5593,8.2964,3.4273,2.9132,6.985,2.6538,-0.7149,-4.6741
1.3314,3.625,0.9279,6.7402,9.5897,5.8176,5.9493,1.5164,0.5687,6.2037,1.7439,3.0724,9.9747,12.1024,2.3883,5.269,4.6059,3.3442,8.3399,8.9032,13.8541,10.3851,8.7201,8.5302,3.5973,3.1423,7.2895,2.937,-0.8415,-4.773
1.3574,3.6527,0.9032,6.8143,9.6321,5.8122,6.1141,1.5675,0.7956,6.4933,2.0013,3.2935,10.1821,12.2243,2.4452,5.3743,4.7537,3.4078,8.5356,9.0084,13.9095,10.6128,8.8303,8.7419,3.7132,3.3484,7.5678,3.2122,-0.9513,-4.8643
1.3526,3.6458,0.8764,6.8371,9.6022,5.771,6.2246,1.6162,1.0016,6.73,2.2214,3.4627,10.3098,12.256,2.4222,5.4051,4.8143,3.399,8.6146,9.012,13.8519,10.7625,8.8636,8.8883,3.7458,3.4914,7.7767,3.4376,-1.0361,-4.9267
1.306,3.5894,0.8399,6.7882,9.4859,5.6868,6.2575,1.6519,1.157,6.876,2.3658,3.5479,10.3245,12.1682,2.3132,5.3416,4.7706,3.3119,8.5505,8.8944,13.6635,10.7992,8.8015,8.9321,3.6749,3.5397,7.8774,3.5752,-1.0905,-4.9426
1.2117,3.4723,0.7859,6.6549,9.2786,5.5563,6.1982,1.6653,1.2391,6.9001,2.4032,3.5252,10.2045,11.9458,2.1243,5.177,4.6194,3.151,8.3341,8.6516,13.3419,10.6998,8.6351,8.8469,3.4922,3.475,7.8411,3.5968,-1.1121,-4.9013
1.0721,3.2901,0.708,6.4349,8.9865,5.3815,6.0428,1.6496,1.2364,6.7845,2.3157,3.3833,9.9435,11.5904,1.873,4.9191,4.3726,2.9305,7.9761,8.2974,12.901,10.4565,8.3671,8.6215,3.2026,3.2951,7.6534,3.4882,-1.1011,-4.7997
0.8981,3.0476,0.6042,6.1385,8.626,5.1707,5.7992,1.6025,1.1505,6.5292,2.1024,3.126,9.5518,11.1203,1.5869,4.5898,4.056,2.673,7.5067,7.8609,12.3696,10.0796,8.0119,8.2625,2.8242,3.0141,7.3184,3.2522,-1.0594,-4.6434
0.7092,2.7607,0.4791,5.7882,8.2228,4.9384,5.4868,1.5263,0.9956,6.1548,1.7816,2.7731,9.0557,10.5682,1.2996,4.2227,3.7072,2.4073,6.9723,7.3842,11.7883,9.5975,7.5954,7.7942,2.3865,2.66,6.8592,2.9093,-0.99,-4.4455
0.5304,2.4558,0.3451,5.4166,7.809,4.7035,5.1341,1.4287,0.7965,5.7003,1.3881,2.358,8.4943,9.9769,1.0464,3.8588,3.37,2.1642,6.4296,6.9157,11.2047,9.0534,7.1526,7.2561,1.9272,2.2701,6.3164,2.4952,-0.8972,-4.2257
0.3875,2.1659,0.2207,5.0618,7.4186,4.4871,4.7747,1.3218,0.5849,5.2181,0.9694,1.9235,7.9131,9.3926,0.8594,3.5405,3.0888,1.972,5.9374,6.5041,10.6663,8.5001,6.7227,6.6967,1.4868,1.885,5.7416,2.055,-0.786,-4.0079
0.302,1.9262,0.1271,4.7613,7.0833,4.3092,4.4426,1.2209,0.3946,4.7654,0.5779,1.5151,7.3575,8.8582,0.7625,3.3044,2.9021,1.8524,5.5482,6.1907,10.2139,7.9917,6.3443,6.1661,1.103,1.5418,5.1901,1.6359,-0.6625,-3.817
0.2863,1.7673,0.0831,4.5455,6.8269,4.1846,4.167,1.1418,0.2565,4.3946,0.2625,1.1741,6.8656,8.4064,0.7676,3.1756,2.8363,1.8173,5.2995,6.0033,9.8751,7.5747,6.0485,5.7076,0.8054,1.2692,4.7115,1.2793,-0.5337,-3.6755
0.3413,1.7094,0.1004,4.4321,6.6617,4.1206,3.9673,1.0975,0.1926,4.1435,0.0593,0.9304,6.4625,8.0551,0.8726,3.163,2.9011,1.8668,5.2074,5.9512,9.6595,7.2803,5.8545,5.3508,0.6111,1.0835,4.3418,1.0131,-0.4079,-3.5984
0.4562,1.7579,0.1793,4.4224,6.5859,4.115,3.8502,1.0951,0.2119,4.029,-0.0146,0.7976,6.1567,7.8047,1.0608,3.2568,3.0871,1.9896,5.264,6.0231,9.5575,7.1182,5.7655,5.1072,0.5227,0.9867,4.0977,0.8481,-0.294,-3.5902
0.6107,1.9011,0.3085,4.5008,6.584,4.1558,3.8086,1.1339,0.3084,4.0441,0.0353,0.7707,5.9405,7.6393,1.3036,3.4296,3.3659,2.1641,5.4381,6.1889,9.542,7.0758,5.7693,4.9695,0.5288,0.9678,3.9747,0.7767,-0.2009,-3.6427
0.7794,2.1119,0.4663,4.6371,6.6291,4.2235,3.8237,1.2058,0.4624,4.1608,0.1835,0.8286,5.7932,7.5307,1.5643,3.6411,3.6941,2.3614,5.6806,6.4038,9.5741,7.1207,5.8404,4.9144,0.6064,1.0044,3.9497,0.7765,-0.1359,-3.7365
0.9356,2.3524,0.6255,4.7918,6.6878,4.2941,3.8697,1.2969,0.6455,4.3374,0.39,0.9385,5.6868,7.445,1.8043,3.8449,4.0199,2.5495,5.9329,6.6159,9.6099,7.2082,5.9452,4.9083,0.7255,1.0669,3.9869,0.8154,-0.103,-3.8449
1.056,2.58,0.7584,4.9236,6.7263,4.3437,3.9192,1.3905,0.8269,4.5275,0.6101,1.0632,5.5931,7.3501,1.9886,3.9968,4.2916,2.6982,6.137,6.7752,9.6088,7.2897,6.0483,4.9151,0.8539,1.1238,4.0455,0.8604,-0.1013,-3.9391
1.1242,2.755,0.843,4.9965,6.7171,4.3526,3.9491,1.47,0.9802,4.6907,0.8035,1.1693,5.4903,7.2223,2.092,4.0628,4.4664,2.7834,6.2458,6.8419,9.5411,7.3226,6.1179,4.9028,0.9621,1.1465,4.0882,0.8838,-0.1252,-3.9931
1.133,2.8479,0.8665,4.9865,6.6442,4.3088,3.9454,1.5224,1.089,4.8003,0.9426,1.2342,5.3673,7.0511,2.1024,4.0252,4.5177,2.7916,6.2301,6.7941,9.3924,7.2778,6.1311,4.8498,1.0279,1.1145,4.089,0.8703,-0.1648,-3.9889
1.0854,2.8439,0.8275,4.8853,6.5059,4.2106,3.9061,1.5406,1.1505,4.8481,1.0178,1.2511,5.2263,6.8413,2.0229,3.8851,4.4392,2.7213,6.0837,6.6315,9.1661,7.1443,6.0758,4.7477,1.0387,1.0203,4.0378,0.8198,-0.2087,-3.9188
0.9926,2.7461,0.7364,4.7022,6.3157,4.0669,3.8414,1.5255,1.1754,4.845,1.0387,1.2307,5.081,6.6111,1.8702,3.6623,4.2453,2.5827,5.8224,6.3755,8.8817,6.93,5.9523,4.6021,0.993,0.8707,3.9419,0.748,-0.2456,-3.7874
0.8727,2.5744,0.6124,4.462,6.0989,3.8969,3.7711,1.4872,1.1854,4.8177,1.0312,1.1982,4.9533,6.3876,1.6722,3.3909,3.9677,2.3952,5.4806,6.0642,8.5708,6.6587,5.7717,4.4306,0.8995,0.6872,3.824,0.6832,-0.2667,-3.6106
0.7463,2.3619,0.4807,4.2004,5.8879,3.7263,3.7198,1.4434,1.2072,4.801,1.0303,1.1869,4.8667,6.2003,1.462,3.1125,3.649,2.1838,5.1037,5.7453,8.2701,6.3639,5.5534,4.2572,0.7746,0.5012,3.7157,0.6594,-0.2668,-3.4126
0.6344,2.1483,0.367,3.9568,5.7149,3.5832,3.71,1.4151,1.2652,4.8285,1.0703,1.229,4.8398,6.0737,1.273,2.8689,3.3348,1.9746,4.7402,5.4661,8.0145,6.0814,5.3209,4.1075,0.6381,0.3473,3.6495,0.7075,-0.2442,-3.2217
0.5544,1.9721,0.2935,3.7673,5.6047,3.4919,3.7565,1.422,1.375,4.9234,1.1761,1.3462,4.8807,6.0215,1.1335,2.6947,3.066,1.7916,4.4334,5.2645,7.83,5.8421,5.0983,4.0017,0.5095,0.2552,3.6502,0.8473,-0.2003,-3.0645
0.5185,1.8637,0.2749,3.6577,5.5701,3.4688,3.8619,1.4773,1.5391,5.0926,1.3564,1.5436,4.9845,6.0435,1.0629,2.6124,2.8733,1.6542,4.2157,5.1625,7.7296,5.667,4.9063,3.9514,0.4037,0.2426,3.7285,1.081,-0.1381,-2.9609
0.5327,1.8402,0.3165,3.6401,5.6103,3.5189,4.0162,1.585,1.747,5.3251,1.6018,1.8076,5.1339,6.1263,1.0706,2.6301,2.7741,1.5756,4.1056,5.1636,7.7121,5.5653,4.7606,3.9573,0.3293,0.3121,3.8789,1.393,-0.062,-2.9219
0.5968,1.904,0.4145,3.7119,5.7122,3.6361,4.1998,1.7392,1.9786,5.5952,1.888,2.11,5.3044,6.2473,1.156,2.7426,2.7726,1.5628,4.1071,5.2548,7.7647,5.5355,4.6704,4.0119,0.2883,0.4516,4.0816,1.7526,0.0233,-2.9482
0.7053,2.0441,0.5576,3.8588,5.8561,3.8054,4.3885,1.9265,2.2098,5.8691,2.1824,2.4148,5.4699,6.381,1.3095,2.9344,2.8613,1.6153,4.2111,5.4117,7.8673,5.5676,4.6386,4.1019,0.2774,0.6386,4.3083,2.1216,0.1129,-3.0317
0.8482,2.2393,0.7301,4.0586,6.0201,4.0074,4.5597,2.1295,2.4184,6.1135,2.4526,2.6869,5.6091,6.5043,1.5139,3.1829,3.0239,1.726,4.3984,5.6041,7.9973,5.6467,4.6618,4.2128,0.2901,0.8456,4.5289,2.4615,0.2019,-3.1589
1.0126,2.4629,0.9144,4.2862,6.1852,4.2215,4.6975,2.3309,2.5879,6.302,2.6736,2.8997,5.7096,6.6012,1.7453,3.4622,3.2377,1.8802,4.6421,5.8026,8.1339,5.7548,4.7312,4.3316,0.3186,1.0459,4.7178,2.7406,0.2854,-3.3132
1.1831,2.687,1.0941,4.5168,6.3368,4.4289,4.7938,2.5161,2.7096,6.4198,2.8316,3.0391,5.7681,6.6633,1.9756,3.7453,3.4759,2.0572,4.9099,5.9816,8.2593,5.8734,4.8331,4.4479,0.3549,1.2174,4.8579,2.9374,0.3593,-3.4776
1.3427,2.885,1.2544,4.7284,6.4639,4.6134,4.8487,2.6749,2.7818,6.4644,2.9257,3.1044,5.7884,6.6883,2.1744,4.0056,3.7095,2.232,5.1672,6.1208,8.3588,5.9834,4.9498,4.553,0.3917,1.3441,4.9415,3.0417,0.4207,-3.6355
1.4733,3.0346,1.3826,4.9019,6.5573,4.7613,4.8671,2.8014,2.8085,6.4439,2.9648,3.1052,5.7775,6.677,2.3121,4.2176,3.909,2.378,5.3788,6.2043,8.419,6.0659,5.0607,4.6386,0.4222,1.4166,4.9681,3.0525,0.468,-3.7719
1.5571,3.1185,1.4677,5.0213,6.6071,4.8605,4.8554,2.8924,2.7972,6.3733,2.9647,3.058,5.7413,6.6294,2.3646,4.3588,4.0469,2.4706,5.5126,6.2196,8.4276,6.1038,5.1449,4.6958,0.4403,1.4309,4.9424,2.977,0.5006,-3.8739
1.5787,3.126,1.5005,5.0737,6.6022,4.9006,4.8196,2.9461,2.7577,6.271,2.9441,2.9817,5.6835,6.5442,2.3173,4.4113,4.1006,2.4907,5.5435,6.1571,8.373,6.0833,5.1833,4.7151,0.4411,1.3893,4.872,2.8284,0.5187,-3.9323
1.5272,3.0538,1.4744,5.0503,6.5323,4.8739,4.7638,2.9615,2.7009,6.1558,2.921,2.8951,5.6053,6.4184,2.1688,4.3651,4.0554,2.4278,5.457,6.0109,8.2461,5.997,5.1618,4.6893,0.4216,1.3005,4.7664,2.6262,0.5226,-3.9424
1.4001,2.906,1.3867,4.9474,6.3901,4.7774,4.691,2.9385,2.6377,6.045,2.9107,2.8155,5.5078,6.2508,1.9316,4.2194,3.907,2.2819,5.2522,5.7807,8.0433,5.8455,5.0741,4.6156,0.382,1.1808,4.637,2.3955,0.5121,-3.9037
1.2043,2.6941,1.2403,4.7678,6.1756,4.6143,4.604,2.8785,2.5787,5.9525,2.9243,2.7573,5.3939,6.0437,1.6307,3.9843,3.6622,2.0648,4.9423,5.474,7.7686,5.6381,4.922,4.4984,0.326,1.0531,4.4975,2.166,0.4868,-3.8195
0.9564,2.4341,1.0442,4.5208,5.8981,4.3945,4.5061,2.7849,2.5329,5.8885,2.9673,2.731,5.2693,5.8056,1.2987,3.6793,3.339,1.7978,4.5532,5.1072,7.4348,5.3923,4.7161,4.3491,0.2602,0.9438,4.3631,1.9686,0.4465,-3.696
0.6797,2.1453,0.8127,4.2217,5.5758,4.134,4.4015,2.6637,2.5061,5.8572,3.0383,2.7419,5.142,5.5501,0.9705,3.3313,2.9641,1.5089,4.12,4.7051,7.0629,5.1307,4.4731,4.1848,0.193,0.878,4.2486,1.8311,0.392,-3.5424
0.4,1.8466,0.5639,3.8898,5.2337,3.8518,4.2938,2.523,2.4994,5.8568,3.1291,2.7885,5.0194,5.2938,0.6773,2.9708,2.5699,1.2281,3.6812,4.2979,6.6785,4.8771,4.2136,4.024,0.1326,0.8736,4.165,1.7728,0.3257,-3.3705
0.1405,1.5549,0.3157,3.5455,4.8981,3.5669,4.1849,2.3724,2.5086,5.8789,3.2247,2.8623,4.9058,5.0523,0.442,2.628,2.1906,0.9813,3.273,3.9176,6.3079,4.6525,3.9579,3.8818,0.0848,0.9365,4.1167,1.8006,0.2528,-3.1955
-0.0827,1.2826,0.0823,3.2067,4.5919,3.2941,4.0733,2.2214,2.5234,5.9099,3.3049,2.9481,4.7998,4.8365,0.2768,2.3288,1.8573,0.7863,2.9237,3.5919,5.9731,4.4703,3.7229,3.7663,0.0518,1.0584,4.0996,1.9069,0.1806,-3.0354
-0.2636,1.037,-0.1283,2.8861,4.3291,3.0418,3.9541,2.0776,2.5295,5.9328,3.3473,3.0268,4.6936,4.6496,0.1822,2.0919,1.5939,0.6492,2.6502,3.3404,5.688,4.3346,3.5189,3.6758,0.031,1.2191,4.1011,2.0719,0.119,-2.9087
-0.4057,0.8195,-0.3159,2.5893,4.1134,2.8105,3.8191,1.9459,2.5109,5.9313,3.3312,3.0795,4.5756,4.4873,0.1489,1.9264,1.4135,0.5651,2.4561,3.1712,5.4567,4.2392,3.3483,3.6003,0.0157,1.3908,4.1035,2.2687,0.0781,-2.8322
-0.5202,0.6271,-0.4862,2.3149,3.9384,2.5945,3.6595,1.8276,2.4535,5.8926,3.2419,3.0909,4.4328,4.3391,0.1609,1.8312,1.317,0.5199,2.3328,3.0806,5.2737,4.1708,3.2068,3.5249,-0.0027,1.5461,4.0881,2.4694,0.0669,-2.8169
-0.6214,0.4528,-0.6486,2.0562,3.7913,2.3841,3.4688,1.7203,2.3489,5.8104,3.074,3.0534,4.2555,4.1926,0.1992,1.7965,1.2942,0.4953,2.2634,3.0552,5.127,4.1127,3.085,3.4345,-0.0326,1.6646,4.0406,2.6522,0.0902,-2.8654
-0.7225,0.2881,-0.8126,1.804,3.6569,2.1696,3.2451,1.62,2.1966,5.6862,2.8335,2.9685,4.0404,4.037,0.2464,1.8058,1.3265,0.4741,2.2267,3.0749,5.0012,4.0504,2.972,3.3192,-0.0788,1.7375,3.9548,2.8051,0.1471,-2.971
-0.833,0.1246,-0.9848,1.5498,3.5225,1.9445,2.9928,1.522,2.0053,5.5289,2.538,2.8463,3.7921,3.8664,0.2894,1.8394,1.3905,0.4439,2.2022,3.1179,4.8814,3.9751,2.8585,3.1774,-0.1414,1.7685,3.8343,2.9273,0.2304,-3.118
-0.956,-0.0441,-1.1669,1.2884,3.3801,1.7076,2.7227,1.4228,1.7911,5.3527,2.2138,2.7032,3.5222,3.6816,0.3208,1.8777,1.463,0.4002,2.1733,3.164,4.7565,3.8851,2.7388,3.0154,-0.2156,1.7717,3.6907,3.0263,0.328,-3.2851
