FP1,F3,F7,FC3,C3,C5,P3,P7,PO7,PO3,O1,Oz,Pz,CPz,FP2,Fz,F4,F8,FC4,FCz,Cz,C4,C6,P4,P8,PO8,PO4,O2,(corr) HEOG,(corr) VEOG
0.269,-0.1239,0.6796,-0.5462,-0.8736,-1.2064,-1.1837,-1.1626,-0.6922,-1.0274,-0.5173,0.0513,-0.7536,-0.5531,-0.2004,-0.2113,-0.17,-0.4379,0.0958,-0.1249,-0.3109,0.1113,0.1948,-0.3324,-0.4139,-0.1348,-0.1354,-0.0314,0.165,-1.1265
0.2113,-0.3965,0.4656,-0.7335,-0.9881,-1.1935,-1.1856,-1.0442,-0.6235,-1.0258,-0.4919,0.0887,-0.7199,-0.5987,-0.2459,-0.3952,-0.326,-0.5435,-0.0469,-0.2461,-0.3729,0.0857,0.164,-0.2885,-0.3012,-0.0125,-0.0205,0.1047,0.0227,-0.8871
0.1521,-0.6313,0.255,-0.8992,-1.0885,-1.1782,-1.1865,-0.9318,-0.5583,-1.0237,-0.4692,0.1175,-0.6976,-0.6437,-0.2847,-0.5533,-0.4623,-0.6378,-0.1813,-0.351,-0.4326,0.0472,0.1222,-0.2625,-0.2066,0.0913,0.0735,0.2211,-0.115,-0.656
0.0929,-0.7963,0.0569,-1.0249,-1.16,-1.1573,-1.1834,-0.8299,-0.4992,-1.0199,-0.4517,0.1297,-0.6931,-0.6839,-0.3095,-0.6611,-0.5592,-0.7072,-0.2937,-0.4223,-0.4832,-0.0078,0.0665,-0.2647,-0.1415,0.1617,0.1312,0.3019,-0.2381,-0.4418
0.0412,-0.8693,-0.1161,-1.0937,-1.1876,-1.1244,-1.1722,-0.7403,-0.4483,-1.0133,-0.4412,0.1191,-0.7076,-0.7131,-0.3139,-0.698,-0.5994,-0.7391,-0.3698,-0.4442,-0.515,-0.0756,-0.0018,-0.2984,-0.1121,0.1887,0.143,0.3368,-0.338,-0.2528
0.0099,-0.8402,-0.249,-1.092,-1.1578,-1.07,-1.1476,-0.6618,-0.4065,-1.0021,-0.4393,0.0825,-0.7364,-0.7228,-0.2928,-0.6507,-0.5708,-0.7237,-0.3959,-0.4046,-0.5161,-0.1449,-0.0761,-0.3593,-0.1185,0.1692,0.1072,0.3218,-0.409,-0.096
0.0136,-0.7131,-0.3275,-1.0115,-1.0606,-0.9838,-1.1035,-0.5911,-0.3738,-0.9843,-0.4462,0.0199,-0.769,-0.7032,-0.2437,-0.5158,-0.469,-0.6558,-0.3614,-0.2975,-0.4746,-0.1984,-0.1456,-0.4352,-0.1547,0.1063,0.0296,0.26,-0.4483,0.0238
0.0638,-0.5041,-0.3415,-0.8519,-0.8917,-0.8565,-1.034,-0.5234,-0.3492,-0.9574,-0.4606,-0.0652,-0.7904,-0.6452,-0.1672,-0.3009,-0.2985,-0.5356,-0.2609,-0.1246,-0.3811,-0.2164,-0.1961,-0.5087,-0.2099,0.0095,-0.0765,0.1611,-0.4564,0.1045
0.1648,-0.2377,-0.287,-0.6204,-0.6532,-0.6827,-0.9339,-0.453,-0.3297,-0.9173,-0.4786,-0.165,-0.7835,-0.541,-0.0661,-0.0236,-0.0729,-0.369,-0.0956,0.1047,-0.2302,-0.1806,-0.2123,-0.5594,-0.2699,-0.1069,-0.1924,0.0399,-0.4361,0.1464
0.3116,0.0587,-0.1666,-0.331,-0.3529,-0.4612,-0.7985,-0.3741,-0.3103,-0.8588,-0.4938,-0.2685,-0.7309,-0.385,0.0557,0.2917,0.1886,-0.1668,0.1267,0.3756,-0.0222,-0.0776,-0.1798,-0.5671,-0.3192,-0.2254,-0.2969,-0.0857,-0.3917,0.1522
0.4918,0.3606,0.011,-0.002,-0.0031,-0.1959,-0.6247,-0.2807,-0.2845,-0.7749,-0.4971,-0.362,-0.6186,-0.1752,0.194,0.6189,0.4641,0.0566,0.3928,0.6702,0.2377,0.0983,-0.0877,-0.5155,-0.3435,-0.3279,-0.369,-0.1974,-0.3287,0.1261
0.6874,0.6492,0.2328,0.3467,0.3806,0.1047,-0.4113,-0.1682,-0.2451,-0.6589,-0.4785,-0.4315,-0.4377,0.0863,0.345,0.934,0.7328,0.2856,0.6856,0.9709,0.5391,0.3434,0.0692,-0.395,-0.3322,-0.398,-0.3919,-0.2789,-0.2539,0.0737
0.879,0.9131,0.4818,0.6952,0.7802,0.4277,-0.1606,-0.0345,-0.1859,-0.5058,-0.4289,-0.4654,-0.1878,0.3924,0.505,1.2181,0.9776,0.5044,0.9858,1.2616,0.8679,0.6443,0.2879,-0.2053,-0.2807,-0.4237,-0.3558,-0.3186,-0.1752,0.0016
1.0492,1.1466,0.738,1.0259,1.1759,0.7571,0.1209,0.1189,-0.104,-0.3145,-0.3429,-0.4562,0.1227,0.7303,0.6694,1.4582,1.1865,0.6997,1.2737,1.5287,1.2064,0.9793,0.5562,0.0435,-0.1906,-0.399,-0.2596,-0.3114,-0.1018,-0.0818
1.1845,1.3479,0.9795,1.3236,1.5466,1.0746,0.4222,0.2864,-0.0004,-0.0896,-0.2202,-0.4022,0.4759,1.0823,0.8318,1.647,1.3522,0.8618,1.5306,1.7606,1.535,1.3211,0.8545,0.3327,-0.0694,-0.3249,-0.1112,-0.2589,-0.0431,-0.1669
1.2771,1.516,1.1839,1.5763,1.8717,1.3612,0.7283,0.4586,0.1195,0.1586,-0.0662,-0.3077,0.8469,1.4265,0.9839,1.7811,1.4718,0.9859,1.7407,1.947,1.8326,1.641,1.1579,0.6369,0.0725,-0.2084,0.0746,-0.1686,-0.0074,-0.243
1.3245,1.6487,1.3308,1.7745,2.1321,1.5989,1.0214,0.6238,0.2473,0.4149,0.1086,-0.1823,1.2068,1.7396,1.115,1.8596,1.5454,1.0722,1.893,2.079,2.0793,1.9126,1.4404,0.9289,0.2242,-0.0607,0.2784,-0.0521,-0.0006,-0.2994
1.3294,1.7418,1.4046,1.9118,2.3132,1.7726,1.2838,0.7693,0.3731,0.6618,0.2898,-0.0385,1.5264,1.9994,1.2132,1.8828,1.5744,1.125,1.9811,2.1495,2.2578,2.1153,1.6789,1.1836,0.3762,0.1045,0.4802,0.0774,-0.0246,-0.3267
1.2977,1.7885,1.3973,1.9839,2.4067,1.8727,1.4998,0.8839,0.4882,0.882,0.4624,0.1095,1.7803,2.1877,1.2661,1.8519,1.5607,1.1506,2.004,2.1542,2.3554,2.2365,1.8556,1.3817,0.5219,0.2733,0.6619,0.2074,-0.0772,-0.3189
1.2369,1.7817,1.3103,1.9892,2.4116,1.8957,1.6577,0.9594,0.5862,1.0609,0.6121,0.2487,1.9504,2.2927,1.2638,1.7689,1.5058,1.155,1.9648,2.0922,2.3657,2.272,1.96,1.512,0.656,0.4329,0.81,0.3276,-0.1516,-0.2746
1.1538,1.7155,1.155,1.9293,2.3348,1.8451,1.751,0.9916,0.6635,1.1886,0.7274,0.3681,2.0274,2.3104,1.2007,1.6374,1.4113,1.1415,1.8695,1.9675,2.2898,2.2252,1.9882,1.5717,0.7741,0.5729,0.9167,0.4307,-0.2383,-0.1989
1.0529,1.5885,0.9514,1.8086,2.1891,1.7298,1.7779,0.9804,0.7182,1.2599,0.8008,0.4603,2.0116,2.2437,1.0781,1.4634,1.2792,1.1099,1.7259,1.788,2.1354,2.1054,1.9427,1.5654,0.8713,0.6856,0.9796,0.5127,-0.3261,-0.102
0.9365,1.4053,0.7244,1.6351,1.9906,1.5626,1.7397,0.9287,0.7491,1.2736,0.8282,0.521,1.9113,2.1016,0.9062,1.2557,1.1133,1.0576,1.543,1.5657,1.916,1.9258,1.8309,1.5031,0.9427,0.7666,1.0012,0.5726,-0.4045,0.0012
0.8042,1.1776,0.4997,1.4194,1.7557,1.3579,1.6393,0.8421,0.7542,1.2313,0.8092,0.5491,1.7401,1.8962,0.7029,1.0257,0.9201,0.9814,1.3296,1.3143,1.6483,1.7012,1.6641,1.3971,0.9839,0.8146,0.9869,0.6112,-0.4646,0.0949
0.6554,0.9229,0.2991,1.1741,1.4979,1.1296,1.4797,0.7268,0.7303,1.1362,0.7467,0.5461,1.5141,1.6401,0.4918,0.7863,0.7085,0.8797,1.0949,1.0478,1.3493,1.4456,1.4555,1.2592,0.9931,0.8314,0.9431,0.6303,-0.5001,0.165
0.4904,0.6614,0.1371,0.9119,1.226,0.8893,1.2633,0.5895,0.6733,0.9926,0.6459,0.5154,1.2483,1.3439,0.297,0.5498,0.4898,0.7547,0.8475,0.7779,1.0337,1.1706,1.2186,1.0986,0.9707,0.8204,0.8758,0.6316,-0.5082,0.2025
0.3126,0.412,0.0186,0.6444,0.9433,0.6451,0.9922,0.4363,0.5793,0.805,0.5141,0.4616,0.9546,1.0148,0.1382,0.3261,0.2756,0.6128,0.5952,0.5122,0.7113,0.8834,0.9647,0.9193,0.9198,0.7855,0.7881,0.6155,-0.4892,0.2052
0.1283,0.1881,-0.0612,0.3803,0.6483,0.4014,0.6702,0.2726,0.4468,0.5791,0.3601,0.389,0.6403,0.6567,0.0256,0.121,0.0758,0.4637,0.3443,0.254,0.3865,0.5863,0.7017,0.7211,0.8441,0.7296,0.6803,0.5807,-0.4468,0.1788
-0.0533,-0.0045,-0.1154,0.125,0.3371,0.1596,0.3046,0.1038,0.2787,0.3227,0.1935,0.3015,0.3096,0.2715,-0.0426,-0.0652,-0.1032,0.3172,0.0988,0.0019,0.0594,0.2783,0.4333,0.4996,0.7467,0.6539,0.5494,0.5241,-0.3866,0.1352
-0.222,-0.1684,-0.1614,-0.119,0.0069,-0.0793,-0.0916,-0.0636,0.0833,0.0466,0.0245,0.2018,-0.0344,-0.1376,-0.079,-0.2363,-0.2597,0.181,-0.139,-0.2479,-0.2726,-0.043,0.1601,0.2503,0.6293,0.5576,0.3914,0.4418,-0.315,0.0906
-0.3683,-0.3119,-0.2164,-0.35,-0.3407,-0.3128,-0.4986,-0.2225,-0.1251,-0.2344,-0.1368,0.0919,-0.3866,-0.5638,-0.1032,-0.3988,-0.3961,0.0589,-0.3676,-0.499,-0.6106,-0.3776,-0.1177,-0.029,0.4927,0.439,0.2033,0.3304,-0.2382,0.061
-0.4856,-0.4449,-0.2931,-0.5656,-0.6966,-0.5348,-0.8904,-0.3641,-0.3277,-0.5021,-0.281,-0.0264,-0.7374,-0.9938,-0.1357,-0.5583,-0.5173,-0.0499,-0.5854,-0.7521,-0.9514,-0.7197,-0.3971,-0.3341,0.3379,0.297,-0.0143,0.1892,-0.1611,0.0593
-0.5721,-0.5749,-0.3964,-0.7615,-1.0438,-0.7355,-1.2372,-0.4801,-0.5041,-0.7357,-0.4004,-0.1507,-1.0714,-1.4072,-0.1929,-0.7169,-0.6284,-0.1492,-0.7888,-1.0026,-1.2851,-1.0563,-0.6706,-0.6527,0.1677,0.1326,-0.2546,0.0216,-0.0873,0.092
-0.6307,-0.7036,-0.5222,-0.9308,-1.3589,-0.9027,-1.509,-0.5628,-0.6354,-0.915,-0.489,-0.2768,-1.368,-1.7776,-0.2822,-0.872,-0.732,-0.2436,-0.9718,-1.2407,-1.5949,-1.3673,-0.925,-0.9636,-0.0115,-0.0488,-0.5035,-0.1639,-0.0186,0.1573
-0.669,-0.826,-0.6579,-1.0649,-1.6157,-1.0235,-1.6796,-0.6064,-0.7068,-1.0219,-0.5427,-0.3981,-1.6029,-2.0749,-0.4009,-1.0156,-0.8273,-0.3361,-1.1262,-1.452,-1.8589,-1.6287,-1.1426,-1.2388,-0.1888,-0.2372,-0.7406,-0.3533,0.0445,0.2457
-0.6964,-0.9317,-0.7848,-1.1552,-1.79,-1.0874,-1.7304,-0.6075,-0.7107,-1.0439,-0.5587,-0.5048,-1.7521,-2.2704,-0.5366,-1.1362,-0.9091,-0.4261,-1.2426,-1.6199,-2.0528,-1.8162,-1.305,-1.4474,-0.3498,-0.4177,-0.9412,-0.5286,0.1033,0.3417
-0.7225,-1.0077,-0.8823,-1.1945,-1.8638,-1.0879,-1.6536,-0.5655,-0.6467,-0.9754,-0.5355,-0.5849,-1.7956,-2.3409,-0.6706,-1.2211,-0.9691,-0.5095,-1.3127,-1.7287,-2.1551,-1.9111,-1.3968,-1.5611,-0.4782,-0.5722,-1.0805,-0.6703,0.1601,0.4266
-0.7541,-1.0424,-0.9328,-1.1791,-1.8293,-1.0245,-1.4537,-0.4828,-0.5222,-0.8194,-0.4731,-0.626,-1.722,-2.2742,-0.7819,-1.2592,-0.9985,-0.5794,-1.3317,-1.7668,-2.1515,-1.9044,-1.4106,-1.5604,-0.5603,-0.683,-1.1385,-0.7609,0.2175,0.4827
-0.7941,-1.0294,-0.9264,-1.11,-1.6915,-0.9034,-1.148,-0.3652,-0.3513,-0.5877,-0.3736,-0.6177,-1.5327,-2.0729,-0.8522,-1.2446,-0.9904,-0.6284,-1.3002,-1.7293,-2.0387,-1.8,-1.3498,-1.4396,-0.5883,-0.7365,-1.105,-0.7885,0.2777,0.4972
-0.842,-0.9699,-0.8635,-0.9944,-1.4683,-0.738,-0.7651,-0.2222,-0.1532,-0.3003,-0.242,-0.5547,-1.2429,-1.7552,-0.8702,-1.1779,-0.9426,-0.6506,-1.2263,-1.6209,-1.827,-1.6161,-1.2302,-1.2108,-0.564,-0.7267,-0.9829,-0.7501,0.3416,0.4649
-0.8941,-0.8736,-0.7556,-0.8456,-1.1891,-0.5482,-0.3427,-0.0671,0.0492,0.0159,-0.0872,-0.4394,-0.882,-1.3548,-0.8343,-1.0681,-0.8596,-0.6443,-1.1247,-1.4557,-1.5398,-1.3826,-1.0776,-0.9028,-0.4991,-0.6578,-0.7895,-0.6533,0.4087,0.3895
-0.9458,-0.7575,-0.6233,-0.6822,-0.8906,-0.358,0.0771,0.0838,0.2328,0.3301,0.0782,-0.2826,-0.4895,-0.9158,-0.7534,-0.9315,-0.7527,-0.6131,-1.0155,-1.2564,-1.2109,-1.1369,-0.9239,-0.5579,-0.414,-0.544,-0.5537,-0.5152,0.4766,0.2828
-0.9921,-0.6428,-0.4922,-0.5251,-0.6108,-0.1923,0.4531,0.2138,0.3766,0.6114,0.2388,-0.1023,-0.1096,-0.487,-0.6453,-0.7894,-0.6387,-0.5654,-0.9202,-1.0511,-0.8794,-0.9181,-0.8013,-0.2245,-0.3329,-0.4074,-0.3117,-0.3595,0.5414,0.1626
-1.0286,-0.5501,-0.3876,-0.3938,-0.382,-0.0716,0.7505,0.3084,0.4652,0.8326,0.3782,0.0788,0.2162,-0.1138,-0.5329,-0.6646,-0.5368,-0.513,-0.8572,-0.8679,-0.5829,-0.7594,-0.7358,0.0515,-0.2782,-0.2738,-0.0999,-0.2122,0.599,0.0491
-1.0518,-0.4952,-0.33,-0.3024,-0.2252,-0.0087,0.9457,0.3587,0.4913,0.9748,0.4819,0.2379,0.4551,0.1687,-0.4392,-0.5765,-0.4645,-0.4683,-0.8389,-0.7303,-0.3518,-0.683,-0.7427,0.2348,-0.2654,-0.1678,0.0518,-0.0963,0.645,-0.0387
-1.0602,-0.4858,-0.3308,-0.2575,-0.1473,-0.0058,1.0296,0.3626,0.4564,1.029,0.5398,0.3559,0.5882,0.3402,-0.3827,-0.5384,-0.4347,-0.442,-0.8691,-0.6537,-0.2056,-0.6963,-0.8237,0.3064,-0.3002,-0.108,0.1251,-0.0278,0.6764,-0.0861
-1.056,-0.5213,-0.3908,-0.2579,-0.1415,-0.0548,1.0074,0.325,0.3707,0.9981,0.5479,0.4208,0.612,0.3966,-0.3743,-0.5561,-0.454,-0.4417,-0.9439,-0.6443,-0.1512,-0.7923,-0.9671,0.266,-0.3777,-0.1039,0.1164,-0.0131,0.6913,-0.0854
-1.045,-0.5948,-0.5009,-0.2969,-0.1912,-0.1399,0.8969,0.2562,0.2505,0.895,0.509,0.4295,0.5371,0.348,-0.4163,-0.6287,-0.5231,-0.4712,-1.0542,-0.6999,-0.1849,-0.9518,-1.1519,0.1301,-0.4849,-0.1546,0.0357,-0.0483,0.6904,-0.0368
-1.0367,-0.6962,-0.6448,-0.3654,-0.2751,-0.241,0.7237,0.1695,0.1156,0.7403,0.4324,0.3876,0.3849,0.2144,-0.5044,-0.7507,-0.6391,-0.5316,-1.1892,-0.8135,-0.2956,-1.1493,-1.3531,-0.0728,-0.6045,-0.25,-0.0961,-0.1218,0.6777,0.053
-1.0421,-0.8154,-0.8035,-0.4541,-0.3734,-0.3381,0.5167,0.0788,-0.0141,0.5586,0.332,0.3072,0.1825,0.021,-0.6302,-0.9143,-0.7969,-0.6227,-1.3396,-0.9753,-0.4679,-1.358,-1.5466,-0.3086,-0.7191,-0.3733,-0.2529,-0.217,0.6601,0.1722
-1.0705,-0.9444,-0.9581,-0.5561,-0.4714,-0.4148,0.3026,-0.0034,-0.1218,0.3741,0.2237,0.2045,-0.0428,-0.2076,-0.7841,-1.1111,-0.9911,-0.7439,-1.4992,-1.1756,-0.6859,-1.555,-1.7147,-0.545,-0.8155,-0.5053,-0.4093,-0.3171,0.647,0.3071
-1.1279,-1.0773,-1.0933,-0.6662,-0.5627,-0.4612,0.1022,-0.0677,-0.1951,0.2071,0.1235,0.0957,-0.2683,-0.4507,-0.957,-1.3323,-1.216,-0.8938,-1.6648,-1.4047,-0.9348,-1.7245,-1.8485,-0.7567,-0.8867,-0.6283,-0.5453,-0.4086,0.649,0.4442
-1.215,-1.2098,-1.1984,-0.7814,-0.6493,-0.475,-0.0725,-0.1085,-0.2285,0.0709,0.0439,-0.0058,-0.4795,-0.6947,-1.1407,-1.5685,-1.4643,-1.0693,-1.8355,-1.6534,-1.2026,-1.8604,-1.9481,-0.9299,-0.9332,-0.7296,-0.6502,-0.4838,0.675,0.5719
-1.3279,-1.338,-1.2678,-0.8999,-0.7398,-0.463,-0.2194,-0.1258,-0.2233,-0.03,-0.008,-0.0917,-0.6715,-0.934,-1.3277,-1.8093,-1.7266,-1.2643,-2.0106,-1.9126,-1.4806,-1.9657,-2.0216,-1.0628,-0.9615,-0.8031,-0.7237,-0.5424,0.7301,0.6814
-1.4589,-1.4578,-1.3007,-1.0207,-0.8472,-0.4398,-0.3453,-0.1252,-0.1882,-0.1,-0.0324,-0.16,-0.8488,-1.1702,-1.5102,-2.0431,-1.99,-1.4688,-2.1884,-2.1727,-1.7631,-2.051,-2.0814,-1.165,-0.9825,-0.8498,-0.7751,-0.5899,0.8133,0.766
-1.5977,-1.5638,-1.2996,-1.1428,-0.9843,-0.4257,-0.4634,-0.1175,-0.1377,-0.151,-0.0365,-0.2142,-1.022,-1.4098,-1.6796,-2.2572,-2.2392,-1.6693,-2.3651,-2.4239,-2.0461,-2.1313,-2.141,-1.253,-1.0077,-0.8762,-0.8196,-0.6359,0.918,0.8214
-1.7324,-1.6497,-1.2694,-1.2641,-1.1599,-0.442,-0.5888,-0.1167,-0.0896,-0.1991,-0.033,-0.2612,-1.2032,-1.66,-1.8267,-2.4386,-2.4561,-1.8492,-2.5339,-2.6557,-2.3259,-2.221,-2.2105,-1.3447,-1.0462,-0.8912,-0.8734,-0.6903,1.0324,0.845
-1.8496,-1.7082,-1.215,-1.3808,-1.3746,-0.5055,-0.7337,-0.1366,-0.0611,-0.2596,-0.0366,-0.3084,-1.4004,-1.924,-1.9416,-2.5748,-2.6221,-1.9909,-2.6851,-2.857,-2.5965,-2.3291,-2.2934,-1.4537,-1.1011,-0.9032,-0.9489,-0.7595,1.1426,0.8362
-1.9357,-1.7326,-1.1413,-1.4864,-1.6191,-0.6238,-0.9029,-0.1872,-0.0648,-0.3427,-0.0594,-0.3601,-1.6137,-2.1976,-2.0159,-2.6552,-2.7207,-2.0781,-2.8071,-3.0167,-2.8487,-2.4562,-2.3859,-1.5845,-1.1682,-0.9164,-1.0502,-0.8443,1.2354,0.7969
-1.9785,-1.7189,-1.0529,-1.5728,-1.8749,-0.792,-1.0915,-0.2718,-0.1058,-0.4499,-0.1074,-0.4161,-1.8327,-2.4677,-2.0443,-2.6738,-2.7403,-2.099,-2.8885,-3.1249,-3.07,-2.5939,-2.4776,-1.7309,-1.2366,-0.9307,-1.1719,-0.9385,1.3014,0.7321
-1.9701,-1.6678,-0.9549,-1.6316,-2.1171,-0.9934,-1.2854,-0.3851,-0.1797,-0.573,-0.178,-0.471,-2.0382,-2.7141,-2.027,-2.6306,-2.6782,-2.0502,-2.9209,-3.1755,-3.2468,-2.7266,-2.5548,-1.8775,-1.2916,-0.9412,-1.2998,-1.0307,1.3362,0.6497
-1.9092,-1.5852,-0.8533,-1.6568,-2.3187,-1.203,-1.4637,-0.5147,-0.2737,-0.6957,-0.2604,-0.5162,-2.2054,-2.9132,-1.9708,-2.5333,-2.5428,-1.939,-2.9019,-3.1679,-3.3669,-2.8358,-2.6048,-2.0032,-1.3193,-0.9416,-1.4148,-1.1069,1.3413,0.56
-1.803,-1.4822,-0.7552,-1.6455,-2.4559,-1.3928,-1.6032,-0.6424,-0.369,-0.7968,-0.3376,-0.5423,-2.3094,-3.0429,-1.8894,-2.3965,-2.3535,-1.7835,-2.8366,-3.1079,-3.4224,-2.9049,-2.6198,-2.0871,-1.3102,-0.9265,-1.4974,-1.1554,1.3231,0.4745
-1.6671,-1.3727,-0.6681,-1.5995,-2.5119,-1.5374,-1.6829,-0.7476,-0.4439,-0.8547,-0.3911,-0.5426,-2.3301,-3.0875,-1.8013,-2.2397,-2.1381,-1.6095,-2.7374,-3.0076,-3.4115,-2.9238,-2.5993,-2.1134,-1.2621,-0.8945,-1.5323,-1.1695,1.2909,0.4047
-1.5235,-1.2707,-0.5997,-1.5246,-2.4794,-1.6189,-1.6872,-0.8107,-0.4789,-0.8516,-0.4045,-0.5153,-2.2568,-3.0401,-1.727,-2.0836,-1.928,-1.4465,-2.6217,-2.8834,-3.3393,-2.8912,-2.5509,-2.0749,-1.1809,-0.8497,-1.5115,-1.1505,1.2542,0.3606
-1.3976,-1.1886,-0.5575,-1.4297,-2.3619,-1.6298,-1.6098,-0.8165,-0.4592,-0.7776,-0.3681,-0.4646,-2.0902,-2.9049,-1.6853,-1.9474,-1.7528,-1.3218,-2.5092,-2.7534,-3.2168,-2.8156,-2.4889,-1.9748,-1.0793,-0.8014,-1.4363,-1.1072,1.2207,0.3496
-1.3141,-1.1347,-0.5484,-1.3254,-2.1733,-1.5735,-1.4537,-0.7568,-0.3781,-0.632,-0.2805,-0.4002,-1.8429,-2.6957,-1.6893,-1.8451,-1.635,-1.2565,-2.4177,-2.6342,-3.0592,-2.7135,-2.4317,-1.8259,-0.9744,-0.7618,-1.3162,-1.0539,1.1955,0.3752
-1.2939,-1.1123,-0.5777,-1.2219,-1.935,-1.4626,-1.2304,-0.6318,-0.2372,-0.4236,-0.1485,-0.3348,-1.5363,-2.4327,-1.7436,-1.7839,-1.5856,-1.2621,-2.3595,-2.5375,-2.8823,-2.6051,-2.3977,-1.6469,-0.8838,-0.7432,-1.166,-1.0066,1.1807,0.4361
-1.3499,-1.1186,-0.647,-1.1275,-1.6725,-1.3151,-0.9573,-0.4499,-0.0463,-0.1685,0.0136,-0.2812,-1.1955,-2.1382,-1.8427,-1.7623,-1.6024,-1.3385,-2.3383,-2.4677,-2.6993,-2.5091,-2.4001,-1.4575,-0.8226,-0.7539,-1.0014,-0.9783,1.1772,0.5257
-1.4834,-1.1444,-0.7521,-1.0459,-1.4104,-1.1507,-0.6541,-0.2267,0.1781,0.1129,0.1868,-0.2496,-0.8442,-1.8315,-1.9716,-1.7701,-1.6692,-1.4738,-2.347,-2.42,-2.5173,-2.4371,-2.4433,-1.2731,-0.8005,-0.7953,-0.8349,-0.9754,1.1858,0.6322
-1.6818,-1.1751,-0.881,-0.9753,-1.1673,-0.9863,-0.3393,0.0172,0.4142,0.3987,0.3495,-0.2455,-0.4994,-1.524,-2.1081,-1.7893,-1.7585,-1.6459,-2.3681,-2.3804,-2.3354,-2.3893,-2.5204,-1.1004,-0.8199,-0.8606,-0.6717,-0.9955,1.2076,0.7396
-1.9171,-1.1923,-1.0143,-0.9082,-0.9529,-0.8333,-0.0275,0.2581,0.6368,0.6688,0.4798,-0.2682,-0.1678,-1.2179,-2.2255,-1.7958,-1.8355,-1.8254,-2.3761,-2.3283,-2.1451,-2.3534,-2.6134,-0.9354,-0.8745,-0.935,-0.5089,-1.0275,1.2447,0.8298
-2.1476,-1.1764,-1.1273,-0.8322,-0.7661,-0.6951,0.2713,0.4724,0.8189,0.9066,0.5572,-0.3116,0.1538,-0.9062,-2.2966,-1.7634,-1.8634,-1.979,-2.3415,-2.2396,-1.9318,-2.3065,-2.6954,-0.7641,-0.9501,-0.9973,-0.3357,-1.0529,1.2986,0.8843
-2.3223,-1.1091,-1.1931,-0.7315,-0.5954,-0.5673,0.5514,0.6387,0.9337,1.0996,0.5648,-0.3645,0.4771,-0.5755,-2.2963,-1.667,-1.8091,-2.0737,-2.2366,-2.0912,-1.6789,-2.2204,-2.7348,-0.5661,-1.025,-1.0232,-0.136,-1.0495,1.3694,0.8875
-2.3874,-0.9767,-1.1863,-0.5902,-0.4231,-0.439,0.8105,0.7398,0.9576,1.2398,0.4913,-0.4118,0.8174,-0.2107,-2.204,-1.487,-1.6478,-2.0803,-2.0405,-1.8657,-1.3719,-2.0668,-2.701,-0.3192,-1.0728,-0.989,0.1073,-0.9948,1.4553,0.8281
-2.2947,-0.7716,-1.0854,-0.3953,-0.2295,-0.2959,1.0471,0.7647,0.8732,1.3238,0.334,-0.4357,1.1886,0.1994,-2.0058,-1.2121,-1.3663,-1.9761,-1.7422,-1.5534,-1.0019,-1.8239,-2.5684,-0.0054,-1.0647,-0.8744,0.4089,-0.8688,1.5517,0.7005
-2.0112,-0.4942,-0.8757,-0.1394,0.0012,-0.1242,1.2592,0.7091,0.6729,1.352,0.0999,-0.4172,1.5987,0.6589,-1.695,-0.841,-0.9651,-1.7472,-1.3424,-1.1549,-0.568,-1.4804,-2.321,0.3855,-0.9731,-0.6652,0.778,-0.6561,1.6515,0.5052
-1.5261,-0.1524,-0.5508,0.1771,0.2762,0.0856,1.443,0.5758,0.3614,1.3288,-0.1931,-0.3377,2.0462,1.1605,-1.2729,-0.383,-0.4578,-1.3899,-0.8534,-0.6805,-0.0789,-1.038,-1.9549,0.8524,-0.7759,-0.3543,1.2163,-0.3476,1.7457,0.2488
-0.8565,0.2388,-0.1156,0.5443,0.5913,0.3353,1.5921,0.373,-0.0443,1.2611,-0.5181,-0.1812,2.518,1.6852,-0.749,0.1422,0.1296,-0.9127,-0.2976,-0.151,0.4468,-0.5124,-1.48,1.3816,-0.4614,0.057,1.7164,0.0588,1.8242,-0.0558
-0.0468,0.659,0.4112,0.943,0.9297,0.6174,1.6971,0.1132,-0.5165,1.1568,-0.8437,0.0625,2.9896,2.202,-0.1412,0.7059,0.7615,-0.337,0.2937,0.404,0.9807,0.0672,-0.9207,1.9471,-0.0316,0.559,2.2623,0.5572,1.8768,-0.3905
0.8361,1.0847,0.9967,1.3467,1.2642,0.915,1.7461,-0.1894,-1.0207,1.0226,-1.1393,0.3945,3.4272,2.6717,0.5242,1.273,1.3959,0.3037,0.8835,0.9479,1.4866,0.6612,-0.3136,2.5127,0.4955,1.1329,2.8296,1.1333,1.895,-0.7324
1.7137,1.4922,1.5953,1.7247,1.5619,1.2043,1.7266,-0.5202,-1.5213,0.8633,-1.381,0.8055,3.7922,3.0517,1.2144,1.8057,1.9894,0.9663,1.4325,1.4415,1.9249,1.2241,0.2955,3.0362,1.0872,1.752,3.3879,1.765,1.8742,-1.0563
2.509,1.8599,2.1546,2.0465,1.7901,1.4596,1.6284,-0.8653,-1.9863,0.6812,-1.5548,1.2756,4.0472,3.3025,1.8919,2.2681,2.502,1.6024,1.9034,1.8471,2.2576,1.7096,0.8572,3.4754,1.6994,2.3835,3.9042,2.4235,1.8156,-1.3373
3.1593,2.17,2.6224,2.2862,1.9227,1.6572,1.4463,-1.212,-2.392,0.477,-1.6581,1.7767,4.1632,3.3956,2.5175,2.6307,2.9022,2.1646,2.265,2.1348,2.4549,2.0777,1.3246,3.7939,2.2832,2.9912,4.3464,3.0757,1.7273,-1.5539
3.626,2.409,2.9565,2.4267,1.9456,1.781,1.1829,-1.5494,-2.7247,0.2516,-1.6983,2.2755,4.1252,3.3186,3.054,2.8737,3.1695,2.6123,2.4963,2.2865,2.5005,2.2998,1.6591,3.967,2.7919,3.5392,4.6878,3.6874,1.6238,-1.6914
3.8977,2.5688,3.132,2.4626,1.8605,1.825,0.85,-1.8681,-2.9805,0.0087,-1.6891,2.7387,3.936,3.0789,3.4688,2.9894,3.297,2.9166,2.5885,2.2993,2.3958,2.3626,1.8349,3.9851,3.1868,3.9959,4.9095,4.2261,1.5236,-1.7437
3.9891,2.6463,3.1474,2.4017,1.6853,1.7951,0.4695,-2.1601,-3.1625,-0.2439,-1.6456,3.1362,3.6163,2.7047,3.7381,2.9819,3.2906,3.0634,2.5458,2.186,2.1604,2.2701,1.8425,3.855,3.443,4.3364,5.0024,4.6634,1.4461,-1.7153
3.933,2.6439,3.0245,2.2635,1.4518,1.7079,0.0714,-2.4173,-3.2765,-0.4925,-1.5809,3.4452,3.2029,2.2409,3.8486,2.8663,3.1669,3.0545,2.3845,1.9731,1.8302,2.0425,1.6895,3.5982,3.5507,4.5451,4.9673,4.9774,1.4081,-1.62
3.7706,2.5686,2.8042,2.0757,1.2004,1.5871,-0.3086,-2.6313,-3.3278,-0.7184,-1.5029,3.651,2.7428,1.7432,3.7993,2.6652,2.9492,2.9049,2.1297,1.6961,1.4519,1.7125,1.3989,3.2467,3.5152,4.6157,4.8137,5.153,1.4204,-1.4786
3.541,2.431,2.5377,1.869,0.973,1.4586,-0.6339,-2.7922,-3.3179,-0.8999,-1.4138,3.7472,2.2856,1.2691,3.601,2.4044,2.6631,2.6386,1.8112,1.3935,1.0751,1.3196,1.0044,2.8376,3.353,4.5508,4.5572,5.1825,1.4871,-1.3156
3.2733,2.2438,2.2755,1.6712,0.8054,1.346,-0.8717,-2.8894,-3.2444,-1.0157,-1.3115,3.735,1.8762,0.8694,3.2745,2.1087,2.3313,2.2828,1.458,1.0999,0.7444,0.9036,0.5455,2.407,3.0882,4.3604,4.2167,5.065,1.6051,-1.1547
2.9833,2.0205,2.0568,1.5029,0.7217,1.2672,-0.9979,-2.9119,-3.102,-1.0486,-1.1914,3.6214,1.548,0.5803,2.8475,1.7986,1.9711,1.8633,1.0945,0.8416,0.4927,0.4981,0.0608,1.9856,2.7477,4.0606,3.8127,4.8072,1.7666,-1.0151
2.6745,1.7737,1.9027,1.3749,0.7311,1.2322,-1.0007,-2.8505,-2.8854,-0.9888,-1.0491,3.4185,1.319,0.4193,2.3515,1.4881,1.5927,1.4007,0.7379,0.6327,0.3364,0.127,-0.4158,1.5961,2.3588,3.6724,3.3656,4.423,1.9603,-0.9086
2.3426,1.5139,1.8129,1.2878,0.827,1.2426,-0.8822,-2.6997,-2.5917,-0.836,-0.8822,3.1419,1.1903,0.3835,1.8172,1.1845,1.1997,0.91,0.3967,0.475,0.2746,-0.1975,-0.8587,1.2525,1.9478,3.2213,2.8959,3.9343,2.1739,-0.8385
1.9806,1.2482,1.7676,1.2321,0.9889,1.2916,-0.6593,-2.4601,-2.2242,-0.6001,-0.6911,2.8111,1.1474,0.4519,1.2717,0.8882,0.7912,0.4008,0.0722,0.3587,0.2901,-0.4745,-1.2517,0.9611,1.5397,2.7363,2.4239,3.3709,2.3947,-0.7998
1.5841,0.9787,1.7319,1.1901,1.1857,1.3645,-0.3605,-2.1407,-1.793,-0.3002,-0.479,2.4484,1.1647,0.5901,0.7354,0.5946,0.3643,-0.1197,-0.2398,0.2653,0.3541,-0.7114,-1.5875,0.7222,1.1585,2.2489,1.9695,2.7697,2.6105,-0.7802
1.1535,0.702,1.6633,1.1388,1.3807,1.4402,-0.023,-1.7594,-1.3162,0.0378,-0.2513,2.0781,1.2103,0.7563,0.2217,0.2955,-0.0834,-0.6454,-0.546,0.1715,0.4313,-0.9202,-1.8665,0.5322,0.8266,1.7913,1.552,2.172,2.8091,-0.7629
0.6953,0.4101,1.5201,1.0539,1.5368,1.4935,0.3136,-1.3418,-0.8173,0.385,-0.0138,1.726,1.2527,0.909,-0.2627,-0.0184,-0.5511,-1.1687,-0.8525,0.0535,0.4864,-1.1141,-2.0947,0.3857,0.5639,1.3938,1.189,1.6198,2.9788,-0.7297
0.2211,0.0932,1.2701,0.9139,1.6227,1.4994,0.6123,-0.9181,-0.3228,0.7134,0.2281,1.4167,1.2657,1.0136,-0.7152,-0.3548,-1.0336,-1.6801,-1.1625,-0.1084,0.4904,-1.3037,-2.2804,0.2768,0.3853,1.0819,0.895,1.1514,3.1089,-0.6651
-0.2537,-0.2568,0.8977,0.7044,1.6172,1.4374,0.8448,-0.5186,0.1422,1.0005,0.4705,1.1722,1.2333,1.0471,-1.1349,-0.7176,-1.5205,-2.1681,-1.4745,-0.3263,0.4245,-1.4945,-2.432,0.2,0.299,0.8736,0.6803,0.7971,3.1904,-0.5595
-0.712,-0.642,0.4084,0.4213,1.5124,1.297,0.9951,-0.1693,0.5567,1.2314,0.7111,1.0095,1.1508,1.0013,-1.5201,-1.105,-1.9965,-2.6196,-1.7816,-0.6024,0.2838,-1.6863,-2.5557,0.1514,0.3048,0.7772,0.5496,0.5756,3.2177,-0.4118
-1.1361,-1.0561,-0.1702,0.0725,1.3157,1.0804,1.0611,0.1127,0.9068,1.4008,0.9491,0.9384,1.0256,0.8831,-1.8675,-1.5087,-2.4432,-3.0216,-2.0727,-0.9283,0.0769,-1.8726,-2.6542,0.1281,0.3939,0.79,0.502,0.4924,3.1896,-0.2299
-1.5098,-1.4845,-0.7928,-0.3235,1.0477,0.8031,1.0539,0.3203,1.1861,1.5124,1.184,0.9604,0.8738,0.7114,-2.1718,-1.9155,-2.8424,-3.3621,-2.3343,-1.2865,-0.176,-2.0421,-2.7262,0.1288,0.551,0.8991,0.5311,0.5393,3.1102,-0.0295
-1.82,-1.9065,-1.404,-0.7406,0.7388,0.4912,0.9941,0.4564,1.3954,1.5763,1.4142,1.0679,0.7166,0.5131,-2.4273,-2.3091,-3.1791,-3.6329,-2.5535,-1.6545,-0.4478,-2.1816,-2.7678,0.1527,0.7559,1.0821,0.6253,0.6963,2.9889,0.1697
-2.0589,-2.3,-1.9487,-1.1502,0.4236,0.1759,0.9067,0.5317,1.5407,1.6063,1.6361,1.2449,0.5755,0.3168,-2.6299,-2.6734,-3.4449,-3.8301,-2.7209,-2.0082,-0.7102,-2.2787,-2.7744,0.1988,0.9867,1.3104,0.7691,0.9333,2.8396,0.3475
-2.2248,-2.6458,-2.3827,-1.5255,0.135,-0.1122,0.8155,0.561,1.631,1.6162,1.843,1.4683,0.4679,0.1477,-2.7788,-2.9953,-3.6398,-3.9555,-2.8326,-2.3266,-0.9382,-2.3245,-2.7435,0.2644,1.2222,1.5522,0.9439,1.2146,2.6794,0.4876
-2.3227,-2.9301,-2.6787,-1.8451,-0.1013,-0.3482,0.7394,0.5595,1.6763,1.6168,2.0256,1.7107,0.4043,0.024,-2.8776,-3.2657,-3.7711,-4.0159,-2.8911,-2.5943,-1.1145,-2.3161,-2.6766,0.3447,1.4433,1.7761,1.1296,1.5021,2.5261,0.5798
-2.363,-3.146,-2.8298,-2.0955,-0.2694,-0.515,0.6896,0.5406,1.686,1.6151,2.1728,1.9435,0.3879,-0.0451,-2.9332,-3.4804,-3.8513,-4.0218,-2.9033,-2.8022,-1.2302,-2.2569,-2.5802,0.4324,1.6334,1.9545,1.3059,1.7601,2.3963,0.6218
-2.3598,-3.2934,-2.8476,-2.2707,-0.364,-0.605,0.67,0.5141,1.6686,1.614,2.2746,2.1408,0.4145,-0.0585,-2.9547,-3.6387,-3.8944,-3.9861,-2.8796,-2.9474,-1.2849,-2.1556,-2.4649,0.5183,1.7784,2.0658,1.454,1.9589,2.3026,0.6188
-2.3292,-3.3775,-2.758,-2.373,-0.3901,-0.6197,0.6786,0.487,1.6326,1.6142,2.3245,2.2829,0.4754,-0.0223,-2.9516,-3.7439,-3.9136,-3.9222,-2.831,-3.0328,-1.2852,-2.0252,-2.3444,0.592,1.8666,2.097,1.5579,2.0776,2.2517,0.5817
-2.2877,-3.4096,-2.5964,-2.4116,-0.3611,-0.5683,0.7106,0.4647,1.5868,1.6152,2.3221,2.3589,0.5592,0.0529,-2.9331,-3.803,-3.9204,-3.8438,-2.7687,-3.0662,-1.2427,-1.8811,-2.2325,0.6434,1.888,2.0432,1.6061,2.1061,2.2429,0.5247
-2.2505,-3.4058,-2.4022,-2.4029,-0.2965,-0.4672,0.7602,0.4519,1.5415,1.6178,2.2741,2.3679,0.6543,0.1539,-2.9087,-3.8281,-3.9252,-3.7651,-2.7034,-3.0605,-1.1724,-1.7398,-2.1424,0.6638,1.835,1.9076,1.5925,2.0449,2.2688,0.4631
-2.231,-3.3874,-2.2155,-2.3685,-0.2192,-0.3365,0.8234,0.4543,1.508,1.625,2.1941,2.3188,0.7508,0.2667,-2.8891,-3.8367,-3.9386,-3.7013,-2.6463,-3.0329,-1.0911,-1.6174,-2.0852,0.6473,1.7033,1.6999,1.5162,1.9038,2.3166,0.4108
-2.24,-3.3786,-2.0727,-2.3333,-0.1524,-0.1978,0.8979,0.4776,1.4979,1.6418,2.1012,2.2278,0.8421,0.3786,-2.8869,-3.8511,-3.9729,-3.6683,-2.6091,-3.0039,-1.0151,-1.5283,-2.0696,0.5918,1.4938,1.4349,1.3822,1.6999,2.3701,0.3792
-2.2855,-3.404,-2.0038,-2.3223,-0.1158,-0.0707,0.984,0.5276,1.5216,1.6752,2.0168,2.1155,0.9252,0.4789,-2.917,-3.8961,-4.0416,-3.6816,-2.6044,-2.9947,-0.9586,-1.4837,-2.1012,0.5003,1.2142,1.1307,1.2011,1.4549,2.413,0.3756
-2.3731,-3.4851,-2.0303,-2.3567,-0.1231,0.0305,1.0837,0.6081,1.5863,1.7321,1.9607,2.003,1.0014,0.5612,-2.9952,-3.9957,-4.1587,-3.7545,-2.6447,-3.0255,-0.9317,-1.4898,-2.1818,0.3809,0.8801,0.8074,0.9881,1.192,2.4315,0.4032
-2.507,-3.6357,-2.1634,-2.4506,-0.1791,0.0977,1.1993,0.7199,1.6949,1.8178,1.9481,1.9076,1.0746,0.6226,-3.1352,-4.1695,-4.336,-3.8957,-2.7402,-3.1118,-0.9397,-1.5462,-2.3084,0.2469,0.5148,0.4861,0.7618,0.9335,2.4161,0.4607
-2.6899,-3.8596,-2.4042,-2.6089,-0.2803,0.1291,1.3324,0.8596,1.845,1.934,1.9869,1.8411,1.1505,0.6645,-3.3455,-4.4277,-4.5801,-4.1068,-2.8969,-3.2621,-0.9823,-1.6457,-2.4717,0.1153,0.1487,0.1873,0.5427,0.698,2.3632,0.5432
-2.9227,-4.1483,-2.7434,-2.8265,-0.415,0.1278,1.4828,1.0201,2.0301,2.0783,2.0768,1.8086,1.2344,0.6918,-3.6252,-4.769,-4.8891,-4.3803,-3.1128,-3.4763,-1.0546,-1.7736,-2.6555,0.0059,-0.1844,-0.0691,0.3517,0.5003,2.2742,0.6423
-3.2031,-4.4815,-3.1617,-3.0885,-0.5659,0.0997,1.6489,1.1921,2.2398,2.2445,2.2104,1.8106,1.3309,0.7117,-3.9615,-5.1785,-5.2502,-4.6986,-3.3762,-3.744,-1.1471,-1.9095,-2.8377,-0.0617,-0.4503,-0.2641,0.2085,0.3519,2.155,0.7465
-3.5224,-4.8301,-3.6306,-3.3732,-0.7128,0.0512,1.8274,1.3658,2.4629,2.4245,2.376,1.8463,1.4423,0.7332,-4.3293,-5.6291,-5.6392,-5.0357,-3.6653,-4.046,-1.2475,-2.0297,-2.9921,-0.0692,-0.6191,-0.3805,0.1308,0.2627,2.0135,0.8428
-3.864,-5.1611,-4.1146,-3.6552,-0.8361,-0.0121,2.0142,1.533,2.6882,2.6098,2.5609,1.9169,1.5687,0.7645,-4.6947,-6.0857,-6.0239,-5.3597,-3.9504,-4.3571,-1.3425,-2.1113,-3.0932,-0.0033,-0.6701,-0.4037,0.1329,0.2435,1.858,0.9175
-4.2029,-5.4441,-4.575,-3.9107,-0.9212,-0.0871,2.2041,1.6877,2.9063,2.7927,2.7533,2.0276,1.7079,0.8119,-5.0204,-6.5109,-6.3683,-5.6386,-4.1988,-4.6496,-1.4202,-2.1365,-3.121,0.1426,-0.5947,-0.3234,0.2241,0.3059,1.6951,0.9588
-4.5074,-5.6569,-4.9756,-4.1214,-0.961,-0.1727,2.3914,1.8263,3.1095,2.967,2.9439,2.1868,1.855,0.878,-5.2731,-6.8722,-6.6401,-5.8452,-4.3808,-4.8988,-1.4729,-2.0965,-3.0648,0.366,-0.3989,-0.1363,0.4071,0.461,1.5289,0.9598
-4.7441,-5.7887,-5.2881,-4.2774,-0.958,-0.269,2.5693,1.9466,3.2917,3.127,3.1249,2.4023,2.0027,0.9601,-5.43,-7.1466,-6.816,-5.9617,-4.4753,-5.0863,-1.4981,-1.9928,-2.926,0.6544,-0.1034,0.1513,0.676,0.7162,1.3607,0.9198
-4.8833,-5.8407,-5.4961,-4.3773,-0.9223,-0.3749,2.7304,2.0471,3.4473,3.2669,3.289,2.6768,2.1423,1.0512,-5.4822,-7.3242,-6.8856,-5.9823,-4.4735,-5.2027,-1.4994,-1.8375,-2.7174,0.9865,0.2595,0.522,1.0159,1.0705,1.191,0.8449
-4.9053,-5.8237,-5.5955,-4.426,-0.8684,-0.4861,2.8677,2.1268,3.572,3.3803,3.4278,3.0037,2.2643,1.1406,-5.4343,-7.4068,-6.8522,-5.9126,-4.3794,-5.2471,-1.4842,-1.6497,-2.4604,1.3346,0.65,0.9478,1.4031,1.5109,1.0207,0.7454
-4.8043,-5.7532,-5.5935,-4.4307,-0.8098,-0.5939,2.976,2.1852,3.6624,3.4608,3.5315,3.364,2.3605,1.2175,-5.3014,-7.4048,-6.729,-5.7672,-4.2071,-5.2253,-1.4611,-1.451,-2.1793,1.6688,1.0268,1.3922,1.808,2.0113,0.8531,0.6323
-4.5903,-5.6446,-5.5046,-4.3978,-0.7553,-0.6848,3.0534,2.2235,3.7173,3.5031,3.5896,3.7277,2.4261,1.2738,-5.1045,-7.3329,-6.5347,-5.5652,-3.9753,-5.1459,-1.4361,-1.26,-1.8966,1.9627,1.3535,1.8152,2.1986,2.5332,0.6942,0.5142
-4.2878,-5.5095,-5.3474,-4.3304,-0.7057,-0.7427,3.1027,2.2451,3.7388,3.5049,3.5931,4.0573,2.4608,1.307,-4.866,-7.2051,-6.2879,-5.3258,-3.7024,-5.0173,-1.4098,-1.087,-1.6273,2.1979,1.6039,2.1793,2.5459,3.0305,0.5507,0.3946
-3.932,-5.3539,-5.1423,-4.2277,-0.6537,-0.7517,3.1312,2.2554,3.7323,3.4686,3.5371,4.3138,2.4703,1.3223,-4.607,-7.0321,-6.0033,-5.0653,-3.4016,-4.8448,-1.3764,-0.9319,-1.377,2.368,1.7653,2.4546,2.8276,3.456,0.4286,0.2721
-3.5626,-5.1778,-4.9088,-4.086,-0.5856,-0.6993,3.1504,2.262,3.7063,3.402,3.4231,4.4642,2.4656,1.3327,-4.345,-6.8201,-5.6901,-4.7949,-3.0792,-4.6305,-1.3239,-0.784,-1.1415,2.4792,1.8395,2.6243,3.0318,3.7688,0.3305,0.1414
-3.2179,-4.9777,-4.6643,-3.8998,-0.4841,-0.5782,3.1744,2.2737,3.6722,3.3186,3.261,4.4873,2.4625,1.357,-4.0926,-6.571,-5.352,-4.5205,-2.7349,-4.3731,-1.2368,-0.6247,-0.9086,2.5496,1.8415,2.6853,3.1577,3.9402,0.2551,-0.0043
-2.9279,-4.7485,-4.4218,-3.6645,-0.3322,-0.3864,3.2189,2.3002,3.6434,3.2365,3.069,4.3782,2.4788,1.4172,-3.8576,-6.2835,-4.9887,-4.2435,-2.3637,-4.0697,-1.0982,-0.432,-0.6621,2.6042,1.7961,2.6481,3.2144,3.9576,0.1982,-0.1714
-2.7105,-4.4862,-4.1877,-3.3769,-0.1154,-0.1272,3.2989,2.3512,3.6348,3.1754,2.8717,4.1488,2.5312,1.5339,-3.6421,-5.9551,-4.5974,-3.961,-1.9584,-3.7167,-0.8939,-0.1856,-0.3859,2.6694,1.7322,2.5322,3.217,3.8245,0.1551,-0.3641
-2.5693,-4.1896,-3.9621,-3.0377,0.1745,0.1922,3.4261,2.4358,3.6606,3.1536,2.6969,3.8249,2.6317,1.7216,-3.4434,-5.5836,-4.175,-3.6681,-1.5127,-3.3117,-0.6144,0.1276,-0.0685,2.7656,1.6762,2.3606,3.1814,3.5583,0.122,-0.5835
-2.4956,-3.862,-3.74,-2.652,0.5377,0.5603,3.606,2.5603,3.732,3.1834,2.57,3.441,2.7828,1.9837,-3.2556,-5.1689,-3.72,-3.3595,-1.0245,-2.8553,-0.2584,0.5094,0.2926,2.9015,1.6452,2.1538,3.1188,3.1854,0.0979,-0.8274
-2.4717,-3.5114,-3.5151,-2.2295,0.9648,0.9619,3.8358,2.7268,3.8548,3.2677,2.5093,3.0329,2.9754,2.3102,-3.0717,-4.7147,-3.2344,-3.0321,-0.4983,-2.3529,0.1656,0.9481,0.688,3.0702,1.6425,1.9258,3.0329,2.7354,0.0829,-1.0891
-2.476,-3.1505,-3.2836,-1.785,1.4369,1.378,4.1034,2.9315,4.0272,3.3989,2.5222,2.6323,3.1889,2.6774,-2.8848,-4.2295,-2.7258,-2.6871,0.0536,-1.8157,0.6392,1.4193,1.0973,3.2503,1.657,1.6825,2.9186,2.2374,0.0764,-1.3584
-2.4881,-2.7944,-3.0461,-1.3364,1.9279,1.7871,4.3893,3.1651,4.239,3.5606,2.604,2.2629,3.395,3.0519,-2.6906,-3.7269,-2.2073,-2.3306,0.6113,-1.2604,1.1356,1.8892,1.4919,3.4113,1.6666,1.4246,2.7664,1.718,0.0759,-1.6219
-2.4914,-2.4593,-2.8087,-0.9035,2.4077,2.1681,4.6699,3.4129,4.4737,3.7315,2.7391,1.9403,3.5634,3.397,-2.4878,-3.2246,-1.6976,-1.9735,1.1498,-0.7088,1.6236,2.3214,1.8409,3.521,1.6454,1.1514,2.5671,1.2018,0.076,-1.8652
-2.4746,-2.1591,-2.5803,-0.5054,2.8474,2.5035,4.9224,3.6579,4.7113,3.8913,2.9062,1.6739,3.6698,3.6801,-2.2787,-2.743,-1.2187,-1.6306,1.6422,-0.1849,2.0724,2.6833,2.1185,3.5554,1.5727,0.8664,2.3186,0.7124,0.0703,-2.076
-2.4315,-1.9039,-2.3692,-0.1583,3.2233,2.7823,5.1294,3.8824,4.9318,4.0247,3.0828,1.4699,3.7021,3.8798,-2.0683,-2.3028,-0.7934,-1.3178,2.0645,0.2879,2.4568,2.9526,2.3095,3.5054,1.4402,0.5809,2.0304,0.2743,0.0537,-2.2466
-2.3598,-1.6978,-2.1801,0.1269,3.5215,3.0024,5.2825,4.071,5.1192,4.1253,3.2505,1.3338,3.6635,3.9902,-1.8641,-1.9222,-0.4412,-1.0497,2.3994,0.69,2.7614,3.1211,2.4132,3.3805,1.2562,0.3146,1.7247,-0.087,0.0243,-2.3766
-2.2597,-1.5394,-2.0122,0.3463,3.7391,3.1691,5.383,4.212,5.263,4.1949,3.3982,1.2712,3.573,4.021,-1.6745,-1.6146,-0.1754,-0.8373,2.6393,1.0092,2.9825,3.1962,2.4438,3.2077,1.0448,0.0939,1.4341,-0.347,-0.0154,-2.4728
-2.1336,-1.4228,-1.8604,0.502,3.8838,3.2928,5.4405,4.298,5.359,4.2419,3.5227,1.2875,3.4606,3.9953,-1.5077,-1.3873,-0.0003,-0.6857,2.7874,1.2417,3.1281,3.1988,2.4272,3.0269,0.8419,-0.0528,1.1969,-0.4844,-0.0596,-2.5478
-1.9852,-1.3403,-1.7172,0.6019,3.9704,3.3857,5.4697,4.3257,5.4083,4.2778,3.6274,1.3855,3.3615,3.9443,-1.3709,-1.24,0.0893,-0.5927,2.8575,1.3928,3.2159,3.1592,2.3962,2.8825,0.6874,-0.1006,1.0501,-0.4852,-0.102,-2.6164
-1.8191,-1.2844,-1.5751,0.6571,4.0176,3.4582,5.4864,4.2956,5.4155,4.3128,3.7194,1.5641,3.3093,3.9011,-1.2676,-1.1661,0.1079,-0.5486,2.8716,1.4759,3.2695,3.1124,2.385,2.8158,0.6183,-0.0322,1.0236,-0.3448,-0.1382,-2.6927
-1.6409,-1.2493,-1.428,0.68,4.0434,3.518,5.504,4.2118,5.3865,4.3541,3.8062,1.8165,3.3303,3.8957,-1.1966,-1.1525,0.0764,-0.5368,2.8573,1.5103,3.3146,3.0926,2.4234,2.8576,0.6615,0.1587,1.1356,-0.0691,-0.1671,-2.7865
-1.4559,-1.2299,-1.2718,0.6839,4.0628,3.5701,5.5312,4.0818,5.3271,4.4041,3.8932,2.1305,3.4394,3.9507,-1.1507,-1.1811,0.02,-0.5355,2.8439,1.5187,3.3757,3.1291,2.5333,3.0238,0.8294,0.4663,1.3901,0.3253,-0.1918,-2.9015
-1.2682,-1.2213,-1.1043,0.681,4.0864,3.618,5.5712,3.9162,5.2421,4.4606,3.9821,2.4891,3.6387,4.0788,-1.1168,-1.2304,-0.0352,-0.5203,2.859,1.5249,3.4724,3.2425,2.7251,3.3132,1.1188,0.8726,1.7762,0.8129,-0.2192,-3.0344
-1.0807,-1.2169,-0.9245,0.6829,4.1212,3.6653,5.6225,3.7289,5.1358,4.5184,4.0705,2.8717,3.9182,4.2825,-1.0786,-1.2778,-0.0653,-0.4676,2.9248,1.5504,3.6178,3.4427,2.9977,3.7081,1.5112,1.3497,2.2693,1.3612,-0.259,-3.1756
-0.894,-1.2078,-0.7322,0.7002,4.1724,3.7168,5.6798,3.5353,5.0116,4.5703,4.1522,3.2558,4.2574,4.5545,-1.0185,-1.3017,-0.0512,-0.3579,3.0555,1.6131,3.8176,3.728,3.3391,4.1775,1.9759,1.8622,2.833,1.9336,-0.323,-3.3106
-0.7077,-1.183,-0.5273,0.7429,4.245,3.7789,5.7367,3.3509,4.8731,4.6089,4.2182,3.6182,4.6291,4.8797,-0.9216,-1.2843,0.0201,-0.1784,3.2555,1.7248,4.0698,4.0863,3.7289,4.6811,2.4748,2.3709,3.4235,2.4917,-0.4233,-3.4234
-0.5209,-1.1297,-0.3091,0.8206,4.3449,3.86,5.7873,3.1897,4.724,4.6283,4.2586,3.9371,5.0031,5.2378,-0.7771,-1.2134,0.1546,0.0757,3.5201,1.8911,4.366,4.4971,4.1421,5.1751,2.9671,2.8367,3.9937,2.9985,-0.5699,-3.4997
-0.3337,-1.0357,-0.0762,0.9417,4.4787,3.9694,5.8277,3.0625,4.5679,4.6247,4.2643,4.193,5.351,5.6064,-0.5798,-1.0835,0.3517,0.4003,3.8372,2.1108,4.6936,4.9354,4.5528,5.6181,3.4138,3.2241,4.4986,3.4206,-0.7679,-3.531
-0.1478,-0.8909,0.1743,1.1125,4.6529,4.1168,5.8569,2.976,4.4088,4.5972,4.2285,4.3707,5.6493,5.9644,-0.3303,-0.896,0.6054,0.7827,4.1895,2.377,5.0381,5.3754,4.9377,5.9759,3.7827,3.5051,4.9004,3.7316,-1.0141,-3.5156
0.0334,-0.6902,0.4464,1.3359,4.8722,4.3097,5.8774,2.9324,4.2508,4.5484,4.1484,4.46,5.8829,6.295,-0.0345,-0.6581,0.9048,1.2034,4.558,2.6784,5.3852,5.7941,5.2789,6.2259,4.0515,3.6616,5.1728,3.9138,-1.2965,-3.4595
0.2056,-0.4338,0.7445,1.6103,5.1381,4.5527,5.8945,2.9301,4.0982,4.4838,4.0259,4.4575,6.0469,6.5876,0.2966,-0.3812,1.2359,1.6379,4.9244,3.0012,5.7231,6.174,5.5652,6.3587,4.2094,3.6877,5.3042,3.9608,-1.5954,-3.3741
0.3647,-0.1281,1.0714,1.9295,5.4483,4.8453,5.9157,2.9647,3.9565,4.412,3.8681,4.3672,6.1463,6.8392,0.6477,-0.079,1.582,2.0608,5.2728,3.3313,6.044,6.5047,5.7923,6.3792,4.2589,3.59,5.2986,3.8786,-1.8862,-3.2726
0.5082,0.2154,1.4263,2.2837,5.7963,5.1815,5.95,3.0297,3.8321,4.3434,3.6868,4.2002,6.1951,7.0541,1.0003,0.2346,1.9256,2.4488,5.5921,3.6564,6.3445,6.7833,5.9632,6.3052,4.2137,3.3877,5.1746,3.6857,-2.1444,-3.1662
0.6358,0.5815,1.8019,2.66,6.1723,5.5498,6.0058,3.1177,3.7319,4.2895,3.4974,3.9746,6.2134,7.2427,1.3345,0.5472,2.2503,2.7847,5.8756,3.9672,6.6258,7.0136,6.0868,6.1646,4.0975,3.1105,4.9631,3.411,-2.3502,-3.0614
0.7481,0.9524,2.1837,3.0445,6.5638,5.9343,6.09,3.221,3.6633,4.2613,3.3175,3.7132,6.224,7.4185,1.6315,0.8486,2.5427,3.0594,6.1216,4.2584,6.892,7.2048,6.1766,5.9914,3.9391,2.7954,4.7019,3.0907,-2.492,-2.9588
0.8467,1.3096,2.5504,3.4218,6.9557,6.3158,6.2057,3.3322,3.6321,4.2672,3.1645,3.4411,6.2478,7.5947,1.8757,1.1306,2.7937,3.2717,6.3321,4.5271,7.1482,7.3681,6.2479,5.8203,3.7688,2.4819,4.4308,2.7631,-2.5681,-2.8542
0.9317,1.6345,2.8763,3.7762,7.331,6.6736,6.351,3.4437,3.6413,4.3111,3.053,3.1827,6.3001,7.7804,2.0564,1.3861,2.999,3.4268,6.511,4.7721,7.3976,7.5151,6.315,5.6821,3.6135,2.207,4.1855,2.4635,-2.5859,-2.742
1.0022,1.9088,3.1356,4.0906,7.67,6.9865,6.5175,3.5475,3.689,4.3909,2.9928,2.9585,6.3876,7.9775,2.1679,1.6077,3.1582,3.5325,6.6622,4.991,7.6393,7.6538,6.388,5.5988,3.4937,2.0003,3.9933,2.2198,-2.5595,-2.6184
1.0551,2.1153,3.3056,4.3465,7.9505,7.2336,6.6902,3.6346,3.7669,4.4978,2.9865,2.7833,6.5071,8.1796,2.2099,1.7869,3.2729,3.5955,6.7879,5.1794,7.8663,7.788,6.4707,5.5812,3.4223,1.8809,3.87,2.049,-2.5067,-2.4843
1.0864,2.2389,3.3708,4.525,8.1491,7.395,6.8485,3.6938,3.8605,4.6167,3.0292,2.6645,6.646,8.3724,2.1861,1.914,3.3453,3.6197,6.8867,5.3291,8.0659,7.9153,6.56,5.6279,3.4042,1.8554,3.8193,1.9567,-2.4462,-2.3459
1.091,2.268,3.3244,4.6087,8.2438,7.4531,6.9682,3.712,3.9492,4.7283,3.1081,2.6026,6.7843,8.5359,2.104,1.9787,3.3755,3.6053,6.9539,5.429,8.2206,8.0283,6.647,5.7271,3.4382,1.9186,3.8343,1.9384,-2.3953,-2.2133
1.0639,2.1971,3.1697,4.5848,8.2177,7.3943,7.0256,3.675,4.0096,4.8114,3.2048,2.5924,6.8991,8.6486,1.974,1.9726,3.362,3.5504,6.9823,5.4673,8.3117,8.1161,6.7198,5.8594,3.5183,2.0558,3.9006,1.9823,-2.3692,-2.0987
1.0011,2.0293,2.9202,4.4488,8.0638,7.2126,7.0014,3.5696,4.019,4.8467,3.298,2.6255,6.9692,8.6921,1.8096,1.8917,3.3015,3.4537,6.9645,5.4337,8.3231,8.1675,6.7673,6.0023,3.6351,2.2462,4.0004,2.0732,-2.3798,-2.013
0.9003,1.7777,2.5974,4.207,7.7881,6.9116,6.8846,3.3863,3.9593,4.8199,3.3669,2.6921,6.9795,8.6549,1.6273,1.7385,3.1916,3.3178,6.8957,5.3237,8.2455,8.1737,6.7826,6.1343,3.7771,2.4671,4.1165,2.1961,-2.4354,-1.9636
0.7627,1.465,2.2285,3.8776,7.4101,6.507,6.6744,3.1218,3.82,4.7238,3.395,2.7833,6.924,8.5356,1.4455,1.5234,3.0324,3.1517,6.7765,5.1404,8.0794,8.132,6.7649,6.2386,3.9322,2.6975,4.2353,2.3388,-2.5396,-1.9524
0.5938,1.1205,1.8429,3.489,6.9615,6.0262,6.3809,2.7806,3.6006,4.5594,3.3717,2.892,6.8072,8.3432,1.2833,1.2642,2.8298,2.9708,6.6145,4.8962,7.8366,8.0467,6.7205,6.3053,4.0884,2.9206,4.3482,2.4931,-2.6912,-1.975
0.4048,0.7761,1.4678,3.0766,6.4817,5.5061,6.0231,2.3756,3.3097,4.3346,3.2933,3.0119,6.6428,8.0971,1.1586,0.9851,2.596,2.7965,6.4247,4.6126,7.5393,7.9293,6.6612,6.3319,4.2349,3.1248,4.4519,2.6539,-2.8838,-2.0209
0.2132,0.461,1.1258,2.6779,6.0128,4.9894,5.6265,1.9266,2.9639,4.0632,3.1625,3.1375,6.4517,7.8236,1.0856,0.7135,2.3501,2.6528,6.2281,4.3177,7.2181,7.7973,6.6021,6.3229,4.3628,3.3027,4.5463,2.8178,-3.1075,-2.076
0.0422,0.1987,0.8323,2.3281,5.595,4.5185,5.2195,1.4588,2.584,3.7622,2.986,3.2624,6.2575,7.5531,1.0732,0.477,2.1164,2.5628,6.0491,4.0432,6.9077,7.6709,6.5591,6.2874,4.4654,3.4501,4.6329,2.9811,-3.3497,-2.1251
-0.0826,0.0049,0.5968,2.0554,5.2613,4.13,4.8293,0.9988,2.1924,3.4495,2.7729,3.379,6.0836,7.3154,1.1247,0.3004,1.9216,2.5449,5.9117,3.8197,6.6423,7.5698,6.5456,6.2375,4.5387,3.5642,4.7131,3.1382,-3.5969,-2.1558
-0.136,-0.1117,0.4245,1.879,5.0346,3.85,4.4795,0.5724,1.81,3.1418,2.5327,3.4787,5.9492,7.1364,1.238,0.2031,1.7918,2.6099,5.8367,3.6733,6.4515,7.5099,6.572,6.1861,4.5814,3.6431,4.7871,3.2821,-3.8361,-2.1608
-0.0973,-0.1487,0.3189,1.8081,4.9255,3.6908,4.1879,0.2017,1.4539,2.8538,2.2747,3.5529,5.8678,7.0351,1.4076,0.1981,1.7488,2.7597,5.8388,3.6223,6.3564,7.5015,6.6441,6.1446,4.5947,3.6857,4.8539,3.4046,-4.0561,-2.1399
0.0455,-0.1078,0.2839,1.8417,4.9321,3.6508,3.9656,-0.0966,1.1372,2.5974,2.0082,3.5946,5.8456,7.0216,1.6264,0.2906,1.8066,2.987,5.9243,3.675,6.3675,7.5487,6.7641,6.1216,4.5826,3.6922,4.9112,3.498,-4.248,-2.0997
0.2931,0.0055,0.3227,1.9707,5.0413,3.7159,3.8169,-0.3121,0.8689,2.3815,1.7431,3.5998,5.8822,7.0961,1.8866,0.4781,1.9687,3.2766,6.0912,3.8294,6.4835,7.6489,6.9297,6.1221,4.551,3.6646,4.956,3.5562,-4.4056,-2.0515
0.633,0.1825,0.4362,2.1785,5.2307,3.8626,3.7403,-0.4412,0.6548,2.2117,1.4903,3.5683,5.9708,7.2496,2.1801,0.7496,2.2264,3.6063,6.3282,4.0728,6.6919,7.7942,7.135,6.1469,4.5071,3.6069,4.9855,3.5759,-4.5251,-2.0086
1.0394,0.4111,0.6187,2.4435,5.472,4.0625,3.729,-0.4862,0.4985,2.091,1.2613,3.504,6.1001,7.4651,2.4971,1.0864,2.5592,3.95,6.6166,4.3838,6.9709,7.9721,7.3696,6.1927,4.4579,3.5247,4.9969,3.5567,-4.6045,-1.9828
1.4762,0.6764,0.8562,2.7416,5.7351,4.2868,3.7736,-0.4552,0.4019,2.0201,1.0676,3.4148,6.2556,7.7203,2.826,1.4635,2.938,4.2813,6.9326,4.7349,7.2922,8.1681,7.6203,6.253,4.4092,3.4245,4.9886,3.5009,-4.6441,-1.9816
1.9015,0.9619,1.1262,3.049,5.9922,4.5109,3.863,-0.3601,0.3656,1.9979,0.9194,3.3106,6.4222,7.9913,3.1533,1.8528,3.3302,4.5776,7.2508,5.0965,7.626,8.3672,7.8719,6.3196,4.3646,3.313,4.9603,3.4126,-4.6464,-2.0073
2.2745,1.2512,1.4004,3.3453,6.2212,4.7169,3.9864,-0.2158,0.3879,2.022,0.8239,3.202,6.5861,8.2563,3.4648,2.2273,3.7054,4.8235,7.5485,5.4415,7.9448,8.5569,8.11,6.3847,4.3251,3.1962,4.9138,3.2982,-4.617,-2.0562
2.5626,1.5296,1.65,3.615,6.4078,4.8947,4.1341,-0.0388,0.4637,2.0883,0.7842,3.099,6.7364,8.4983,3.7462,2.5643,4.0404,5.013,7.8087,5.7489,8.2278,8.7283,8.3222,6.4419,4.2891,3.0789,4.853,3.1647,-4.5639,-2.1204
2.7469,1.7847,1.8509,3.8484,6.5455,5.0409,4.2965,0.1529,0.5833,2.1906,0.7982,3.0085,6.8656,8.7062,3.9847,2.8483,4.3215,5.1484,8.0219,6.0053,8.4615,8.8764,8.4997,6.4873,4.2531,2.9646,4.7835,3.0202,-4.4972,-2.1892
2.8249,2.0068,1.9879,4.0405,6.6336,5.1561,4.4638,0.3408,0.7318,2.3196,0.8583,2.9345,6.9689,8.8742,4.1699,3.0711,4.5436,5.2376,8.1847,6.2048,8.6397,8.9995,8.6375,6.5191,4.2123,2.8558,4.7114,2.8724,-4.4278,-2.2523
2.8095,2.1879,2.0571,4.189,6.6752,5.2413,4.6241,0.5062,0.8894,2.4625,0.951,2.8773,7.0433,8.9999,4.2944,3.2313,4.7082,5.2903,8.2988,6.3476,8.7617,9.0976,8.7334,6.5371,4.1622,2.7548,4.6426,2.729,-4.3675,-2.3013
2.7262,2.3218,2.0651,4.2926,6.674,5.2953,4.7637,0.6312,1.0336,2.6035,1.0586,2.8341,7.086,9.0822,4.3552,3.3326,4.8197,5.3152,8.368,6.4368,8.8291,9.1716,8.7887,6.5416,4.0997,2.6633,4.5817,2.5964,-4.3275,-2.3314
2.6074,2.4039,2.0259,4.3501,6.6329,5.3136,4.8671,0.7,1.1415,2.7246,1.1606,2.8002,7.0943,9.1198,4.3548,3.3827,4.8839,5.3181,8.3967,6.4779,8.845,9.2229,8.807,6.5332,4.0241,2.5839,4.5311,2.48,-4.318,-2.3426
2.4879,2.4328,1.9571,4.3605,6.5535,5.29,4.9195,0.7005,1.1935,2.8083,1.2363,2.7703,7.0657,9.1116,4.3012,3.3921,4.9069,5.3022,8.3899,6.4771,8.8128,9.2536,8.795,6.5126,3.9386,2.5195,4.4915,2.3837,-4.3458,-2.3385
2.3996,2.4119,1.8752,4.3246,6.4369,5.2188,4.9088,0.626,1.1761,2.84,1.2682,2.7395,6.9998,9.0571,4.2077,3.3744,4.8955,5.269,8.3536,6.4427,8.7376,9.267,8.7616,6.4814,3.8496,2.4735,4.4624,2.3097,-4.4125,-2.3257
2.3669,2.3502,1.7923,4.246,6.2854,5.0977,4.8287,0.4772,1.0847,2.8105,1.2441,2.7048,6.8989,8.9588,4.0915,3.3446,4.8584,5.2204,8.2955,6.3845,8.6265,9.2681,8.7179,6.4426,3.7661,2.4496,4.443,2.2597,-4.5132,-2.3117
2.4038,2.263,1.7154,4.1324,6.1045,4.9291,4.6799,0.2627,0.9236,2.7179,1.1599,2.6652,6.7696,8.8227,3.9711,3.3182,4.8058,5.1597,8.2252,6.3145,8.49,9.2631,8.6756,6.401,3.6985,2.4513,4.4337,2.2342,-4.6354,-2.3036
2.5113,2.1692,1.6469,3.9949,5.9026,4.7201,4.4703,-0.0021,0.7055,2.5674,1.0192,2.6215,6.622,8.6591,3.8636,3.3085,4.7482,5.091,8.1527,6.245,8.3409,9.258,8.6447,6.3624,3.6558,2.4805,4.4354,2.2332,-4.7608,-2.3071
2.6776,2.0883,1.5872,3.8467,5.6907,4.481,4.2133,-0.2963,0.4485,2.3699,0.8331,2.5758,6.4686,8.4806,3.7817,3.3233,4.6943,5.0187,8.086,6.1865,8.1924,9.2562,8.631,6.3327,3.644,2.5371,4.4497,2.2556,-4.8675,-2.3261
2.88,2.0359,1.5373,3.6999,5.4802,4.2233,3.9255,-0.5968,0.173,2.1401,0.6173,2.5304,6.3217,8.3007,3.7317,3.3636,4.6481,4.9454,8.0292,6.1455,8.0558,9.2572,8.6337,6.3158,3.6648,2.6184,4.4778,2.2995,-4.9338,-2.3623
3.0904,2.0205,1.5,3.564,5.2807,3.958,3.623,-0.8815,-0.1015,1.8927,0.3893,2.4873,6.1915,8.131,3.7122,3.4225,4.6081,4.8709,7.981,6.1231,7.9386,9.2553,8.6453,6.3134,3.7151,2.7187,4.5193,2.3615,-4.9419,-2.416
3.2817,2.0415,1.4799,3.4436,5.0983,3.6943,3.3196,-1.1325,-0.3595,1.6406,0.1658,2.4474,6.084,7.9792,3.7148,3.4877,4.5683,4.7923,7.9359,6.1152,7.8428,9.2415,8.653,6.3236,3.7888,2.8305,4.5723,2.4372,-4.881,-2.4853
3.4341,2.0905,1.4809,3.3383,4.9344,3.4391,3.0244,-1.3387,-0.5913,1.3928,-0.0407,2.4105,5.9998,7.8485,3.7257,3.5444,4.5204,4.7047,7.8856,6.1136,7.7659,9.2053,8.6415,6.3415,3.8777,2.9451,4.6329,2.5216,-4.749,-2.5658
3.5388,2.1531,1.5038,3.244,4.787,3.1964,2.7414,-1.4971,-0.7939,1.1535,-0.2229,2.3746,5.9343,7.737,3.7297,3.5797,4.4574,4.6039,7.8223,6.1095,7.7017,9.1379,8.5969,6.3599,3.9732,3.0539,4.6959,2.609,-4.5525,-2.6509
3.5988,2.2137,1.5451,3.1543,4.651,2.9679,2.4703,-1.6124,-0.9704,0.9223,-0.3802,2.3364,5.8786,7.6389,3.7133,3.5857,4.3759,4.4878,7.7405,6.0947,7.6425,9.0346,8.5102,6.3705,4.0676,3.1487,4.7553,2.6934,-4.3056,-2.7311
3.6253,2.259,1.597,3.0635,4.5211,2.7536,2.2085,-1.6948,-1.1284,0.6961,-0.5169,2.2913,5.8219,7.5464,3.6686,3.5617,4.2778,4.358,7.6386,6.0648,7.5811,8.896,8.3792,6.365,4.1538,3.2225,4.8044,2.7687,-4.0275,-2.796
3.633,2.2814,1.6499,2.9682,4.3932,2.5535,1.9535,-1.7572,-1.2768,0.4712,-0.6408,2.2346,5.7535,7.4519,3.5952,3.5138,4.17,4.2206,7.5194,6.0194,7.5128,8.7286,8.2086,6.3367,4.2258,3.2695,4.8369,2.8291,-3.7403,-2.8359
3.6355,2.2802,1.6959,2.8688,4.2656,2.3687,1.706,-1.8109,-1.4223,0.2459,-0.7597,2.1627,5.6661,7.3503,3.5006,3.4534,4.0627,4.0853,7.3892,5.9618,7.436,8.5434,8.0099,6.2817,4.2786,3.2856,4.8474,2.8696,-3.4666,-2.8437
3.6428,2.2607,1.731,2.7694,4.14,2.2027,1.4703,-1.8634,-1.5672,0.0225,-0.8793,2.0753,5.5574,7.2407,3.3992,3.3945,3.9668,3.9637,7.2565,5.8985,7.3525,8.3543,7.7987,6.1997,4.3081,3.2685,4.8315,2.8868,-3.2264,-2.8164
3.6613,2.2322,1.7564,2.6772,4.0202,2.0612,1.2548,-1.9162,-1.7085,-0.1916,-1.0008,1.9754,5.4305,7.1266,3.3086,3.3508,3.8917,3.8669,7.1303,5.8369,7.2669,8.1759,7.5927,6.0944,4.3122,3.219,4.7872,2.8793,-3.035,-2.7557
3.6946,2.2051,1.7765,2.6004,3.9112,1.9516,1.0702,-1.9656,-1.8382,-0.3855,-1.1206,1.8695,5.2933,7.0154,3.2463,3.3333,3.843,3.8024,7.0182,5.7846,7.1852,8.0214,7.4087,5.9726,4.2911,3.1405,4.7145,2.8483,-2.9011,-2.6674
3.7452,2.1887,1.7971,2.5467,3.8177,1.8804,0.9263,-2.0044,-1.9462,-0.5458,-1.2316,1.7662,5.1567,6.9159,3.226,3.349,3.8218,3.7726,6.9256,5.7475,7.1139,7.9008,7.2603,5.8438,4.2474,3.0401,4.6159,2.7971,-2.825,-2.5607
3.8145,2.1902,1.8233,2.5213,3.7422,1.8518,0.8305,-2.0244,-2.0225,-0.6601,-1.3246,1.674,5.0321,6.8365,3.2547,3.3997,3.8254,3.7733,6.8553,5.7302,7.0584,7.8198,7.1565,5.7186,4.1869,2.9269,4.4965,2.7307,-2.7992,-2.4475
3.9022,2.214,1.8581,2.526,3.6854,1.8662,0.7855,-2.0188,-2.06,-0.7187,-1.3911,1.5997,4.93,6.7834,3.332,3.4832,3.8482,3.7954,6.8078,5.7347,7.0227,7.7795,7.1005,5.6075,4.1173,2.8125,4.3639,2.6557,-2.8098,-2.3414
4.0057,2.2616,1.9029,2.5593,3.646,1.9195,0.79,-1.984,-2.0559,-0.7163,-1.4252,1.5473,4.8584,6.7595,3.4502,3.5934,3.8844,3.8268,6.7823,5.7613,7.0087,7.7766,7.0906,5.5203,4.0477,2.709,4.228,2.5792,-2.8398,-2.2556
4.1196,2.3323,1.9566,2.6161,3.6215,2.003,0.839,-1.9199,-2.0118,-0.653,-1.4245,1.5173,4.8226,6.7642,3.5957,3.7217,3.929,3.8558,6.7775,5.808,7.016,7.8042,7.1204,5.4648,3.9881,2.6283,4.1009,2.5088,-2.8719,-2.2012
4.2351,2.4224,2.0155,2.6888,3.6093,2.1042,0.9259,-1.8292,-1.9329,-0.5334,-1.3906,1.5073,4.8244,6.7938,3.751,3.8577,3.9785,3.8725,6.7909,5.8708,7.0418,7.8527,7.1794,5.4458,3.9479,2.5805,3.9949,2.4517,-2.8919,-2.184
4.3408,2.5255,2.0722,2.768,3.607,2.2084,1.0436,-1.7165,-1.8266,-0.366,-1.3282,1.5128,4.8626,6.8418,3.8974,3.9897,4.0305,3.8705,6.8187,5.9427,7.0804,7.9107,7.2543,5.4644,3.9344,2.5721,3.9216,2.4138,-2.8899,-2.2029
4.4234,2.6324,2.116,2.8429,3.6119,2.3005,1.1856,-1.5867,-1.7009,-0.1621,-1.244,1.5282,4.9324,6.8999,4.0166,4.1054,4.0824,3.8461,6.8545,6.0141,7.1232,7.9653,7.3297,5.5166,3.952,2.6053,3.8896,2.3992,-2.8609,-2.2494
4.4696,2.7313,2.1345,2.9019,3.6203,2.3677,1.3457,-1.4448,-1.5637,0.0657,-1.145,1.5475,5.026,6.9584,4.0929,4.1919,4.1301,3.7977,6.8888,6.0726,7.1592,8.0035,7.3901,5.5944,4.0015,2.6772,3.9029,2.4091,-2.8035,-2.3081
4.4691,2.8086,2.1166,2.9333,3.6268,2.4011,1.5175,-1.2956,-1.422,0.3038,-1.0372,1.5661,5.1332,7.0069,4.1139,4.2367,4.1674,3.7245,6.9099,6.1042,7.1759,8.0137,7.4217,5.6866,4.0797,2.7804,3.9603,2.4421,-2.7195,-2.361
4.4169,2.8498,2.0549,2.9255,3.6228,2.3967,1.6929,-1.1447,-1.2818,0.5388,-0.9253,1.5807,5.2418,7.0356,4.0709,4.2284,4.1861,3.6261,6.9047,6.0947,7.1605,7.987,7.4145,5.7804,4.1811,2.9044,4.0559,2.4948,-2.6121,-2.3903
4.3153,2.841,1.9486,2.8679,3.5973,2.3545,1.8613,-0.9987,-1.1489,0.757,-0.8126,1.5903,5.3392,7.036,3.9599,4.1583,4.1762,3.5022,6.8611,6.0318,7.1026,7.9188,7.364,5.8643,4.2978,3.0376,4.1797,2.5622,-2.4863,-2.3827
4.174,2.7711,1.8032,2.7529,3.5378,2.2775,2.0093,-0.8658,-1.0296,0.9453,-0.7022,1.5954,5.4128,7.0018,3.7822,4.0228,4.1286,3.3537,6.7707,5.9078,6.9955,7.8094,7.2716,5.9291,4.4211,3.1688,4.3198,2.6389,-2.3486,-2.3322
4.0081,2.6347,1.6305,2.5777,3.4335,2.1705,2.1212,-0.7556,-0.9306,1.091,-0.5981,1.5979,5.4521,6.9302,3.5463,3.8253,4.0376,3.1841,6.6313,5.7225,6.8385,7.6645,7.1449,5.9697,4.5423,3.2893,4.4635,2.7199,-2.207,-2.2406
3.8357,2.4358,1.4466,2.3473,3.2782,2.0398,2.1808,-0.6786,-0.8594,1.1831,-0.5053,1.6006,5.4494,6.8224,3.2694,3.578,3.9035,3.0007,6.448,5.4842,6.6378,7.4942,6.9958,5.985,4.6534,3.394,4.5994,2.8012,-2.0704,-2.1181
3.6747,2.1896,1.2705,2.0761,3.0729,1.8933,2.1743,-0.6441,-0.8235,1.2133,-0.4306,1.6068,5.4006,6.6836,2.9771,3.302,3.7344,2.8157,6.2337,5.2104,6.4061,7.3116,6.8388,5.9774,4.7471,3.4816,4.7184,2.8809,-1.9465,-1.981
3.5405,1.9224,1.1213,1.7871,2.8266,1.7398,2.0928,-0.6592,-0.8287,1.1768,-0.3813,1.6196,5.306,6.5222,2.7006,3.0254,3.5463,2.6448,6.0071,4.9257,6.161,7.13,6.6878,5.9512,4.8176,3.5541,4.8142,2.9584,-1.8402,-1.8485
3.4445,1.6676,1.0159,1.5096,2.5554,1.5888,1.934,-0.7271,-0.8789,1.0736,-0.3646,1.6417,5.1698,6.3485,2.4726,2.7791,3.3606,2.506,5.7893,4.658,5.9224,6.9617,6.5541,5.9107,4.86,3.6155,4.8831,3.0342,-1.7524,-1.739
3.393,1.4599,0.966,1.2738,2.2794,1.4496,1.7034,-0.8465,-0.9745,0.9081,-0.3863,1.6738,4.9996,6.1731,2.3214,2.5917,3.2003,2.4159,5.6007,4.4341,5.7086,6.8154,6.4445,5.8589,4.8705,3.6696,4.9238,3.1085,-1.6815,-1.6662
3.3882,1.3278,0.9759,1.1054,2.0189,1.3298,1.4133,-1.012,-1.1132,0.6886,-0.4501,1.714,4.8045,6.0046,2.2658,2.4838,3.0855,2.3862,5.4568,4.2751,5.534,6.696,6.3613,5.7963,4.8461,3.7182,4.9358,3.18,-1.6241,-1.6374
3.4281,1.288,1.042,1.0204,1.7913,1.235,1.0809,-1.2144,-1.2904,0.4262,-0.5577,1.7568,4.5937,5.8483,2.3115,2.465,3.0294,2.4212,5.3666,4.1923,5.4061,6.6044,6.3025,5.7214,4.785,3.7595,4.9192,3.2452,-1.5764,-1.6524
3.5087,1.3426,1.1538,1.0228,1.608,1.168,0.7256,-1.4424,-1.4995,0.1331,-0.7083,1.7938,4.3754,5.7054,2.4499,2.5311,3.0354,2.5153,5.3314,4.1862,5.3247,6.5379,6.2637,5.6308,4.6868,3.7878,4.8732,3.2975,-1.5341,-1.705
3.6243,1.4795,1.2966,1.1043,1.4739,1.1291,0.3669,-1.6832,-1.7331,-0.1779,-0.8986,1.8147,4.1555,5.573,2.6601,2.6661,3.0972,2.6538,5.3455,4.2458,5.2828,6.4916,6.2387,5.5209,4.5538,3.7948,4.7968,3.3287,-1.4928,-1.7847
3.7684,1.6757,1.4541,1.2467,1.387,1.1161,0.0223,-1.923,-1.982,-0.4942,-1.1218,1.8098,3.938,5.4456,2.9126,2.8442,3.1998,2.8145,5.3972,4.3514,5.268,6.4594,6.2213,5.3886,4.3912,3.7712,4.6889,3.3295,-1.4481,-1.8793
3.9338,1.9006,1.6118,1.4247,1.3407,1.1243,-0.2936,-2.148,-2.2355,-0.8029,-1.3676,1.7719,3.7251,5.3166,3.1738,3.035,3.3226,2.9712,5.4712,4.4776,5.2653,6.4345,6.205,5.2324,4.2075,3.7093,4.5492,3.2924,-1.3956,-1.9777
4.1118,2.1206,1.7586,1.6103,1.3257,1.1475,-0.5693,-2.3445,-2.4801,-1.0907,-1.621,1.6986,3.5186,5.18,3.41,3.2074,3.4416,3.0974,5.5494,4.5971,5.2594,6.41,6.1833,5.0532,4.0127,3.6051,4.379,3.2122,-1.332,-2.0706
4.2926,2.3034,1.8874,1.7765,1.3316,1.1783,-0.7962,-2.4993,-2.6995,-1.3443,-1.8637,1.5932,3.3202,5.0327,3.5918,3.3338,3.5334,3.1697,5.6132,4.6843,5.2372,6.3788,6.149,4.8538,3.8176,3.4592,4.1824,3.0884,-1.2546,-2.1516
4.4645,2.4217,1.994,1.9011,1.3491,1.2102,-0.9677,-2.601,-2.8757,-1.5502,-2.0751,1.4636,3.1327,4.8746,3.6961,3.3943,3.5771,3.1705,5.6449,4.7188,5.1891,6.3337,6.0941,4.64,3.6312,3.2776,3.9663,2.9251,-1.1607,-2.2168
4.6138,2.4577,2.0769,1.97,1.3713,1.2383,-1.0792,-2.6402,-2.9907,-1.6961,-2.2352,1.3218,2.9607,4.7097,3.7088,3.378,3.5573,3.0903,5.6293,4.6878,5.11,6.268,6.0101,4.4199,3.4604,3.0711,3.7409,2.7311,-1.0479,-2.2645
4.7261,2.4065,2.1354,1.9788,1.3945,1.2602,-1.1273,-2.6111,-3.0295,-1.7718,-2.3272,1.1814,2.8104,4.5451,3.6262,3.2849,3.466,2.9283,5.556,4.5874,4.9993,6.1763,5.8901,4.2042,3.3092,2.8544,3.5189,2.5192,-0.9138,-2.2951
4.7873,2.2771,2.1704,1.9333,1.4187,1.2757,-1.11,-2.5118,-2.9828,-1.7702,-2.3402,1.0557,2.6897,4.3904,3.4548,3.1249,3.3038,2.6929,5.4206,4.4228,4.8614,6.0555,5.7298,4.0049,3.1797,2.6444,3.3149,2.3052,-0.7572,-2.3102
4.7868,2.0916,2.1835,1.8482,1.4474,1.2864,-1.0268,-2.3453,-2.8488,-1.6882,-2.2702,0.9562,2.6069,4.2562,3.21,2.9165,3.0802,2.4006,5.2262,4.208,4.7051,5.9063,5.5302,3.8351,3.0728,2.4579,3.1438,2.106,-0.5789,-2.3123
4.7205,1.8806,2.1781,1.7437,1.486,1.2947,-0.8795,-2.1192,-2.6339,-1.5271,-2.121,0.8915,2.5696,4.1527,2.9137,2.6834,2.8119,2.0735,4.9829,3.9629,4.5421,5.7335,5.298,3.7064,2.9887,2.3096,3.0195,1.9376,-0.3824,-2.3043
4.593,1.6773,2.1588,1.6413,1.5402,1.303,-0.6728,-1.8454,-2.352,-1.2931,-1.9032,0.8664,2.5829,4.088,2.5909,2.4506,2.5196,1.7363,4.7069,3.7104,4.3857,5.5458,5.0456,3.6271,2.9269,2.2093,2.9519,1.8132,-0.1744,-2.2886
4.4168,1.5102,2.1308,1.5595,1.6127,1.3134,-0.4157,-1.5394,-2.0223,-0.9975,-1.6327,0.8823,2.6479,4.0663,2.2664,2.2403,2.2252,1.412,4.4179,3.4726,4.2483,5.3546,4.7888,3.6002,2.8861,2.1604,2.945,1.741,0.0358,-2.2673
4.2106,1.3967,2.0983,1.5088,1.7017,1.3261,-0.1219,-1.2198,-1.6675,-0.6568,-1.3288,0.9365,2.7596,4.0866,1.9622,2.068,1.9481,1.1191,4.1365,3.267,4.1394,5.1716,4.5442,3.6219,2.8636,2.1591,2.9952,1.7226,0.2356,-2.2417
3.9947,1.3395,2.0629,1.489,1.799,1.339,0.19,-0.9071,-1.311,-0.2926,-1.0123,1.0231,2.9062,4.1421,1.6948,1.9404,1.703,0.8696,3.8808,3.1032,4.0633,5.0063,4.3263,3.6812,2.8554,2.1956,3.0906,1.7528,0.409,-2.2121
3.7875,1.3259,2.0215,1.4892,1.8903,1.3468,0.4982,-0.6215,-0.9751,0.0701,-0.7033,1.1335,3.0696,4.2209,1.4745,1.8541,1.4986,0.6673,3.6638,2.9824,4.0181,4.8644,4.1447,3.761,2.8562,2.2558,3.2122,1.8204,0.537,-2.1781
3.6029,1.3313,1.9668,1.4899,1.9582,1.3428,0.78,-0.3806,-0.6783,0.4057,-0.4195,1.2574,3.2275,4.3071,1.3049,1.7973,1.3372,0.5086,3.4925,2.8971,3.9959,4.7462,4.003,3.8408,2.8609,2.3236,3.3369,1.9099,0.5988,-2.1385
3.4494,1.3248,1.888,1.4683,1.9851,1.3203,1.016,-0.1964,-0.4333,0.6914,-0.1738,1.3847,3.3572,4.3843,1.1835,1.7531,1.2155,0.3834,3.3669,2.8341,3.9848,4.647,3.8986,3.9004,2.8647,2.3843,3.4413,2.0049,0.5754,-2.0915
3.33,1.2772,1.7748,1.4042,1.9583,1.2755,1.1934,-0.0735,-0.2455,0.9116,0.027,1.5068,3.4401,4.4379,1.1033,1.7033,1.1262,0.2777,3.281,2.7779,3.9717,4.5587,3.8236,3.9233,2.8641,2.4267,3.5065,2.0909,0.454,-2.0353
3.2426,1.1675,1.6201,1.2845,1.8728,1.2084,1.3089,-0.0081,-0.1121,1.0617,0.1833,1.6183,3.4658,4.459,1.0537,1.6329,1.0591,0.1765,3.2243,2.7139,3.945,4.4723,3.7673,3.9004,2.857,2.4444,3.5217,2.1583,0.2321,-1.9689
3.1803,0.9885,1.4237,1.1074,1.733,1.1224,1.3696,0.011,-0.0224,1.1486,0.3025,1.7176,3.4349,4.4458,1.0228,1.5335,1.0034,0.0675,3.1845,2.6326,3.8978,4.3798,3.7182,3.8317,2.8426,2.437,3.4863,2.2033,-0.0793,-1.892
3.1332,0.7481,1.1929,0.8819,1.5519,1.0232,1.3916,0.0007,0.04,1.1905,0.3978,1.8067,3.3593,4.4038,0.9986,1.4049,0.9492,-0.0563,3.1499,2.5304,3.8296,4.2769,3.6673,3.7259,2.8218,2.4093,3.4102,2.2282,-0.4561,-1.8063
3.0901,0.468,0.9421,0.6267,1.349,0.9172,1.396,-0.02,0.0937,1.212,0.485,1.8898,3.2591,4.3448,0.9709,1.2545,0.8893,-0.1956,3.1113,2.4105,3.7459,4.1636,3.609,3.5988,2.7968,2.3695,3.3106,2.24,-0.8647,-1.7154
