FP1,F3,F7,FC3,C3,C5,P3,P7,PO7,PO3,O1,Oz,Pz,CPz,FP2,Fz,F4,F8,FC4,FCz,Cz,C4,C6,P4,P8,PO8,PO4,O2,(corr) HEOG,(corr) VEOG
0.5014,1.7556,1.5042,2.4107,2.8351,1.4487,1.8447,1.0077,0.7231,0.8429,-0.0017,-0.4415,1.8308,2.5805,0.2202,1.8781,0.594,-0.3411,1.4512,2.5393,2.7601,1.4481,1.0543,0.7957,0.0146,-0.9883,-0.5263,-1.1281,0.2596,-0.8963
0.503,1.5868,1.2112,2.1992,2.6194,1.484,1.8619,1.0618,0.8434,1.0279,0.162,-0.2556,1.8998,2.531,0.2807,1.7262,0.7079,0.1451,1.4615,2.3075,2.6028,1.5528,1.0807,1.0185,0.0528,-0.7658,-0.1897,-0.8329,0.1729,-0.7388
0.4812,1.4207,0.9287,1.9897,2.4045,1.4869,1.8664,1.1088,0.9575,1.1928,0.3223,-0.0687,1.947,2.4608,0.3119,1.5676,0.7954,0.5566,1.461,2.0749,2.4373,1.6315,1.0944,1.2147,0.0865,-0.546,0.1264,-0.5484,0.1035,-0.5916
0.4208,1.251,0.6657,1.778,2.1873,1.4364,1.8454,1.1417,1.0564,1.3188,0.4733,0.1179,1.952,2.3489,0.2877,1.3906,0.8297,0.8322,1.4353,1.8338,2.2507,1.6603,1.0833,1.3609,0.1127,-0.332,0.4034,-0.2851,0.0624,-0.4553
0.3152,1.069,0.4291,1.5567,1.9625,1.322,1.7871,1.1533,1.1297,1.3897,0.6066,0.2984,1.8977,2.1785,0.1926,1.1839,0.7913,0.9356,1.3699,1.5752,2.031,1.6204,1.0368,1.4381,0.1282,-0.1287,0.6242,-0.0536,0.0551,-0.3274
0.1682,0.8654,0.2226,1.3172,1.7237,1.1446,1.6818,1.1361,1.1664,1.3936,0.7117,0.4631,1.773,1.9393,0.0241,0.9389,0.6706,0.8613,1.2511,1.2902,1.7685,1.5007,0.948,1.4344,0.1311,0.0568,0.7747,0.1373,0.0802,-0.2029
-0.0073,0.6334,0.047,1.0533,1.4661,0.916,1.5247,1.0846,1.1565,1.3251,0.7779,0.6004,1.5752,1.6302,-0.2061,0.6526,0.4694,0.6342,1.07,0.9732,1.4585,1.3,0.8142,1.3472,0.1211,0.217,0.8472,0.2819,0.1303,-0.0762
-0.1923,0.3719,-0.0991,0.7656,1.1894,0.6557,1.3175,0.9965,1.0944,1.1863,0.7974,0.6999,1.3118,1.2607,-0.4751,0.3296,0.2007,0.3022,0.8252,0.625,1.1042,1.0281,0.6395,1.1849,0.1006,0.3459,0.8429,0.379,0.1938,0.0565
-0.366,0.0881,-0.2192,0.4635,0.8995,0.388,1.0689,0.8744,0.9803,0.9873,0.767,0.7551,1.0009,0.8512,-0.751,-0.0163,-0.1126,-0.074,0.5264,0.2556,0.7186,0.706,0.4349,0.9664,0.0744,0.4407,0.7731,0.4328,0.2576,0.1948
-0.5104,-0.2028,-0.3176,0.1642,0.6074,0.1373,0.7941,0.7254,0.8206,0.7447,0.6893,0.7652,0.6685,0.4299,-0.9978,-0.3621,-0.4407,-0.4327,0.195,-0.1153,0.324,0.3637,0.2188,0.7188,0.049,0.5026,0.6575,0.4515,0.3095,0.3315
-0.6134,-0.4798,-0.3989,-0.1112,0.3273,-0.0763,0.511,0.5599,0.6268,0.4784,0.5715,0.7348,0.3443,0.0293,-1.1804,-0.6788,-0.7511,-0.7218,-0.138,-0.4604,-0.0503,0.0364,0.0139,0.4729,0.0317,0.5362,0.5203,0.4455,0.3406,0.4522
-0.671,-0.7203,-0.4665,-0.3432,0.0729,-0.2401,0.2377,0.3899,0.4135,0.2078,0.4237,0.6721,0.0559,-0.3191,-1.2702,-0.935,-1.0117,-0.9061,-0.4366,-0.7482,-0.3728,-0.2413,-0.1568,0.257,0.0282,0.5476,0.3851,0.4249,0.3466,0.5371
-0.6857,-0.9029,-0.5224,-0.5182,-0.1453,-0.3509,-0.0116,0.2263,0.1953,-0.0507,0.2569,0.5866,-0.1759,-0.5906,-1.2504,-1.1016,-1.1951,-0.9704,-0.6662,-0.9489,-0.6149,-0.4414,-0.2746,0.092,0.0418,0.5427,0.27,0.3971,0.3289,0.5656
-0.664,-1.0107,-0.5659,-0.6301,-0.3211,-0.4138,-0.2279,0.0773,-0.0153,-0.2864,0.0809,0.4871,-0.3405,-0.7706,-1.1203,-1.1576,-1.2812,-0.9199,-0.8002,-1.0398,-0.7564,-0.5469,-0.329,-0.0128,0.0722,0.5253,0.1834,0.3654,0.2943,0.5228
-0.6127,-1.0323,-0.5937,-0.6799,-0.4528,-0.4387,-0.4072,-0.0528,-0.209,-0.4929,-0.0961,0.38,-0.438,-0.856,-0.896,-1.0935,-1.259,-0.7765,-0.8244,-1.0102,-0.789,-0.5544,-0.3193,-0.06,0.116,0.4966,0.1236,0.3291,0.2537,0.4057
-0.5358,-0.9634,-0.6003,-0.673,-0.5415,-0.4364,-0.5496,-0.1632,-0.3799,-0.6674,-0.2679,0.2697,-0.4767,-0.8548,-0.6084,-0.9142,-1.128,-0.5728,-0.7394,-0.8641,-0.7181,-0.4743,-0.2541,-0.0628,0.167,0.4555,0.0804,0.2847,0.2202,0.2275
-0.4341,-0.8078,-0.5785,-0.6166,-0.5894,-0.4143,-0.6567,-0.256,-0.5253,-0.8081,-0.4294,0.1589,-0.4709,-0.7835,-0.2975,-0.6383,-0.8988,-0.3449,-0.5603,-0.6206,-0.5616,-0.3274,-0.1488,-0.0405,0.2174,0.3993,0.0386,0.227,0.2057,0.016
-0.3062,-0.5775,-0.5215,-0.5178,-0.5983,-0.376,-0.7293,-0.3342,-0.6444,-0.9127,-0.5754,0.0497,-0.4361,-0.6631,-0.0035,-0.2961,-0.5926,-0.1252,-0.3135,-0.3109,-0.3465,-0.1417,-0.0226,-0.0136,0.2588,0.3254,-0.0171,0.152,0.2182,-0.1919
-0.1519,-0.2916,-0.4243,-0.3818,-0.5682,-0.3215,-0.7669,-0.4006,-0.7372,-0.9778,-0.7006,-0.0559,-0.3865,-0.5153,0.2413,0.0759,-0.2388,0.0627,-0.0322,0.027,-0.1045,0.0535,0.1057,0.0014,0.2839,0.2323,-0.0976,0.0581,0.2594,-0.3602
0.0246,0.0263,-0.2855,-0.2124,-0.4979,-0.2502,-0.7668,-0.4565,-0.804,-0.9994,-0.799,-0.1548,-0.3322,-0.3585,0.4195,0.4403,0.1287,0.2074,0.2498,0.3546,0.1345,0.2325,0.2206,-0.005,0.288,0.121,-0.2063,-0.0529,0.3239,-0.4634
0.2129,0.3509,-0.1085,-0.0132,-0.3861,-0.1625,-0.7259,-0.5012,-0.8445,-0.9743,-0.8649,-0.243,-0.2784,-0.2059,0.5309,0.7641,0.4764,0.3089,0.5035,0.64,0.3461,0.3766,0.3127,-0.033,0.2699,-0.0047,-0.338,-0.1754,0.3999,-0.4931
0.3976,0.6576,0.0977,0.2096,-0.2338,-0.0614,-0.6425,-0.5323,-0.8584,-0.9018,-0.893,-0.3163,-0.2254,-0.0643,0.5891,1.0233,0.7756,0.3765,0.7079,0.8611,0.5152,0.4761,0.3784,-0.0754,0.2324,-0.1387,-0.4802,-0.3016,0.4724,-0.4578
0.5613,0.924,0.3186,0.4455,-0.0471,0.0478,-0.5188,-0.5468,-0.8455,-0.7852,-0.8808,-0.3712,-0.1708,0.0646,0.6152,1.2038,1.0061,0.4241,0.8519,1.0086,0.6362,0.5298,0.4193,-0.1199,0.1815,-0.2735,-0.6162,-0.4225,0.526,-0.3791
0.6892,1.1323,0.5354,0.6789,0.1615,0.1588,-0.3617,-0.5421,-0.8061,-0.6326,-0.8284,-0.4063,-0.1108,0.1824,0.63,1.3021,1.1579,0.4655,0.9339,1.0843,0.7118,0.5436,0.4401,-0.1533,0.125,-0.4019,-0.7294,-0.5295,0.549,-0.2833
0.7726,1.2711,0.7274,0.891,0.3737,0.2667,-0.1833,-0.5166,-0.7418,-0.4557,-0.7397,-0.4224,-0.0425,0.2919,0.6477,1.3239,1.2319,0.5102,0.9604,1.0997,0.7509,0.5281,0.4471,-0.1643,0.0712,-0.5178,-0.8063,-0.6158,0.5348,-0.1933
0.8113,1.3372,0.8758,1.0635,0.568,0.3685,0.0012,-0.4707,-0.6548,-0.2681,-0.6218,-0.4228,0.0352,0.3955,0.6726,1.2826,1.2385,0.5612,0.9437,1.0715,0.7649,0.4972,0.4483,-0.1458,0.0274,-0.6157,-0.8378,-0.6763,0.4834,-0.1226
0.8128,1.3363,0.9681,1.1827,0.7241,0.4634,0.1759,-0.4068,-0.5479,-0.0828,-0.4836,-0.4115,0.1205,0.4934,0.7,1.1964,1.1956,0.6156,0.8998,1.0178,0.7646,0.465,0.4515,-0.0959,-0.001,-0.6901,-0.82,-0.7071,0.4,-0.074
0.7885,1.2815,1.0001,1.2421,0.8267,0.5506,0.3266,-0.3284,-0.4243,0.0894,-0.3353,-0.3931,0.2085,0.5832,0.7195,1.0846,1.1241,0.6659,0.8453,0.9537,0.7576,0.4438,0.4638,-0.0173,-0.0108,-0.7349,-0.7526,-0.7061,0.294,-0.0419
0.75,1.1896,0.9765,1.2427,0.8676,0.6271,0.4426,-0.2404,-0.2881,0.2405,-0.1869,-0.3708,0.2915,0.6589,0.7208,0.9641,1.0433,0.704,0.7941,0.8884,0.7457,0.4417,0.4899,0.0834,-0.0007,-0.7425,-0.6386,-0.6717,0.1766,-0.0174
0.7044,1.0755,0.9085,1.1903,0.8461,0.6857,0.5167,-0.1487,-0.1449,0.365,-0.0479,-0.3467,0.3594,0.7117,0.6978,0.8459,0.9667,0.7229,0.7541,0.8234,0.7249,0.4607,0.5305,0.1961,0.0284,-0.7059,-0.4831,-0.6037,0.0587,0.0062
0.6525,0.9488,0.8096,1.0926,0.7673,0.7141,0.5456,-0.0602,-0.0025,0.4591,0.0739,-0.3207,0.4008,0.7309,0.6508,0.733,0.8989,0.7188,0.7252,0.7525,0.6858,0.4957,0.5817,0.3089,0.0745,-0.6197,-0.2941,-0.5028,-0.0516,0.031
0.5893,0.8111,0.6913,0.9551,0.6395,0.6974,0.5286,0.0176,0.1296,0.5194,0.173,-0.2912,0.4058,0.7058,0.5862,0.621,0.8363,0.6911,0.6997,0.6645,0.6165,0.5353,0.6351,0.4091,0.1336,-0.483,-0.082,-0.3712,-0.1501,0.0536
0.5069,0.6573,0.5611,0.78,0.4718,0.6224,0.4672,0.077,0.2411,0.5437,0.2464,-0.2555,0.3677,0.6289,0.5128,0.5004,0.7698,0.641,0.6636,0.5468,0.5057,0.564,0.6793,0.4844,0.2005,-0.3012,0.1398,-0.2127,-0.2368,0.0681
0.3982,0.4805,0.4214,0.5674,0.2726,0.4827,0.365,0.1109,0.3221,0.5311,0.2943,-0.2105,0.2857,0.498,0.4394,0.361,0.689,0.5713,0.6015,0.3895,0.3464,0.5653,0.7017,0.5245,0.2683,-0.0866,0.3557,-0.0338,-0.3153,0.0686
0.2603,0.2766,0.2718,0.3184,0.0494,0.2826,0.2276,0.1146,0.3655,0.4828,0.3191,-0.1545,0.1652,0.3175,0.3723,0.1956,0.586,0.4852,0.4998,0.1892,0.1386,0.5253,0.6903,0.522,0.3287,0.1418,0.5486,0.1557,-0.3906,0.0519
0.0971,0.0485,0.1117,0.0389,-0.1902,0.0378,0.0623,0.0862,0.3682,0.4028,0.325,-0.088,0.017,0.0983,0.3151,0.003,0.4572,0.3859,0.3506,-0.0492,-0.1102,0.4347,0.6353,0.4723,0.3725,0.3606,0.701,0.3419,-0.4669,0.0185
-0.0815,-0.1932,-0.0577,-0.2587,-0.4379,-0.2269,-0.1217,0.0277,0.3313,0.2971,0.3166,-0.0152,-0.1455,-0.144,0.2685,-0.2111,0.3031,0.2756,0.1532,-0.3135,-0.3858,0.2903,0.5298,0.3742,0.3906,0.5452,0.7975,0.508,-0.5458,-0.027
-0.2603,-0.4329,-0.2313,-0.5571,-0.6841,-0.4838,-0.314,-0.0551,0.2602,0.173,0.2978,0.0566,-0.3088,-0.3926,0.2306,-0.4361,0.1273,0.1553,-0.0861,-0.5864,-0.67,0.095,0.3706,0.2292,0.3754,0.6736,0.8266,0.6363,-0.6254,-0.0765
-0.4221,-0.6543,-0.4006,-0.8378,-0.9186,-0.7093,-0.5043,-0.1534,0.1636,0.0382,0.271,0.1178,-0.4631,-0.6318,0.1957,-0.6589,-0.0647,0.0246,-0.3549,-0.8491,-0.9445,-0.1434,0.1589,0.0419,0.3219,0.7309,0.7831,0.7116,-0.7003,-0.1185
-0.5501,-0.8451,-0.555,-1.0854,-1.1315,-0.8882,-0.6826,-0.2564,0.0523,-0.1001,0.2376,0.1586,-0.6033,-0.8504,0.155,-0.8667,-0.2662,-0.1169,-0.6374,-1.0856,-1.1934,-0.4132,-0.0995,-0.1799,0.2292,0.7122,0.6694,0.7248,-0.7621,-0.1393
-0.6319,-0.9986,-0.6833,-1.2904,-1.3151,-1.0157,-0.8407,-0.3533,-0.0625,-0.2364,0.1983,0.1712,-0.7294,-1.0421,0.0974,-1.0498,-0.4694,-0.2684,-0.9166,-1.2846,-1.4062,-0.7005,-0.3945,-0.4261,0.101,0.6236,0.4965,0.6756,-0.8016,-0.1257
-0.662,-1.1142,-0.777,-1.4498,-1.464,-1.0952,-0.9726,-0.4348,-0.1701,-0.3659,0.1537,0.1522,-0.8452,-1.2059,0.0132,-1.2017,-0.6651,-0.4265,-1.1766,-1.4409,-1.578,-0.9906,-0.7119,-0.6839,-0.0543,0.4814,0.2827,0.5736,-0.8097,-0.0699
-0.6441,-1.1944,-0.8311,-1.5649,-1.5754,-1.135,-1.0745,-0.495,-0.2621,-0.4848,0.1053,0.1036,-0.9557,-1.3441,-0.1011,-1.3192,-0.8433,-0.5847,-1.4043,-1.5543,-1.7084,-1.2692,-1.0342,-0.9392,-0.2244,0.3091,0.0513,0.4368,-0.7796,0.0264
-0.5902,-1.2422,-0.845,-1.6389,-1.6476,-1.1446,-1.1447,-0.5318,-0.3328,-0.5894,0.0554,0.0333,-1.0646,-1.4595,-0.2385,-1.4008,-0.9946,-0.734,-1.5901,-1.6273,-1.7994,-1.5231,-1.3419,-1.1774,-0.3949,0.1333,-0.1725,0.2885,-0.7083,0.15
-0.5181,-1.2583,-0.8218,-1.6737,-1.6785,-1.1324,-1.1825,-0.5469,-0.3802,-0.675,0.0074,-0.0467,-1.1717,-1.5535,-0.3816,-1.4455,-1.1115,-0.864,-1.7286,-1.6632,-1.8529,-1.741,-1.6158,-1.3852,-0.5509,-0.0214,-0.3656,0.1524,-0.5973,0.2775
-0.4461,-1.2412,-0.7673,-1.6694,-1.6652,-1.1044,-1.1879,-0.5445,-0.4056,-0.7369,-0.0352,-0.1225,-1.2726,-1.624,-0.5059,-1.4519,-1.1899,-0.9649,-1.819,-1.6638,-1.8698,-1.9137,-1.8387,-1.5514,-0.6795,-0.136,-0.5101,0.0482,-0.4532,0.3822
-0.3877,-1.1875,-0.6884,-1.6242,-1.6052,-1.0642,-1.1617,-0.5301,-0.4132,-0.7704,-0.0692,-0.1818,-1.3593,-1.6665,-0.5872,-1.4186,-1.2294,-1.0294,-1.8636,-1.6301,-1.8497,-2.0351,-1.9982,-1.6688,-0.7715,-0.2004,-0.596,-0.0119,-0.2868,0.4423
-0.3474,-1.0948,-0.5919,-1.5364,-1.4977,-1.0132,-1.1058,-0.509,-0.409,-0.7725,-0.0927,-0.216,-1.4223,-1.6752,-0.6095,-1.3445,-1.2317,-1.0541,-1.8671,-1.5621,-1.7924,-2.1013,-2.0871,-1.7349,-0.8229,-0.2139,-0.6224,-0.0251,-0.112,0.4492
-0.3194,-0.964,-0.4833,-1.407,-1.3462,-0.9523,-1.0236,-0.4856,-0.3988,-0.7425,-0.1045,-0.2224,-1.4534,-1.6456,-0.5697,-1.2305,-1.1993,-1.0405,-1.8344,-1.4614,-1.6996,-2.1115,-2.1045,-1.7517,-0.8343,-0.1845,-0.5971,0.0027,0.0558,0.411
-0.2902,-0.802,-0.3662,-1.2413,-1.1592,-0.8824,-0.9199,-0.4625,-0.387,-0.6823,-0.1044,-0.2035,-1.4486,-1.5769,-0.4783,-1.0807,-1.1342,-0.9941,-1.7704,-1.3323,-1.5765,-2.0678,-2.055,-1.725,-0.8112,-0.1259,-0.534,0.0595,0.2017,0.3507
-0.2446,-0.6217,-0.243,-1.0511,-0.9517,-0.8054,-0.8013,-0.4406,-0.3749,-0.5962,-0.0925,-0.1655,-1.4086,-1.4736,-0.3557,-0.9033,-1.0384,-0.9236,-1.6801,-1.1835,-1.4329,-1.9758,-1.9486,-1.6634,-0.7621,-0.054,-0.45,0.1304,0.3132,0.2987
-0.1719,-0.4409,-0.1172,-0.8537,-0.7431,-0.7237,-0.6753,-0.4188,-0.3605,-0.4896,-0.0687,-0.1164,-1.3394,-1.3456,-0.227,-0.7117,-0.9151,-0.8395,-1.5691,-1.0282,-1.2825,-1.8454,-1.7995,-1.5765,-0.6968,0.0165,-0.3614,0.2017,0.3823,0.2831
-0.0707,-0.278,0.0052,-0.6697,-0.5554,-0.6402,-0.5498,-0.3946,-0.3393,-0.3686,-0.0323,-0.0629,-1.2512,-1.2067,-0.1158,-0.5229,-0.7697,-0.7526,-1.4441,-0.8831,-1.1418,-1.6894,-1.6253,-1.474,-0.6252,0.0758,-0.2803,0.2635,0.4068,0.3212
0.0487,-0.1474,0.1144,-0.5183,-0.409,-0.5573,-0.4328,-0.3648,-0.3054,-0.2392,0.0175,-0.0092,-1.1554,-1.0725,-0.0395,-0.3558,-0.6104,-0.6723,-1.313,-0.7657,-1.0267,-1.5231,-1.445,-1.3638,-0.5549,0.121,-0.212,0.3118,0.3903,0.4145
0.1673,-0.0569,0.1983,-0.4132,-0.3188,-0.478,-0.331,-0.3267,-0.2538,-0.1068,0.0816,0.044,-1.0626,-0.9571,-0.0072,-0.2275,-0.4479,-0.6053,-1.1843,-0.6911,-0.9498,-1.3617,-1.2768,-1.2515,-0.4899,0.1563,-0.1548,0.3492,0.3415,0.5488
0.2617,-0.0069,0.2451,-0.3599,-0.2916,-0.4056,-0.2495,-0.2796,-0.1825,0.0236,0.1602,0.0991,-0.98,-0.8704,-0.0183,-0.1506,-0.2948,-0.555,-1.0662,-0.6687,-0.9178,-1.2185,-1.136,-1.1397,-0.4304,0.1927,-0.0998,0.3842,0.2719,0.6993
0.3114,0.0069,0.2464,-0.3566,-0.325,-0.3452,-0.1915,-0.2254,-0.0932,0.1477,0.2522,0.1606,-0.9101,-0.8168,-0.0644,-0.1307,-0.164,-0.5223,-0.9665,-0.7008,-0.9303,-1.1028,-1.0331,-1.0281,-0.3728,0.2449,-0.0339,0.4284,0.1934,0.8373
0.3032,-0.0101,0.2003,-0.3972,-0.4097,-0.3046,-0.1584,-0.1694,0.0081,0.2612,0.355,0.2332,-0.8507,-0.7953,-0.1321,-0.1662,-0.0676,-0.5065,-0.8911,-0.7825,-0.9808,-1.019,-0.9727,-0.9143,-0.3108,0.3281,0.0573,0.4943,0.1166,0.9387
0.2346,-0.0551,0.1125,-0.4741,-0.5319,-0.294,-0.1493,-0.1192,0.1121,0.3598,0.4643,0.321,-0.7964,-0.8002,-0.2075,-0.2498,-0.0154,-0.5071,-0.8444,-0.9028,-1.0584,-0.967,-0.9531,-0.7953,-0.2376,0.4543,0.1856,0.5919,0.0501,0.9898
0.1137,-0.1282,-0.0054,-0.5809,-0.6761,-0.3246,-0.1619,-0.0832,0.2082,0.4401,0.5748,0.4258,-0.7406,-0.8232,-0.2794,-0.3702,-0.0133,-0.5248,-0.8284,-1.0471,-1.1505,-0.9428,-0.9677,-0.6686,-0.1474,0.6294,0.3577,0.7269,-0.0003,0.9901
-0.0437,-0.2314,-0.139,-0.7122,-0.8281,-0.4046,-0.1918,-0.069,0.2864,0.4995,0.6809,0.5476,-0.6778,-0.8553,-0.342,-0.5143,-0.0625,-0.5612,-0.8433,-1.2002,-1.245,-0.9406,-1.0069,-0.5334,-0.0379,0.8516,0.5732,0.8994,-0.032,0.9508
-0.218,-0.3654,-0.2757,-0.8624,-0.9759,-0.5353,-0.2333,-0.0807,0.3399,0.5375,0.7778,0.6844,-0.6049,-0.8879,-0.3945,-0.6696,-0.1592,-0.6171,-0.8867,-1.3481,-1.3322,-0.9539,-1.0605,-0.3909,0.0896,1.1117,0.8247,1.1046,-0.0451,0.8908
-0.3904,-0.5265,-0.4071,-1.0242,-1.1111,-0.7081,-0.2791,-0.1182,0.3669,0.5568,0.8626,0.8325,-0.5222,-0.9147,-0.4392,-0.8248,-0.2954,-0.6913,-0.9546,-1.48,-1.4056,-0.9775,-1.1201,-0.2446,0.2292,1.3938,1.0992,1.3332,-0.0427,0.8301
-0.5465,-0.7056,-0.53,-1.1879,-1.2282,-0.9045,-0.3207,-0.176,0.3711,0.5631,0.9352,0.988,-0.4333,-0.9313,-0.4794,-0.9708,-0.4591,-0.7788,-1.0413,-1.5892,-1.4622,-1.0076,-1.1803,-0.0999,0.371,1.6784,1.38,1.5738,-0.0301,0.7855
-0.6779,-0.89,-0.6447,-1.3423,-1.3244,-1.0993,-0.3493,-0.2436,0.3616,0.5657,0.9986,1.1468,-0.3432,-0.9364,-0.5177,-1.101,-0.6364,-0.8718,-1.14,-1.6735,-1.502,-1.0424,-1.239,0.0369,0.5023,1.9452,1.6505,1.8141,-0.0138,0.7667
-0.7827,-1.0667,-0.7525,-1.4773,-1.3984,-1.2661,-0.3564,-0.3074,0.3516,0.5764,1.0587,1.3054,-0.2574,-0.9306,-0.5554,-1.2122,-0.8132,-0.9612,-1.2445,-1.7355,-1.5281,-1.0821,-1.2961,0.1591,0.6096,2.1764,1.8963,2.0434,-0.0003,0.7766
-0.8641,-1.2264,-0.8533,-1.5867,-1.4509,-1.3847,-0.3353,-0.3528,0.3562,0.6079,1.1235,1.4614,-0.1806,-0.9165,-0.5933,-1.3049,-0.9772,-1.0402,-1.3496,-1.782,-1.5455,-1.1282,-1.3527,0.2605,0.681,2.3598,2.1075,2.2534,0.0036,0.8131
-0.9288,-1.3675,-0.9462,-1.6712,-1.4845,-1.4459,-0.2823,-0.3663,0.39,0.6712,1.2015,1.6128,-0.1154,-0.898,-0.6334,-1.3838,-1.1209,-1.1065,-1.4527,-1.8227,-1.5607,-1.1838,-1.4106,0.3359,0.7087,2.4906,2.2798,2.4383,-0.0076,0.8713
-0.9848,-1.4966,-1.0299,-1.7391,-1.5045,-1.4542,-0.1975,-0.3385,0.4649,0.7745,1.3005,1.7583,-0.0634,-0.8796,-0.6789,-1.4574,-1.243,-1.1643,-1.5547,-1.8688,-1.5811,-1.2526,-1.4723,0.381,0.6902,2.5711,2.4138,2.5952,-0.038,0.9462
-1.0404,-1.6267,-1.1052,-1.8048,-1.5194,-1.4259,-0.0856,-0.2655,0.5887,0.9212,1.4265,1.8969,-0.0256,-0.8661,-0.7344,-1.5366,-1.349,-1.2235,-1.6602,-1.9314,-1.614,-1.3395,-1.5418,0.3924,0.6293,2.6095,2.5125,2.723,-0.0893,1.0334
-1.103,-1.773,-1.1773,-1.8845,-1.5407,-1.3844,0.045,-0.1495,0.7647,1.1094,1.5827,2.0276,-0.0037,-0.8626,-0.8039,-1.6335,-1.4502,-1.2971,-1.7771,-2.019,-1.666,-1.4494,-1.6253,0.3674,0.5344,2.6172,2.5794,2.822,-0.1601,1.1283
-1.1794,-1.9476,-1.2552,-1.9917,-1.5811,-1.3539,0.1832,0.0014,0.9919,1.3326,1.77,2.1493,-0.001,-0.8747,-0.889,-1.7586,-1.5617,-1.3972,-1.9146,-2.1372,-1.7424,-1.5871,-1.7306,0.3039,0.4168,2.6052,2.6154,2.8933,-0.2458,1.2252
-1.275,-2.1556,-1.35,-2.1328,-1.6516,-1.3541,0.3167,0.1753,1.2654,1.5807,1.9868,2.2609,-0.0222,-0.9078,-0.9875,-1.9195,-1.698,-1.5307,-2.0808,-2.2871,-1.8467,-1.7556,-1.8663,0.2007,0.2881,2.5813,2.6181,2.9378,-0.3386,1.316
-1.3934,-2.3935,-1.4711,-2.306,-1.7583,-1.3973,0.4348,0.3582,1.5776,1.8418,2.2291,2.3618,-0.0717,-0.9663,-1.0946,-2.1181,-1.8678,-1.6965,-2.2796,-2.4651,-1.9794,-1.9548,-2.0376,0.0587,0.1584,2.5489,2.5819,2.9563,-0.4285,1.392
-1.5341,-2.6485,-1.6228,-2.5005,-1.9001,-1.4861,0.5301,0.5369,1.9175,2.1034,2.4904,2.4516,-0.1515,-1.0515,-1.2048,-2.3499,-2.0694,-1.8854,-2.5076,-2.6629,-2.1372,-2.1797,-2.2438,-0.1179,0.0348,2.5066,2.4998,2.9486,-0.5043,1.4463
-1.6918,-2.9004,-1.8009,-2.6998,-2.0674,-1.6147,0.5998,0.7005,2.2707,2.3534,2.7609,2.5303,-0.2586,-1.1597,-1.3147,-2.6026,-2.2885,-2.0816,-2.7521,-2.8673,-2.3117,-2.4187,-2.4752,-0.32,-0.078,2.4491,2.3671,2.9132,-0.5557,1.4769
-1.8553,-3.1247,-1.9928,-2.8836,-2.2427,-1.7694,0.6452,0.8414,2.6178,2.58,3.0274,2.5977,-0.3836,-1.2815,-1.4235,-2.8569,-2.4989,-2.2661,-2.9916,-3.0616,-2.489,-2.6541,-2.7129,-0.5333,-0.1778,2.3698,2.1838,2.847,-0.5755,1.4882
-2.0083,-3.2957,-2.1778,-3.0309,-2.4036,-1.9306,0.6707,0.954,2.9334,2.77,3.2722,2.6528,-0.5109,-1.4012,-1.53,-3.0875,-2.6667,-2.4186,-3.1982,-3.226,-2.6501,-2.863,-2.9307,-0.7385,-0.2633,2.2623,1.9568,2.7455,-0.5612,1.4892
-2.1308,-3.389,-2.3306,-3.1211,-2.5258,-2.0742,0.6809,1.0329,3.1852,2.9079,3.4734,2.6931,-0.62,-1.4984,-1.6286,-3.2659,-2.7572,-2.519,-3.341,-3.3395,-2.7721,-3.0191,-3.0981,-0.9133,-0.333,2.1224,1.7001,2.603,-0.517,1.4908
-2.2014,-3.385,-2.4251,-3.1358,-2.5879,-2.1754,0.6779,1.0705,3.3347,2.9746,3.6056,2.7147,-0.6881,-1.5502,-1.705,-3.3633,-2.741,-2.5476,-3.3913,-3.3821,-2.8307,-3.0955,-3.1851,-1.0346,-0.3844,1.9494,1.4327,2.4153,-0.4539,1.5019
-2.1997,-3.2715,-2.4386,-3.0607,-2.5742,-2.2121,0.6595,1.055,3.3397,2.9476,3.6414,2.7131,-0.6932,-1.5343,-1.7344,-3.3541,-2.5994,-2.4852,-3.3265,-3.3362,-2.8028,-3.0678,-3.1656,-1.0816,-0.4137,1.7468,1.1767,2.1814,-0.389,1.5273
-2.1075,-3.0463,-2.355,-2.8883,-2.4785,-2.1697,0.6181,0.9696,3.1588,2.8034,3.5548,2.6841,-0.6163,-1.4314,-1.6844,-3.2194,-2.3266,-2.3134,-3.1326,-3.1885,-2.6697,-2.9164,-3.0207,-1.0383,-0.4149,1.5221,0.9535,1.9061,-0.3425,1.5674
-1.911,-2.718,-2.1666,-2.6196,-2.3046,-2.0446,0.5418,0.794,2.7572,2.5206,3.3248,2.6262,-0.4431,-1.227,-1.5203,-2.9484,-1.9276,-2.0165,-2.8053,-2.9311,-2.4187,-2.6292,-2.74,-0.8954,-0.3806,1.2871,0.7827,1.6016,-0.3342,1.6192
-1.6021,-2.3039,-1.8753,-2.2648,-2.065,-1.844,0.4171,0.5075,2.1131,2.0849,2.9403,2.5417,-0.1644,-0.9123,-1.212,-2.5388,-1.4146,-1.5832,-2.3485,-2.5603,-2.0438,-2.2014,-2.3222,-0.6505,-0.3024,1.0566,0.6796,1.2872,-0.3799,1.678
-1.1791,-1.8258,-1.4901,-1.8411,-1.7777,-1.5848,0.2323,0.0937,1.2233,1.4933,2.4032,2.4373,0.2231,-0.4836,-0.7401,-1.9947,-0.8019,-1.0097,-1.7709,-2.075,-1.5446,-1.636,-1.7746,-0.3082,-0.1721,0.8466,0.6548,0.9865,-0.4877,1.7381
-0.6473,-1.304,-1.0257,-1.3684,-1.4615,-1.2891,-0.0181,-0.4545,0.1072,0.7575,1.7309,2.3236,0.7172,0.0582,-0.1008,-1.3248,-0.1022,-0.3004,-1.0845,-1.4761,-0.9252,-0.9433,-1.1118,0.121,0.0153,0.6715,0.7129,0.7233,-0.6564,1.794
-0.019,-0.7526,-0.4989,-0.865,-1.1319,-0.9804,-0.3311,-1.1306,-1.1918,-0.0947,0.9563,2.2134,1.3094,0.707,0.693,-0.5415,0.674,0.5305,-0.3031,-0.7655,-0.1938,-0.1407,-0.355,0.6206,0.2595,0.5408,0.8512,0.5175,-0.8755,1.8408
0.6875,-0.178,0.0731,-0.344,-0.7979,-0.6787,-0.6929,-1.9118,-2.6087,-1.021,0.1251,2.1194,1.9849,1.4513,1.6114,0.3397,1.5179,1.4599,0.5569,0.0517,0.6375,0.7477,0.4688,1.1698,0.5526,0.4568,1.0598,0.3808,-1.127,1.8756
1.4498,0.42,0.6749,0.1882,-0.4623,-0.3974,-1.0805,-2.7596,-4.0617,-1.9675,-0.7087,2.0523,2.7226,2.273,2.611,1.2994,2.4195,2.4565,1.4758,0.9652,1.5515,1.6912,1.3287,1.7445,0.8778,0.4135,1.3219,0.3159,-1.3881,1.8989
2.2433,1.0435,1.2925,0.7296,-0.1232,-0.1416,-1.4641,-3.6237,-5.4606,-2.875,-1.489,2.0194,3.4956,3.1467,3.64,2.3127,3.3659,3.4826,2.4299,1.9566,2.5248,2.6549,2.1916,2.3187,1.2108,0.3981,1.6161,0.3171,-1.6352,1.9153
3.0422,1.6922,1.9128,1.2786,0.2219,0.0909,-1.8118,-4.4481,-6.7166,-3.6848,-2.1635,2.0241,4.2732,4.0407,4.6446,3.3496,4.3391,4.4964,3.3914,2.9978,3.5277,3.6016,3.0249,2.8667,1.5233,0.3946,1.9197,0.374,-1.8471,1.9334
3.8207,2.3588,2.522,1.8305,0.5733,0.3062,-2.0945,-5.1784,-7.7522,-4.3454,-2.6899,2.0664,5.0232,4.9187,5.5764,4.3752,5.3164,5.4556,4.3309,4.052,4.5249,4.4952,3.7989,3.3653,1.7874,0.3885,2.2125,0.4746,-2.0085,1.9625
4.5535,3.0281,3.105,2.3755,0.9271,0.5114,-2.2893,-5.7688,-8.5095,-4.8173,-3.039,2.1437,5.7154,5.7436,6.3975,5.3528,6.2711,6.3221,5.2192,5.0766,5.4788,5.305,4.4898,3.7963,1.981,0.3713,2.4803,0.6094,-2.1116,2.01
5.2162,3.6782,3.6449,2.8996,1.2756,0.7127,-2.3828,-6.1875,-8.9549,-5.0762,-3.197,2.2517,6.324,6.4818,7.0843,6.247,7.1744,7.0665,6.03,6.0284,6.3535,6.0081,5.0812,4.1483,2.0917,0.3438,2.7175,0.7725,-2.1568,2.0781
5.7867,4.284,4.124,3.3871,1.6085,0.9141,-2.3705,-6.4186,-9.0803,-5.1135,-3.1651,2.3851,6.8301,7.1064,7.6267,7.0272,7.9982,7.6712,6.7419,6.8686,7.1181,6.5909,5.5646,4.4176,2.1187,0.3163,2.9267,0.9615,-2.152,2.1627
6.2462,4.8214,4.5248,3.8225,1.9144,1.1165,-2.2573,-6.4622,-8.9013,-4.9366,-2.9572,2.5375,7.2216,7.5988,8.0247,7.6704,8.7169,8.1301,7.3386,7.5671,7.7493,7.0479,5.9374,4.607,2.0719,0.3064,3.117,1.1768,-2.1101,2.2542
6.5808,5.269,4.8309,4.1913,2.1813,1.3167,-2.0559,-6.3324,-8.4521,-4.5662,-2.5975,2.7012,7.4928,7.9485,8.2846,8.1612,9.3083,8.4457,7.8078,8.1038,8.231,7.3789,6.2002,4.7242,1.9697,0.3347,3.3004,1.4187,-2.0454,2.3405
6.7821,5.6086,5.0291,4.4792,2.3969,1.5049,-1.7845,-6.0534,-7.7799,-4.0339,-2.1167,2.8668,7.6414,8.151,8.4147,8.491,9.7535,8.6233,8.1386,8.4675,8.5534,7.585,6.3537,4.7784,1.8343,0.4199,3.4875,1.6865,-1.9708,2.4092
6.8473,5.8241,5.1107,4.6704,2.5489,1.6643,-1.4649,-5.6554,-6.9381,-3.3786,-1.5489,3.0238,7.6676,8.2057,8.4234,8.6556,10.0356,8.6668,8.3207,8.6539,8.7107,7.6655,6.3971,4.7774,1.6877,0.5743,3.6843,1.9762,-1.8949,2.4507
6.7786,5.9005,5.0725,4.7482,2.6254,1.7726,-1.1195,-5.1703,-5.9808,-2.6418,-0.9285,3.1614,7.5725,8.1152,8.3184,8.6531,10.1399,8.5761,8.3431,8.6634,8.7004,7.6175,6.3276,4.7262,1.5478,0.801,3.8905,2.2812,-1.8212,2.4597
6.5823,5.8253,4.9166,4.6979,2.6168,1.8062,-0.7688,-4.6281,-4.958,-1.8641,-0.2871,3.2699,7.3586,7.8844,8.1066,8.4831,10.0548,8.3484,8.1966,8.4995,8.5235,7.4366,6.1422,4.6272,1.4265,1.0942,4.0999,2.5922,-1.7486,2.4355
6.2672,5.5917,4.6495,4.5117,2.518,1.7458,-0.4288,-4.0537,-3.9124,-1.0805,0.3484,3.343,7.0318,7.5227,7.7946,8.1472,9.7738,7.9808,7.877,8.1688,8.1861,7.1211,5.8409,4.4811,1.3293,1.4406,4.3028,2.899,-1.6731,2.381
5.8444,5.2024,4.2804,4.1926,2.3307,1.5821,-0.1093,-3.466,-2.877,-0.3183,0.9574,3.3791,6.6036,7.0448,7.3887,7.6506,9.2993,7.4749,7.3891,7.6821,7.7014,6.6755,5.4296,4.2901,1.2565,1.8224,4.4891,3.192,-1.5891,2.3019
5.3263,4.673,3.8208,3.7571,2.065,1.3213,0.1869,-2.8772,-1.876,0.4048,1.5259,3.3831,6.0927,6.4726,6.8956,7.0046,8.6448,6.84,6.7501,7.0564,7.0912,6.1143,4.9222,4.0605,1.2051,2.2209,4.6523,3.4647,-1.4911,2.2049
4.7268,4.0314,3.2843,3.2338,1.7393,0.9856,0.4629,-2.2943,-0.925,1.0796,2.0469,3.3657,5.5261,5.8355,6.323,6.2288,7.8367,6.0963,5.9902,6.3157,6.3865,5.4633,4.3411,3.804,1.1714,2.6196,4.7916,3.714,-1.3752,2.0967
4.0628,3.3159,2.6874,2.6595,1.378,0.6109,0.7265,-1.721,-0.034,1.7042,2.5185,3.3429,4.9385,5.169,5.6799,5.3515,6.9129,5.2751,5.1508,5.4917,5.6253,4.7582,3.7151,3.5383,1.1527,3.0066,4.9131,3.9418,-1.2404,1.9839
3.3541,2.5689,2.0502,2.0725,1.0079,0.2396,0.9868,-1.1604,0.7899,2.2808,2.9429,3.3339,4.3689,4.5115,4.9776,4.4086,5.9204,4.416,4.2804,4.6215,4.8496,4.0409,3.0765,3.2856,1.1485,3.3755,5.0296,4.1544,-1.089,1.8739
2.6228,1.8292,1.3958,1.5055,0.6539,-0.0891,1.2515,-0.6171,1.5401,2.813,3.3241,3.3582,3.8568,3.8997,4.2293,3.4392,4.909,3.5607,3.4279,3.744,4.1002,3.3537,2.4567,3.0701,1.1612,3.7258,5.1582,4.3618,-0.9268,1.7745
1.8908,1.1252,0.7483,0.9794,0.3344,-0.3477,1.5241,-0.0992,2.2085,3.3033,3.6664,3.4327,3.4367,3.3638,3.4497,2.4815,3.9257,2.7457,2.6365,2.8945,3.4108,2.7339,1.8825,2.9146,1.1949,4.0617,5.3178,4.5762,-0.7622,1.6936
1.1768,0.4707,0.1293,0.5006,0.0576,-0.5259,1.8025,0.3816,2.7852,3.7514,3.9725,3.5693,3.1331,2.9234,2.6538,1.567,3.0086,1.9958,1.9374,2.1007,2.8042,2.2089,1.3742,2.8368,1.2548,4.3909,5.5257,4.8093,-0.6043,1.6377
0.4938,-0.1358,-0.4463,0.0619,-0.1787,-0.631,2.0781,0.8108,3.2591,4.1539,4.243,3.7724,2.9571,2.5851,1.8558,0.7172,2.1827,1.3204,1.3467,1.3791,2.2896,1.7929,0.9441,2.8474,1.3454,4.7226,5.7943,5.0702,-0.4621,1.6104
-0.1527,-0.7074,-0.9729,-0.3534,-0.3863,-0.6847,2.3377,1.1727,3.62,4.505,4.4766,4.0389,2.9051,2.3426,1.0688,-0.0586,1.4575,0.7146,0.8643,0.7338,1.8631,1.4863,0.5965,2.9473,1.4695,5.0651,6.1284,5.363,-0.3427,1.6109
-0.7636,-1.263,-1.4563,-0.7652,-0.583,-0.7179,2.5653,1.453,3.8614,4.7977,4.6707,4.3582,2.96,2.1787,0.3041,-0.7631,0.827,0.1626,0.4751,0.1582,1.5099,1.276,0.3269,3.1278,1.6272,5.4239,6.5236,5.6859,-0.2506,1.6351
-1.3441,-1.8213,-1.9115,-1.191,-0.7884,-0.7644,2.7452,1.6412,3.9826,5.0255,4.8225,4.7137,3.0941,2.0691,-0.4293,-1.4091,0.2715,-0.3567,0.1512,-0.3631,1.2085,1.1376,0.1216,3.3709,1.8148,5.7997,6.9658,6.0314,-0.1871,1.6762
-1.9001,-2.3958,-2.3587,-1.642,-1.0192,-0.855,2.8648,1.7326,3.9909,5.1847,4.9309,5.0852,3.2736,1.9868,-1.1247,-2.016,-0.2388,-0.8643,-0.1425,-0.8499,0.9353,1.0393,-0.0411,3.6514,2.0252,6.1871,7.4326,6.3875,-0.1502,1.7278
-2.4355,-2.9916,-2.8169,-2.1202,-1.2861,-1.0127,2.9171,1.7301,3.901,5.275,4.9967,5.451,3.4644,1.9072,-1.7782,-2.6056,-0.7382,-1.3759,-0.443,-1.3226,0.669,0.9474,-0.1875,3.9402,2.2479,6.5751,7.8964,6.7398,-0.1348,1.7854
-2.9499,-3.6055,-3.2978,-2.6195,-1.5918,-1.2475,2.9018,1.6444,3.7349,5.3005,5.0237,5.7907,3.6366,1.8119,-2.387,-3.1965,-1.2581,-1.8982,-0.7809,-1.7972,0.3946,0.8321,-0.3438,4.209,2.4702,6.9478,8.3276,7.0729,-0.1341,1.8469
-3.4391,-4.2273,-3.801,-3.1277,-1.9313,-1.555,2.826,1.4939,3.5187,5.2692,5.0185,6.0868,3.769,1.6919,-2.9481,-3.7997,-1.8196,-2.4272,-1.1741,-2.2819,0.1063,0.6746,-0.5285,4.434,2.6785,7.2873,8.6993,7.3722,-0.1407,1.9106
-3.896,-4.8423,-4.3134,-3.6308,-2.2934,-1.9171,2.7027,1.3021,3.2805,5.1927,4.9895,6.3268,3.8515,1.549,-3.4562,-4.4147,-2.4273,-2.9494,-1.6215,-2.7739,-0.1914,0.4707,-0.7481,4.5996,2.8601,7.5762,8.9907,7.6244,-0.1483,1.9727
-4.3124,-5.4333,-4.8121,-4.1148,-2.6629,-2.3068,2.5491,1.0949,3.047,5.0851,4.9466,6.5034,3.8857,1.395,-3.9035,-5.0281,-3.0659,-3.4442,-2.1025,-3.2586,-0.4837,0.2322,-0.9942,4.7005,3.0056,7.801,9.1898,7.8187,-0.1526,2.0264
-4.6794,-5.9805,-5.2697,-4.5665,-3.0216,-2.6944,2.3846,0.8969,2.841,4.9621,4.8998,6.6153,3.8837,1.2491,-4.281,-5.6147,-3.7013,-3.8878,-2.5794,-3.7108,-0.7482,-0.0156,-1.2452,4.7421,3.1099,7.9545,9.294,7.9483,-0.1526,2.0622
-4.9881,-6.4613,-5.661,-4.9717,-3.3505,-3.0529,2.2278,0.7281,2.6797,4.8395,4.8577,6.6666,3.865,1.1345,-4.5805,-6.1407,-4.2854,-4.2579,-3.0047,-4.0978,-0.9581,-0.2397,-1.472,4.738,3.1734,8.0368,9.3109,8.0112,-0.1507,2.0706
-5.2301,-6.8517,-5.9683,-5.3142,-3.6305,-3.3618,2.0954,0.6021,2.5743,4.732,4.8272,6.666,3.8523,1.0736,-4.7987,-6.5696,-4.765,-4.538,-3.3302,-4.3853,-1.0868,-0.4062,-1.644,4.7077,3.202,8.0555,9.2559,8.011,-0.1518,2.045
-5.3988,-7.1302,-6.1847,-5.5768,-3.8447,-3.6088,1.9996,0.5248,2.5295,4.6519,4.8119,6.625,3.8674,1.0844,-4.9389,-6.8692,-5.0917,-4.7218,-3.5169,-4.543,-1.1129,-0.4871,-1.7369,4.6728,3.2063,8.0256,9.1514,7.9569,-0.1621,1.984
-5.4911,-7.283,-6.3145,-5.7453,-3.9816,-3.7899,1.9473,0.4951,2.544,4.6076,4.8123,6.5565,3.9264,1.1764,-5.0123,-7.019,-5.2323,-4.8148,-3.5431,-4.5518,-1.0247,-0.4667,-1.7385,4.6534,3.2003,7.967,9.0236,7.8631,-0.1854,1.8921
-5.5097,-7.3102,-6.3717,-5.8134,-4.0377,-3.9088,1.9393,0.5061,2.6123,4.6033,4.8253,6.4736,4.0374,1.3487,-5.0368,-7.015,-5.1768,-4.8338,-3.41,-4.4083,-0.8232,-0.3446,-1.6523,4.6653,3.1991,7.9028,8.8998,7.7472,-0.2215,1.7782
-5.4648,-7.2286,-6.3766,-5.7869,-4.019,-3.9752,1.9704,0.5471,2.725,4.6381,4.8463,6.3879,4.1987,1.5894,-5.0332,-6.8723,-4.9423,-4.8031,-3.1423,-4.1273,-0.5232,-0.1367,-1.4974,4.7181,3.2157,7.8552,8.8051,7.6291,-0.2648,1.6529
-5.3744,-7.0699,-6.3526,-5.6852,-3.9413,-4.0036,2.031,0.6055,2.8713,4.7073,4.87,6.3096,4.3999,1.8778,-5.021,-6.6224,-4.5717,-4.7485,-2.7844,-3.7395,-0.1507,0.1285,-1.3044,4.8143,3.2591,7.8428,8.759,7.5291,-0.3051,1.5238
-5.2634,-6.8754,-6.3229,-5.538,-3.8264,-4.0103,2.1093,0.6699,3.04,4.8037,4.8929,6.2472,4.6242,2.1885,-5.0135,-6.3069,-4.1255,-4.6914,-2.3911,-3.2858,0.2613,0.4159,-1.1085,4.95,3.3319,7.8763,8.7724,7.4651,-0.331,1.3925
-5.16,-6.6858,-6.3072,-5.3794,-3.6975,-4.0121,2.1944,0.7316,3.2208,4.919,4.915,6.2076,4.8528,2.4963,-5.0159,-5.9681,-3.6706,-4.6448,-2.0169,-2.8092,0.6793,0.6911,-0.9407,5.116,3.4294,7.9564,8.8462,7.4504,-0.3326,1.2534
-5.0903,-6.5326,-6.3196,-5.239,-3.5732,-4.0236,2.2792,0.7863,3.4058,5.0459,4.94,6.1957,5.0693,2.7821,-5.0261,-5.64,-3.2663,-4.6121,-1.7044,-2.346,1.0754,0.9277,-0.8212,5.3003,3.5413,8.0735,8.9707,7.49,-0.3051,1.0966
-5.0725,-6.431,-6.3661,-5.1353,-3.4628,-4.0547,2.3618,0.8342,3.5893,5.1791,4.9748,6.2142,5.2633,3.0366,-5.0382,-5.3426,-2.9532,-4.5885,-1.4768,-1.9196,1.4327,1.1125,-0.7558,5.4899,3.6533,8.209,9.1279,7.5792,-0.2503,0.9136
-5.1117,-6.377,-6.444,-5.0713,-3.3652,-4.109,2.4461,0.8789,3.7672,5.3153,5.0266,6.263,5.4324,3.262,-5.0466,-5.0787,-2.7464,-4.5651,-1.3343,-1.5375,1.7467,1.2465,-0.7361,5.6733,3.7513,8.3388,9.2941,7.7027,-0.1763,0.7024
-5.1982,-6.3505,-6.5423,-5.0354,-3.2696,-4.1817,2.5393,0.9254,3.9365,5.4528,5.1009,6.3387,5.583,3.4702,-5.0494,-4.8369,-2.6345,-4.5319,-1.2561,-1.1922,2.0256,1.3436,-0.7429,5.8423,3.8242,8.4383,9.445,7.8372,-0.0957,0.4716
-5.3104,-6.3212,-6.6436,-5.0054,-3.1602,-4.2603,2.6501,0.9778,4.0937,5.5902,5.1982,6.4345,5.7281,3.6801,-5.0486,-4.5961,-2.5847,-4.4812,-1.2074,-0.8652,2.2868,1.4264,-0.7521,5.9936,3.8667,8.487,9.5593,7.9547,-0.0218,0.2378
-5.4207,-6.2555,-6.7273,-4.9543,-3.0196,-4.3263,2.7854,1.0375,4.234,5.7256,5.3133,6.5409,5.8847,3.9128,-5.0473,-4.3319,-2.5518,-4.4086,-1.1469,-0.5324,2.5532,1.5215,-0.7387,6.1294,3.8804,8.4722,9.623,8.0286,0.0343,0.0199
-5.5025,-6.124,-6.7729,-4.8566,-2.8329,-4.3586,2.9498,1.1026,4.3517,5.8567,5.436,6.6466,6.0717,4.1882,-5.0469,-4.022,-2.4879,-4.313,-1.0355,-0.1692,2.8485,1.6546,-0.6817,6.2573,3.8732,8.392,9.6316,8.0387,0.067,-0.1686
-5.5359,-5.9066,-6.7633,-4.6921,-2.5893,-4.3368,3.1449,1.1688,4.4415,5.9816,5.5529,6.7406,6.3066,4.5221,-5.0437,-3.6501,-2.3509,-4.1955,-0.8416,0.245,3.194,1.8475,-0.5654,6.3895,3.8578,8.2547,9.5909,7.9756,0.0767,-0.3245
-5.5107,-5.5942,-6.6862,-4.4486,-2.2821,-4.2453,3.3709,1.2309,4.5003,6.0998,5.6513,6.8138,6.6041,4.925,-5.0291,-3.2067,-2.1102,-4.0577,-0.5448,0.7254,3.6065,2.1165,-0.3802,6.541,3.8487,8.0771,9.5157,7.8434,0.069,-0.4567
-5.426,-5.1888,-6.5357,-4.1213,-1.908,-4.0753,3.6274,1.2851,4.5285,6.2137,5.7222,6.8611,6.9744,5.4016,-4.991,-2.6885,-1.7495,-3.8995,-0.1363,1.2803,4.0964,2.4711,-0.1218,6.7272,3.8598,7.8811,9.4279,7.6582,0.052,-0.5823
-5.2873,-4.7008,-6.3118,-3.7116,-1.4661,-3.8254,3.915,1.331,4.5312,6.3284,5.7627,6.8822,7.4218,5.9512,-4.9171,-2.0971,-1.2663,-3.7181,0.3818,1.9114,4.667,2.9147,0.21,6.9613,3.901,7.6895,9.3524,7.4456,0.0344,-0.7206
-5.1035,-4.1465,-6.0195,-3.2258,-0.9579,-3.4995,4.2347,1.3725,4.5177,6.4519,5.7769,6.8821,7.944,6.5673,-4.7981,-1.438,-0.6711,-3.5074,0.9969,2.6139,5.3144,3.4435,0.6115,7.2519,3.9775,7.5224,9.3138,7.2356,0.0228,-0.886
-4.8841,-3.5449,-5.6674,-2.6738,-0.3881,-3.1041,4.5874,1.4176,4.5003,6.5932,5.7749,6.8701,8.5313,7.2382,-4.6299,-0.7203,0.0145,-3.2599,1.6877,3.3764,6.027,4.0473,1.0752,7.6014,4.0886,7.3946,9.3326,7.057,0.0212,-1.0842
-4.6385,-2.9153,-5.2664,-2.0686,0.2351,-2.6466,4.973,1.4771,4.4923,6.7612,5.7711,6.8587,9.1678,7.9473,-4.4138,0.0435,0.7607,-2.9698,2.4261,4.182,6.7868,4.7091,1.5884,8.0054,4.2289,7.3141,9.4221,6.9337,0.031,-1.3112
-4.3754,-2.2736,-4.8274,-1.4239,0.8999,-2.1336,5.3895,1.5624,4.5056,6.9627,5.7812,6.8611,9.8328,8.675,-4.1567,0.8376,1.5325,-2.6369,3.1808,5.0099,7.5713,5.4068,2.1333,8.4535,4.3895,7.2828,9.587,6.8818,0.0507,-1.5549
-4.1039,-1.6308,-4.3607,-0.7519,1.5923,-1.5722,5.8321,1.6822,4.5494,7.2011,5.8195,6.8905,10.5029,9.4002,-3.8698,1.6443,2.2942,-2.2682,3.9213,5.8383,8.3568,6.1163,2.6887,8.9312,4.5605,7.2973,9.823,6.9087,0.0775,-1.7989
-3.8332,-0.992,-3.8752,-0.0628,2.2981,-0.9717,6.2937,1.8413,4.6286,7.4754,5.8963,6.9571,11.1556,10.1035,-3.5674,2.4455,3.014,-1.8781,4.6219,6.6469,9.1213,6.8143,3.2325,9.4218,4.7323,7.3509,10.1174,7.0142,0.1073,-2.0265
-3.5727,-0.3583,-3.3783,0.6355,3.0036,-0.3451,6.7647,2.0384,4.7435,7.7802,6.0163,7.0677,11.7708,10.7687,-3.2657,3.2247,3.6671,-1.4847,5.2644,7.4201,9.8471,7.481,3.7459,9.9092,4.8966,7.4352,10.4516,7.1908,0.1359,-2.2241
-3.3306,0.2705,-2.8765,1.335,3.6968,0.2904,7.2343,2.2668,4.8899,8.1059,6.1778,7.2238,12.3336,11.3843,-2.9799,3.9682,4.238,-1.1052,5.8386,8.1472,10.5223,8.1021,4.2152,10.3789,5.0473,7.5411,10.8037,7.4252,0.1595,-2.3831
-3.1128,0.8931,-2.3763,2.0267,4.3678,0.9145,7.6912,2.5154,5.0606,8.4401,6.373,7.4215,12.8347,11.9439,-2.7218,4.6661,4.7208,-0.7507,6.3418,8.823,11.1409,8.6689,4.6334,10.8196,5.1804,7.6597,11.1521,7.6991,0.1744,-2.5006
-2.9213,1.5042,-1.8845,2.6988,5.0087,1.5068,8.1248,2.7708,5.2461,8.7691,6.5896,7.6514,13.2711,12.4458,-2.4968,5.3125,5.1186,-0.4236,6.7768,9.446,11.7019,9.1778,5.0007,11.2234,5.294,7.7828,11.4782,7.991,0.178,-2.5791
-2.7538,2.095,-1.4095,3.3379,5.6136,2.0498,8.5262,3.019,5.436,9.0789,6.812,7.8989,13.6445,12.8925,-2.3031,5.9046,5.4424,-0.1194,7.1514,10.017,12.2076,9.6301,5.3227,11.5855,5.3883,7.9025,11.7682,8.2785,0.1684,-2.6246
-2.6035,2.654,-0.9604,3.9298,6.178,2.5331,8.8886,3.2477,5.6203,9.357,7.0237,8.1457,13.9606,13.2887,-2.1327,6.4419,5.7087,0.1689,7.4762,10.5375,12.6622,10.0304,5.6089,11.9036,5.4649,8.0116,12.0137,8.54,0.1452,-2.6456
-2.4609,3.1707,-0.5466,4.4629,6.6983,2.9555,9.2073,3.4474,5.7895,9.5922,7.2085,8.3706,14.2262,13.6402,-1.9739,6.9255,5.938,0.4462,7.7638,11.0081,13.0702,10.3856,5.8701,12.1766,5.5268,8.1029,12.2102,8.7563,0.11,-2.6512
-2.3149,3.6377,-0.1745,4.9302,7.1717,3.3249,9.4792,3.6123,5.9351,9.7758,7.3519,8.551,14.448,13.9523,-1.8148,7.3568,6.1518,0.7121,8.028,11.4288,13.4357,10.7043,6.1168,12.4035,5.5765,8.1686,12.355,8.9115,0.0663,-2.6501
-2.155,4.0527,0.1541,5.331,7.5964,3.6566,9.7024,3.7405,6.0493,9.9007,7.4417,8.6653,14.6304,14.2284,-1.6448,7.7378,6.3707,0.9628,8.2823,11.7993,13.7623,10.9953,6.3578,12.5826,5.6159,8.2003,12.4451,8.9931,0.0193,-2.6507
-1.972,4.4176,0.444,5.6707,7.9722,3.9691,9.876,3.8327,6.1254,9.9626,7.4688,8.6948,14.7756,14.4697,-1.4558,8.0708,6.6119,1.1951,8.5389,12.1204,14.0533,11.2665,6.5991,12.7113,5.6449,8.1892,12.476,8.9922,-0.0251,-2.6606
-1.7592,4.7377,0.706,5.96,8.3023,4.2793,9.9999,3.8917,6.1577,9.9592,7.4274,8.6258,14.8837,14.6764,-1.2425,8.3595,6.8872,1.4105,8.8062,12.3957,14.3126,11.5243,6.8446,12.7873,5.6621,8.1268,12.4415,8.9035,-0.0616,-2.686
-1.5121,5.0206,0.9553,6.2132,8.5929,4.5976,10.0757,3.9209,6.1418,9.8916,7.3154,8.4524,14.9541,14.8482,-1.0016,8.6094,7.202,1.6173,9.0889,12.6322,14.5458,11.7728,7.0953,12.8092,5.6651,8.0067,12.3354,8.7266,-0.0862,-2.7319
-1.2293,5.2748,1.2077,6.4464,8.8536,4.9263,10.1065,3.9229,6.0754,9.7636,7.1346,8.1769,14.9865,14.9862,-0.7324,8.8283,7.5554,1.8293,9.3869,12.8406,14.7598,12.0135,7.3502,12.7777,5.6514,7.8259,12.1537,8.4663,-0.0978,-2.8008
-0.9132,5.5089,1.476,6.6748,9.0946,5.2591,10.097,3.9,5.9592,9.5823,6.891,7.8109,14.982,15.0932,-0.4359,9.025,7.9394,2.0619,9.6956,13.0332,14.9613,12.2456,7.6063,12.6962,5.6195,7.5861,11.8967,8.1328,-0.0979,-2.8934
-0.5712,5.7303,1.7668,6.9091,9.3241,5.5842,10.053,3.8539,5.7967,9.3571,6.5949,7.374,14.9433,15.1724,-0.1148,9.2075,8.339,2.3278,10.0056,13.2208,15.1551,12.4654,7.859,12.5705,5.5697,7.2939,11.5703,7.7415,-0.091,-3.0084
-0.215,5.9425,2.0783,7.1531,9.5456,5.8865,9.981,3.7864,5.5952,9.0996,6.2606,6.8924,14.8736,15.2271,0.2261,9.3807,8.7323,2.6338,10.303,13.4096,15.3417,12.6667,8.1024,12.4078,5.5044,6.9612,11.1863,7.3113,-0.0835,-3.1429
0.1394,6.144,2.4006,7.4011,9.7567,6.1511,9.8871,3.7004,5.3648,8.8228,5.9059,6.396,14.7767,15.2583,0.58,9.5444,9.0929,2.9783,10.5705,13.5985,15.5161,12.8409,8.3287,12.2163,5.428,6.6034,10.7617,6.8626,-0.0823,-3.2916
0.474,6.3276,2.7172,7.6391,9.9491,6.3649,9.7769,3.6,5.1182,8.5398,5.5501,5.9154,14.6559,15.2646,0.9365,9.6924,9.3932,3.3508,10.7897,13.7784,15.6679,12.9783,8.5287,12.0039,5.3462,6.2381,10.317,6.4164,-0.0925,-3.4464
0.771,6.4805,3.0079,7.8458,10.1102,6.5181,9.6552,3.4907,4.8689,8.2632,5.2129,5.4791,14.5139,15.2417,1.2819,9.8129,9.6092,3.732,10.9437,13.933,15.7828,13.0686,8.693,11.7781,5.2645,5.8825,9.8738,5.9922,-0.1161,-3.5964
1.0146,6.5864,3.2518,7.9968,10.2254,6.6042,9.5255,3.3787,4.6301,8.0033,4.9115,5.1103,14.3528,15.1834,1.5992,9.8904,9.7247,4.0964,11.0204,14.0413,15.8447,13.1035,8.8131,11.5456,5.1871,5.552,9.4529,5.6082,-0.1501,-3.7286
1.193,6.6283,3.431,8.0683,10.2801,6.62,9.3896,3.2699,4.413,7.7677,4.6592,4.8251,14.1741,15.0831,1.8701,9.9083,9.7352,4.4149,11.0152,14.082,15.8394,13.0777,8.8828,11.3118,5.1158,5.2583,9.0715,5.2792,-0.1877,-3.8295
1.2993,6.5926,3.5329,8.0424,10.2632,6.566,9.248,3.1695,4.2254,7.5599,4.4632,4.6309,13.9793,14.9363,2.0787,9.8531,9.6482,4.6591,10.9313,14.0381,15.7572,12.9896,8.8997,11.0809,5.0497,5.0081,8.7419,5.0162,-0.2192,-3.8878
1.3327,6.4727,3.5525,7.9114,10.1691,6.4476,9.0997,3.0807,4.0707,7.379,4.3246,4.5264,13.7697,14.7421,2.214,9.7175,9.4822,4.8062,10.7787,13.9013,15.5958,12.8416,8.8646,10.855,4.9851,4.8033,8.4695,4.8251,-0.2349,-3.897
1.2987,6.2714,3.4928,7.6801,10,6.2751,8.9427,3.0046,3.9477,7.2204,4.2375,4.5019,13.5472,14.5044,2.2725,9.5035,9.2623,4.8435,10.5723,13.6753,15.3616,12.6397,8.781,10.6338,4.9162,4.6407,8.2525,4.705,-0.2282,-3.8565
1.2088,6.0016,3.3644,7.366,9.7662,6.0638,8.774,2.9397,3.8501,7.076,4.1906,4.5407,13.3129,14.231,2.2583,9.2232,9.0162,4.7723,10.329,13.3757,15.0683,12.3918,8.6535,10.4144,4.8367,4.5132,8.0819,4.6485,-0.198,-3.7719
1.0792,5.6849,3.1832,6.9967,9.4841,5.8319,8.5897,2.882,3.7679,6.9348,4.1682,4.6212,13.0664,13.9318,2.1824,8.897,8.7696,4.6097,10.0659,13.0272,14.7349,12.1079,8.4878,10.1915,4.7413,4.411,7.9433,4.6419,-0.1503,-3.654
0.9287,5.3486,2.9677,6.6062,9.1737,5.5981,8.3851,2.8251,3.6879,6.7846,4.1521,4.719,12.805,13.6159,2.0614,8.5502,8.5434,4.3865,9.7986,12.6587,14.3812,11.7992,8.2905,9.9582,4.6267,4.3233,7.8188,4.6655,-0.0972,-3.5162
0.7768,5.021,2.7364,6.2291,8.8549,5.3779,8.1547,2.7609,3.5963,6.6131,4.1242,4.8091,12.5232,13.2894,1.9156,8.2087,8.3511,4.1431,9.5409,12.2969,14.0236,11.4779,8.0701,9.707,4.4926,4.2392,7.6894,4.6961,-0.0547,-3.3727
0.6408,4.7264,2.5056,5.8951,8.5438,5.1815,7.8939,2.6814,3.4803,6.4099,4.0688,4.8682,12.2135,12.9532,1.7673,7.8936,8.1982,3.9207,9.3031,11.9612,13.6723,11.1561,7.8372,9.4313,4.3413,4.1489,7.5378,4.7088,-0.038,-3.236
0.5337,4.4801,2.2876,5.6229,8.2507,5.0112,7.599,2.5798,3.3305,6.1679,3.9744,4.8766,11.8681,12.6038,1.6376,7.6175,8.0816,3.7532,9.0905,11.6598,13.3295,10.8444,7.6031,9.1259,4.1771,4.0439,7.3498,4.6794,-0.0572,-3.1154
0.4626,4.2857,2.0899,5.4174,7.9784,4.862,7.2694,2.4524,3.142,5.8847,3.8348,4.8197,11.4809,12.2345,1.543,7.383,7.9906,3.6598,8.9024,11.3893,12.9904,10.5497,7.3782,8.7882,4.0051,3.9175,7.1158,4.5884,-0.1138,-3.017
0.4284,4.1362,1.9152,5.2695,7.7231,4.723,6.908,2.299,2.9153,5.5628,3.6495,4.6894,11.0499,11.8381,1.4918,7.1834,7.9098,3.6416,8.7313,11.1371,12.6458,10.2735,7.1694,8.4187,3.8307,3.7642,6.8313,4.4234,-0.2003,-2.943
0.4264,4.0171,1.762,5.1596,7.4768,4.5812,6.522,2.1235,2.6557,5.2096,3.4232,4.4844,10.578,11.4105,1.4819,7.0063,7.8229,3.6825,8.5652,10.8869,12.2865,10.0123,6.979,8.0216,3.6585,3.5814,6.4971,4.1819,-0.3009,-2.8933
0.4482,3.9125,1.6273,5.063,7.2296,4.4253,6.1221,1.9333,2.3734,4.8362,3.1642,4.2112,10.0742,10.9529,1.5014,6.8382,7.7175,3.7535,8.3906,10.6241,11.9069,9.7583,6.8042,7.6046,3.4925,3.3689,6.1197,3.8722,-0.3956,-2.8652
0.4846,3.8091,1.5095,4.9562,6.9735,4.2489,5.722,1.7387,2.082,4.4567,2.8839,3.8829,9.5524,10.4731,1.5313,6.669,7.5888,3.8212,8.1969,10.3405,11.5077,9.5026,6.6386,7.1786,3.335,3.1302,5.7105,3.5127,-0.4638,-2.8537
0.5277,3.6989,1.4097,4.8213,6.7045,4.0534,5.3369,1.5516,1.7977,4.0865,2.5955,3.5186,9.0301,9.985,1.5511,6.495,7.4409,3.8549,7.9792,10.037,11.097,9.2381,6.4741,6.7562,3.1867,2.8724,5.2856,3.1288,-0.4888,-2.8521
0.5733,3.5788,1.3328,4.6497,6.4235,3.8474,4.9811,1.3837,1.5371,3.7407,2.3136,3.1414,8.5258,9.5061,1.5453,6.3193,7.2851,3.834,7.7395,9.7228,10.6887,8.961,6.3028,6.3507,3.0467,2.6061,4.8637,2.7484,-0.4606,-2.8516
0.6203,3.4498,1.2852,4.4422,6.1356,3.6451,4.6663,1.2449,1.3154,3.4328,2.0528,2.7763,8.0568,9.054,1.5073,6.15,7.1352,3.7512,7.4854,9.4124,10.2989,8.6718,6.1185,5.9735,2.9128,2.3447,4.4647,2.3982,-0.3769,-2.8427
0.6697,3.315,1.2711,4.2082,5.8482,3.4624,4.4,1.1407,1.1441,3.173,1.8267,2.4468,7.6367,8.6434,1.4416,5.9968,7.0023,3.6116,7.2266,9.121,9.9422,8.3748,5.9179,5.6337,2.7827,2.103,4.1075,2.0997,-0.2429,-2.8168
0.7222,3.1791,1.2891,3.9623,5.5685,3.3123,4.1843,1.0718,1.029,2.967,1.6464,2.1725,7.2741,8.2837,1.3611,5.8672,6.8903,3.4293,6.9719,8.8599,9.6284,8.0764,5.7005,5.3368,2.6549,1.8952,3.8082,1.8675,-0.0698,-2.7686
0.776,3.0483,1.3308,3.7214,5.3029,3.2012,4.0165,1.0335,0.9694,2.8155,1.5188,1.9667,6.9725,7.9784,1.2831,5.7642,6.794,3.2233,6.7269,8.6345,9.3602,7.7838,5.4692,5.0852,2.5295,1.7332,3.578,1.7089,0.1278,-2.6977
0.8266,2.93,1.3826,3.5008,5.0554,3.1276,3.8896,1.0166,0.9583,2.7145,1.4461,1.8346,6.7308,7.7256,1.2236,5.6861,6.7016,3.0129,6.4932,8.4435,9.1341,7.5037,5.2296,4.8783,2.409,1.6243,3.4221,1.6246,0.3343,-2.6095
0.8679,2.8325,1.4297,3.3117,4.8289,3.083,3.7949,1.01,0.9837,2.6562,1.4249,1.7735,6.5448,7.5204,1.1931,5.6281,6.5994,2.8148,6.2704,8.2822,8.9425,7.2421,4.9894,4.7135,2.2977,1.57,3.3394,1.6097,0.5347,-2.514
0.8952,2.7647,1.4616,3.1607,4.6258,3.0549,3.7229,1.0028,1.031,2.6303,1.4473,1.7741,6.4085,7.3568,1.1945,5.5869,6.4789,2.6416,6.0587,8.1462,8.7781,7.0044,4.7582,4.5876,2.2016,1.566,3.3222,1.6554,0.7168,-2.4227
0.9088,2.7351,1.4762,3.0509,4.4502,3.0306,3.6658,0.9867,1.0849,2.6259,1.502,1.8223,6.316,7.2299,1.2232,5.5633,6.3419,2.5021,5.8623,8.0354,8.6365,6.7966,4.5469,4.4975,2.1263,1.6024,3.358,1.7491,0.8709,-2.3439
0.9166,2.7506,1.4809,2.9834,4.3083,3.0014,3.6182,0.9576,1.1325,2.6329,1.576,1.9021,6.2621,7.1371,1.2701,5.5644,6.2022,2.4017,5.6897,7.9559,8.5193,6.6256,4.3662,4.4401,2.076,1.6655,3.4304,1.8756,0.9909,-2.2793
0.9339,2.8146,1.4903,2.9586,4.2086,2.9649,3.5774,0.9164,1.1646,2.6433,1.656,1.9975,6.2422,7.0774,1.3253,5.6019,6.0829,2.3435,5.5532,7.9186,8.4329,6.4987,4.2256,4.4124,2.0515,1.7393,3.5211,2.0168,1.0742,-2.2224
0.9797,2.9253,1.5211,2.9765,4.159,2.9261,3.5429,0.8678,1.1767,2.6517,1.7301,2.094,6.252,7.0501,1.3808,5.6881,6.0094,2.3273,5.4654,7.9355,8.3856,6.4216,4.1319,4.4103,2.0493,1.808,3.6112,2.1533,1.1214,-2.1607
1.0706,3.0748,1.5862,3.035,4.1637,2.8945,3.5151,0.8192,1.1682,2.6545,1.7879,2.1795,6.2854,7.0528,1.4315,5.8305,6.0024,2.3484,5.4352,8.0141,8.384,6.3963,4.0871,4.4274,2.0619,1.8574,3.6836,2.2662,1.1368,-2.0808
1.2141,3.25,1.6895,3.1296,4.2204,2.8809,3.4936,0.7784,1.1417,2.6499,1.8221,2.2445,6.3338,7.0797,1.4739,6.0275,6.0712,2.3957,5.4646,8.1525,8.4278,6.4191,4.0875,4.4554,2.079,1.8764,3.7236,2.3404,1.1276,-1.9734
1.4046,3.4341,1.824,3.2519,4.3187,2.8925,3.4768,0.7518,1.1018,2.6364,1.8281,2.2825,6.3861,7.1211,1.5053,6.2653,6.2102,2.4524,5.5467,8.3368,8.5082,6.4798,4.1237,4.4841,2.0897,1.8589,3.7214,2.3666,1.1023,-1.8382
1.6219,3.6089,1.9732,3.3896,4.4403,2.9301,3.4607,0.7427,1.0532,2.612,1.8042,2.2899,6.4283,7.1635,1.5235,6.5192,6.3995,2.498,5.6657,8.5419,8.6071,6.5619,4.1809,4.5021,2.0845,1.8039,3.6722,2.3432,1.0695,-1.6861
1.8356,3.7569,2.1153,3.5274,4.5615,2.9868,3.4396,0.7501,0.9999,2.5741,1.7516,2.2659,6.4461,7.1912,1.5295,6.7572,6.6068,2.5139,5.7977,8.735,8.6997,6.6447,4.2414,4.4986,2.0571,1.7157,3.5771,2.2758,1.036,-1.5382
2.0108,3.8638,2.2291,3.6476,4.6561,3.0497,3.4065,0.7693,0.9445,2.5194,1.6734,2.212,6.4258,7.1876,1.5286,6.9459,6.7936,2.4882,5.9144,8.8813,8.759,6.7057,4.2864,4.4645,2.0053,1.6027,3.4422,2.1755,1.0058,-1.4215
2.1182,3.9197,2.2989,3.7326,4.7002,3.1025,3.3545,0.7923,0.8878,2.4448,1.5747,2.1321,6.3573,7.138,1.5308,7.0572,6.9225,2.4204,5.9867,8.9512,8.7604,6.7245,4.2996,4.3932,1.9309,1.476,3.2773,2.0565,0.9806,-1.362
2.1411,3.9211,2.3187,3.7673,4.6764,3.1296,3.2783,0.8095,0.8291,2.3484,1.4619,2.0318,6.2354,7.0317,1.548,7.075,6.9648,2.3214,5.991,8.9263,8.6875,6.686,4.2699,4.2826,1.8399,1.3473,3.0943,1.9336,0.9601,-1.3759
2.0813,3.8713,2.2932,3.742,4.577,3.1189,3.1754,0.8119,0.7677,2.2307,1.3422,1.9179,6.062,6.8648,1.5891,6.9984,6.9079,2.2108,5.9148,8.8034,8.5354,6.5846,4.1941,4.1353,1.7404,1.2275,2.9058,1.8194,0.943,-1.4634
1.9591,3.7803,2.2364,3.6548,4.4066,3.0643,3.0478,0.7935,0.7036,2.0963,1.224,1.7986,5.8463,6.6412,1.6554,6.8427,6.7583,2.1111,5.7596,8.5954,8.3123,6.425,4.0772,3.959,1.642,1.1245,2.7235,1.7233,0.9285,-1.6057
1.808,3.6638,2.1686,3.5132,4.1815,2.9671,2.902,0.753,0.6389,1.9537,1.116,1.6827,5.6047,6.3744,1.7388,6.6366,6.541,2.0418,5.5426,8.3295,8.0385,6.2227,3.932,3.7655,1.5536,1.0433,2.5576,1.6503,0.9167,-1.7694
1.6662,3.5413,2.1125,3.334,3.9274,2.8362,2.7488,0.6943,0.5784,1.8156,1.0268,1.5793,5.3589,6.0855,1.8234,6.417,6.2943,2.0153,5.2931,8.0418,7.7427,6.0013,3.7772,3.5701,1.4827,0.9856,2.4164,1.6015,0.9085,-1.9152
1.5665,3.4341,2.0882,3.141,3.6754,2.6868,2.6024,0.626,0.5288,1.6968,0.964,1.4963,5.1333,5.8015,1.8921,6.2213,6.0613,2.0353,5.0471,7.7703,7.4577,5.788,3.6336,3.3885,1.434,0.9504,2.3058,1.5753,0.9053,-2.01
1.5285,3.3617,2.1099,2.9618,3.4556,2.5388,2.4779,0.5591,0.4979,1.6119,0.9331,1.4396,4.9509,5.5508,1.9339,6.0805,5.881,2.0976,4.8398,7.5483,7.2138,5.6089,3.5214,3.235,1.4091,0.935,2.2286,1.568,0.9079,-2.0368
1.555,3.3391,2.1827,2.823,3.2926,2.4128,2.3889,0.5048,0.4919,1.5722,0.9361,1.4116,4.8296,5.3587,1.9485,6.0136,5.7807,2.1917,4.6984,7.3983,7.0346,5.484,3.456,3.1199,1.4067,0.9353,2.1845,1.5747,0.9149,-1.999
1.6341,3.3736,2.3013,2.7452,3.2005,2.3273,2.3443,0.4721,0.5137,1.5827,0.9708,1.4101,4.7788,5.2426,1.9478,6.0246,5.7708,2.304,4.6376,7.329,6.933,5.4238,3.4459,3.0475,1.4223,0.9459,2.1694,1.5898,0.9223,-1.9178
1.7445,3.4634,2.4515,2.7389,3.1802,2.2957,2.3467,0.4657,0.5615,1.64,1.0297,1.4278,4.7973,5.209,1.9514,6.1036,5.8448,2.421,4.6576,7.3354,6.9096,5.4277,3.4906,3.0155,1.4491,0.9601,2.1754,1.6057,0.9233,-1.8241
1.8635,3.5962,2.6122,2.8013,3.2193,2.3236,2.3907,0.4861,0.6278,1.7322,1.1004,1.4529,4.8732,5.2518,1.9804,6.2303,5.9823,2.5324,4.7445,7.4012,6.9538,5.4845,3.5802,3.0154,1.4789,0.9701,2.1918,1.614,0.909,-1.7488
1.9728,3.7509,2.76,2.916,3.2947,2.4067,2.4636,0.5292,0.7006,1.8399,1.1669,1.4714,4.9859,5.3538,2.0503,6.379,6.154,2.6333,4.8742,7.5033,7.0465,5.5754,3.6974,3.0339,1.5031,0.9673,2.2063,1.605,0.8696,-1.7137
2.0624,3.9007,2.8729,3.0556,3.3772,2.5307,2.5474,0.587,0.7652,1.9398,1.2117,1.469,5.1096,5.489,2.166,6.5238,6.3288,2.7242,5.0172,7.6162,7.1631,5.6772,3.8202,3.0558,1.5146,0.9442,2.2071,1.5704,0.7971,-1.727
2.1304,4.0176,2.9338,3.1862,3.4373,2.6718,2.6216,0.6491,0.807,2.0091,1.2192,1.4345,5.2179,5.6273,2.3191,6.6425,6.4793,2.8081,5.1441,7.7155,7.2775,5.7671,3.9262,3.0664,1.5085,0.8953,2.1845,1.5051,0.6875,-1.7828
2.18,4.0772,2.9327,3.2735,3.4499,2.8002,2.6669,0.704,0.8145,2.0292,1.178,1.3619,5.2875,5.7387,2.4894,6.7183,6.5851,2.8875,5.2301,7.78,7.3646,5.8254,3.9968,3.0538,1.4832,0.8187,2.1328,1.4087,0.5429,-1.865
2.2156,4.0628,2.8672,3.2894,3.3988,2.8849,2.6677,0.7406,0.7809,1.9893,1.0837,1.2518,5.3017,5.798,2.6498,6.7401,6.635,2.962,5.2576,7.7937,7.4034,5.8387,4.0198,3.0105,1.4409,0.7167,2.0504,1.2863,0.3719,-1.9532
2.2393,3.9685,2.7421,3.217,3.2783,2.8998,2.6148,0.7494,0.7057,1.8871,0.9395,1.1115,5.2524,5.7879,2.7728,6.7033,6.6259,3.0278,5.2184,7.7463,7.3791,5.8003,3.9909,2.9343,1.3871,0.5965,1.9405,1.1475,0.1888,-2.0294
2.249,3.8,2.5686,3.0551,3.0938,2.8297,2.5071,0.725,0.5939,1.7294,0.7562,0.954,5.1414,5.7023,2.8372,6.6088,6.5618,3.0783,5.1136,7.6347,7.2857,5.7112,3.9139,2.8287,1.3296,0.4689,1.8103,1.0045,0.0113,-2.082
2.2395,3.5738,2.3632,2.8183,2.8604,2.6744,2.3511,0.6661,0.4559,1.5309,0.5505,0.796,4.9797,5.5469,2.8323,6.4635,6.4521,3.1059,4.9528,7.4644,7.1274,5.5786,3.7991,2.7023,1.2772,0.3471,1.6703,0.8703,-0.1422,-2.1086
2.2039,3.3141,2.146,2.5348,2.6008,2.4494,2.1611,0.5767,0.3054,1.3117,0.3427,0.6558,4.7864,5.3393,2.7598,6.2798,6.3099,3.1035,4.7523,7.2489,6.9191,5.4155,3.6618,2.5675,1.2381,0.2449,1.5329,0.7562,-0.2554,-2.1133
2.1377,3.0487,1.9389,2.241,2.3418,2.1834,1.9571,0.4657,0.1583,1.0953,0.154,0.5502,4.5864,5.1063,2.6314,6.0747,6.151,3.0651,4.5333,7.0095,6.6844,5.2381,3.5191,2.4395,1.2181,0.1742,1.4111,0.6704,-0.3171,-2.1044
2.0407,2.8047,1.7624,1.9742,2.1109,1.9114,1.7621,0.3458,0.0307,0.9055,0.0036,0.4923,4.4068,4.8803,2.4652,5.8683,5.9928,2.9869,4.3191,6.7719,6.4527,5.0645,3.3876,2.3335,1.2202,0.1432,1.3167,0.6175,-0.3233,-2.0896
1.9193,2.6045,1.6323,1.7661,1.9324,1.6673,1.5988,0.2316,-0.0634,0.7632,-0.0939,0.4892,4.2729,4.6942,2.281,5.6811,5.8523,2.8677,4.1322,6.5629,6.2542,4.9119,3.2806,2.2632,1.244,0.155,1.259,0.5985,-0.2788,-2.0732
1.7856,2.4627,1.5562,1.6364,1.8232,1.4768,1.4859,0.1376,-0.1137,0.6833,-0.1306,0.541,4.2044,4.576,2.0967,5.5312,5.7437,2.7098,3.991,6.4055,6.1142,4.7949,3.2067,2.2384,1.286,0.2075,1.2434,0.6111,-0.196,-2.0544
1.6549,2.3841,1.5318,1.5899,1.7898,1.3525,1.4344,0.075,-0.1159,0.6717,-0.1066,0.64,4.2112,4.543,1.9252,5.4306,5.676,2.5198,3.9064,6.3135,6.0479,4.723,3.1682,2.2629,1.3407,0.2932,1.2709,0.6509,-0.0937,-2.0287
1.5421,2.3628,1.5471,1.6151,1.8259,1.2924,1.4452,0.0501,-0.0725,0.724,-0.0305,0.7724,4.2912,4.5985,1.7747,5.3822,5.6508,2.3086,3.88,6.288,6.0564,4.6989,3.1611,2.334,1.4009,0.4007,1.3374,0.7121,0.0074,-1.9901
1.4573,2.384,1.5834,1.6875,1.9131,1.2817,1.5085,0.0629,0.0072,0.8258,0.0825,0.9198,4.4301,4.7298,1.6486,5.3792,5.6612,2.091,3.9027,6.3163,6.126,4.7175,3.1759,2.4413,1.4589,0.5163,1.4341,0.7882,0.0879,-1.9351
1.4034,2.4266,1.6194,1.7746,2.0234,1.2972,1.6058,0.1072,0.1086,0.9555,0.2128,1.0628,4.6034,4.9109,1.5492,5.4057,5.6932,1.8849,3.956,6.3738,6.2304,4.7664,3.1994,2.5692,1.508,0.626,1.5491,0.8727,0.1326,-1.8654
1.3757,2.4679,1.6353,1.8436,2.1249,1.3149,1.7128,0.1719,0.2144,1.0874,0.34,1.1835,4.7807,5.1063,1.4786,5.4403,5.7279,1.7094,4.0155,6.4293,6.3361,4.8281,3.2176,2.6985,1.5432,0.7179,1.6684,0.9594,0.1327,-1.7887
1.3638,2.488,1.6177,1.8677,2.1878,1.3168,1.8043,0.2433,0.3078,1.1974,0.4464,1.2687,4.931,5.2786,1.4407,5.4608,5.7458,1.5824,4.0563,6.4518,6.4095,4.8835,3.2189,2.8099,1.5623,0.7838,1.7785,1.0426,0.0859,-1.7172
1.3558,2.4729,1.5615,1.8322,2.1898,1.2964,1.8588,0.3079,0.3746,1.2664,0.5191,1.311,5.0278,5.3942,1.4393,5.4484,5.7314,1.5189,4.0581,6.4171,6.4236,4.9159,3.1968,2.8873,1.566,0.82,1.8682,1.1171,-0.0034,-1.6639
1.342,2.4167,1.4706,1.735,2.1201,1.2601,1.8614,0.3547,0.4057,1.2834,0.5519,1.3091,5.0534,5.4295,1.4762,5.3925,5.6773,1.527,4.0105,6.3131,6.3628,4.9138,3.1511,2.9198,1.5575,0.8274,1.929,1.1785,-0.1253,-1.6384
1.3175,2.3212,1.3571,1.586,1.9801,1.2225,1.8062,0.3768,0.3976,1.2467,0.5441,1.2667,4.9998,5.3735,1.5482,5.2918,5.5873,1.6066,3.915,6.1415,6.2246,4.8728,3.0879,2.9027,1.5409,0.8102,1.9559,1.2226,-0.2657,-1.6442
1.2834,2.195,1.2379,1.4025,1.782,1.1991,1.696,0.3722,0.3527,1.1627,0.4997,1.1903,4.8693,5.228,1.6455,5.1547,5.475,1.7464,3.7847,5.9173,6.019,4.7956,3.0169,2.8367,1.5199,0.7737,1.9459,1.2456,-0.4077,-1.6775
1.2455,2.0509,1.131,1.2041,1.5454,1.1984,1.5413,0.3434,0.2775,1.0433,0.4251,1.0871,4.6721,5.006,1.7531,4.9965,5.3601,1.9249,3.6406,5.6644,5.7649,4.6903,2.95,2.7269,1.4963,0.7224,1.8972,1.2433,-0.5332,-1.7291
1.212,1.9038,1.0523,1.0093,1.294,1.2182,1.3578,0.2956,0.1812,0.9028,0.3275,0.9625,4.4242,4.7285,1.8535,4.8364,5.2635,2.1125,3.5061,5.4109,5.4858,4.5675,2.8975,2.5808,1.4693,0.6583,1.8087,1.2102,-0.6254,-1.7878
1.1909,1.7699,1.0137,0.8333,1.0515,1.2465,1.1631,0.2357,0.0731,0.754,0.213,0.8199,4.1444,4.4207,1.9306,4.6932,5.2013,2.2764,3.4014,5.183,5.2059,4.4381,2.8663,2.407,1.4361,0.5802,1.6794,1.1403,-0.6703,-1.8437
1.1877,1.6653,1.0216,0.6878,0.839,1.2669,0.9739,0.1699,-0.039,0.6063,0.0861,0.6605,3.853,4.1094,1.9743,4.5827,5.1816,2.3872,3.3388,5.0012,4.947,4.3112,2.8578,2.215,1.3929,0.4852,1.5104,1.0277,-0.6594,-1.8915
1.205,1.6052,1.0758,0.5821,0.6723,1.2655,0.8038,0.1031,-0.1504,0.4643,-0.0502,0.4846,3.5696,3.8195,1.9832,4.5144,5.2023,2.4265,3.3201,4.877,4.7263,4.1923,2.8677,2.015,1.3371,0.3698,1.3054,0.8689,-0.5914,-1.9305
1.2426,1.6016,1.1692,0.5232,0.5607,1.2364,0.6615,0.0376,-0.2594,0.3281,-0.1944,0.2932,3.3118,3.5725,1.965,4.4905,5.252,2.3922,3.3366,4.8121,4.5558,4.084,2.8865,1.8178,1.2686,0.2324,1.072,0.6652,-0.473,-1.964
1.2986,1.6612,1.2881,0.515,0.5058,1.1836,0.5502,-0.0261,-0.3666,0.1951,-0.3448,0.0898,3.0946,3.3841,1.934,4.5061,5.3131,2.3002,3.3721,4.7992,4.4414,3.9866,2.9019,1.6349,1.1905,0.0748,0.8218,0.4243,-0.3183,-1.9965
1.3698,1.7825,1.4141,0.5572,0.5021,1.121,0.4688,-0.0885,-0.4738,0.0624,-0.4991,-0.1194,2.9289,3.2635,1.9069,4.5507,5.3664,2.1807,3.407,4.8251,4.3838,3.8998,2.902,1.4775,1.1085,-0.0973,0.5699,0.1605,-0.1465,-2.031
1.4527,1.9555,1.5282,0.6445,0.5384,1.0677,0.4134,-0.1503,-0.5818,-0.0706,-0.6527,-0.324,2.8216,3.2134,1.8979,4.6109,5.3967,2.0704,3.4247,4.8736,4.379,3.8249,2.8797,1.3566,1.0302,-0.2743,0.3331,-0.1063,0.0223,-2.0675
1.5433,2.1622,1.6149,0.7665,0.6011,1.0422,0.3797,-0.2103,-0.6885,-0.2005,-0.7986,-0.5112,2.7755,3.2299,1.9152,4.6742,5.3965,2.0026,3.4161,4.9301,4.4203,3.7662,2.8357,1.2812,0.9637,-0.444,0.1289,-0.3536,0.17,-2.1019
1.637,2.3787,1.666,0.9081,0.6766,1.0563,0.3644,-0.266,-0.7887,-0.319,-0.9275,-0.6665,2.7889,3.3044,1.9592,4.731,5.3686,1.9991,3.3821,4.9836,4.4984,3.7312,2.7793,1.2582,0.9163,-0.5922,-0.0271,-0.559,0.2835,-2.128
1.7278,2.5783,1.683,1.05,0.7542,1.1097,0.366,-0.3129,-0.8746,-0.4145,-1.0295,-0.7758,2.8563,3.4242,2.0229,4.7756,5.3234,2.0652,3.3333,5.0279,4.6031,3.7291,2.7284,1.2908,0.8943,-0.7055,-0.1221,-0.7044,0.3553,-2.1393
1.8082,2.7344,1.6768,1.1706,0.8262,1.1877,0.3851,-0.3459,-0.9375,-0.4748,-1.0956,-0.8282,2.9687,3.5745,2.0944,4.8066,5.2766,2.1911,3.2871,5.062,4.7237,3.769,2.7063,1.3782,0.9023,-0.7724,-0.1482,-0.7784,0.3839,-2.1314
1.87,2.8239,1.6655,1.2478,0.8891,1.2634,0.4225,-0.3607,-0.9698,-0.4894,-1.1201,-0.8172,3.1152,3.7402,2.1601,4.8251,5.2445,2.3565,3.2639,5.0879,4.85,3.8586,2.7378,1.5165,0.9431,-0.7848,-0.1026,-0.7774,0.3724,-2.1044
1.9051,2.83,1.6703,1.2627,0.9426,1.3042,0.4788,-0.3546,-0.9671,-0.4524,-1.1017,-0.7417,3.2843,3.9084,2.2081,4.8338,5.2409,2.5373,3.2823,5.1097,4.9733,4.0022,2.8449,1.699,1.0178,-0.7392,0.0124,-0.7054,0.3268,-2.0627
1.908,2.7449,1.7107,1.2032,0.9893,1.2796,0.5537,-0.3278,-0.929,-0.3632,-1.0434,-0.6061,3.4662,4.0695,2.2307,4.8357,5.2747,2.712,3.3563,5.1313,5.0877,4.2003,3.0423,1.9179,1.1257,-0.6371,0.19,-0.5721,0.2543,-2.0138
1.8768,2.5717,1.8002,1.0671,1.0335,1.1695,0.6454,-0.283,-0.8591,-0.2265,-0.9522,-0.4194,3.6536,4.2189,2.2257,4.8339,5.3487,2.8662,3.4918,5.1565,5.1906,4.4494,3.3339,2.1652,1.2641,-0.4847,0.42,-0.3907,0.1626,-1.9656
1.8151,2.3244,1.9427,0.8633,1.0798,0.9702,0.7508,-0.2247,-0.7643,-0.052,-0.8373,-0.1944,3.842,4.3563,2.1962,4.8309,5.4598,2.994,3.6857,5.1872,5.2824,4.7414,3.7111,2.4329,1.4276,-0.2924,0.689,-0.1762,0.0587,-1.9242
1.7308,2.0261,2.131,0.6104,1.131,0.6963,0.8659,-0.1581,-0.6534,0.1476,-0.7087,0.0541,4.0295,4.4848,2.149,4.8288,5.5992,3.0968,3.9254,5.2244,5.3666,5.0639,4.1528,2.7131,1.6085,-0.0744,0.982,0.0559,-0.0506,-1.8919
1.6356,1.7057,2.348,0.3337,1.1877,0.3776,0.986,-0.0885,-0.536,0.3579,-0.5764,0.3104,4.2151,4.6088,2.0925,4.8293,5.7543,3.1813,4.1905,5.2671,5.4475,5.401,4.6283,2.9974,1.7969,0.1534,1.2825,0.2908,-0.159,-1.8668
