FP1,F3,F7,FC3,C3,C5,P3,P7,PO7,PO3,O1,Oz,Pz,CPz,FP2,Fz,F4,F8,FC4,FCz,Cz,C4,C6,P4,P8,PO8,PO4,O2,(corr) HEOG,(corr) VEOG
2.0623,1.629,1.282,1.5768,1.827,1.4504,1.2984,0.8498,0.4652,0.3928,0.0055,0.3406,1.9558,2.7577,1.9712,2.4993,2.4617,1.8142,2.6453,2.8936,2.9949,2.8643,2.8007,1.8269,1.002,0.2697,0.6821,-0.1639,-0.3679,-1.448
2.0623,1.5907,1.2944,1.5521,1.7526,1.3462,1.1928,0.7942,0.3782,0.3918,0.026,0.198,1.7852,2.5536,1.9303,2.3615,2.2141,1.7256,2.3492,2.7286,2.8056,2.6148,2.5861,1.5903,0.8573,0.1086,0.4866,-0.3303,-0.3371,-1.4542
2.039,1.5432,1.2951,1.5144,1.6664,1.2371,1.0842,0.7333,0.2935,0.3904,0.0436,0.0765,1.6153,2.3401,1.8757,2.2185,1.9681,1.6285,2.0556,2.5544,2.6042,2.3583,2.3673,1.3605,0.7231,-0.0368,0.3053,-0.4711,-0.3112,-1.4457
1.9758,1.4812,1.2778,1.4549,1.5625,1.1236,0.9736,0.6663,0.2152,0.3893,0.0576,-0.0068,1.4476,2.1112,1.795,2.065,1.7262,1.5183,1.7684,2.3638,2.3833,2.0899,2.1416,1.1435,0.606,-0.1541,0.1494,-0.5654,-0.2915,-1.4089
1.8635,1.4014,1.2401,1.3688,1.4394,1.0083,0.863,0.595,0.1481,0.3889,0.0684,-0.0414,1.2833,1.8651,1.6788,1.8968,1.4907,1.393,1.4927,2.1539,2.1409,1.8093,1.9091,0.9448,0.5106,-0.2338,0.0268,-0.5994,-0.2777,-1.3333
1.7019,1.3042,1.1839,1.2566,1.3014,0.8968,0.7566,0.5245,0.0969,0.3894,0.0779,-0.024,1.124,1.6059,1.5227,1.7122,1.2649,1.2539,1.2345,1.9269,1.8813,1.5215,1.6729,0.7688,0.4384,-0.2701,-0.0587,-0.5684,-0.2672,-1.2142
1.5,1.1942,1.1152,1.1248,1.1581,0.7972,0.6601,0.4628,0.0669,0.3919,0.0894,0.0411,0.9718,1.3436,1.3285,1.5129,1.0532,1.1059,1.0007,1.6902,1.6149,1.2362,1.4395,0.6191,0.3882,-0.2626,-0.107,-0.4772,-0.2559,-1.0532
1.2747,1.0795,1.0423,0.9855,1.0236,0.7195,0.5812,0.4198,0.0626,0.3982,0.1082,0.1435,0.8302,1.0925,1.1052,1.3047,0.8611,0.9571,0.7985,1.4556,1.3571,0.9668,1.2174,0.4979,0.3557,-0.2162,-0.1209,-0.3389,-0.2375,-0.8591
1.0476,0.9706,0.9744,0.8544,0.9134,0.674,0.5279,0.4048,0.0877,0.4113,0.14,0.2691,0.7039,0.8687,0.8679,1.0969,0.6948,0.8169,0.6343,1.2369,1.1255,0.7275,1.0156,0.4064,0.3346,-0.1404,-0.1052,-0.1724,-0.2055,-0.6464
0.8406,0.8784,0.9194,0.7476,0.8416,0.6687,0.5076,0.4249,0.1438,0.4349,0.1901,0.4025,0.5987,0.6871,0.6363,0.9012,0.5601,0.6949,0.5122,1.0473,0.9363,0.5304,0.842,0.3447,0.3181,-0.0479,-0.0651,0.0017,-0.1546,-0.4333
0.6716,0.8112,0.8825,0.678,0.8169,0.7073,0.525,0.483,0.2298,0.4727,0.2622,0.5299,0.5204,0.5583,0.4304,0.729,0.461,0.5984,0.4335,0.8969,0.8019,0.3843,0.7016,0.3124,0.3002,0.0485,-0.0048,0.1651,-0.0825,-0.2387
0.5509,0.7736,0.8655,0.6522,0.8408,0.7869,0.5809,0.576,0.3417,0.527,0.3563,0.6411,0.4742,0.4866,0.268,0.5901,0.3991,0.5314,0.3959,0.7903,0.7274,0.2927,0.5964,0.3088,0.2779,0.1378,0.0729,0.3051,0.0088,-0.0796
0.4798,0.7646,0.8664,0.6692,0.9067,0.8977,0.6709,0.695,0.4724,0.5976,0.4684,0.7304,0.4621,0.4692,0.1611,0.4906,0.3731,0.4936,0.3943,0.7264,0.7105,0.2547,0.5252,0.3326,0.2512,0.2134,0.1664,0.4158,0.112,0.0317
0.4511,0.7783,0.88,0.7204,0.9999,1.0235,0.7849,0.8262,0.6117,0.6806,0.5901,0.7955,0.4827,0.4968,0.1141,0.4325,0.379,0.4804,0.4213,0.699,0.741,0.265,0.4849,0.3816,0.2234,0.2726,0.2741,0.497,0.2157,0.0891
0.451,0.8051,0.8986,0.7909,1.1009,1.1443,0.9078,0.952,0.7474,0.7678,0.7088,0.8363,0.5294,0.5554,0.1228,0.413,0.411,0.4845,0.4692,0.6983,0.8029,0.3161,0.4708,0.4518,0.2,0.3168,0.3925,0.5521,0.3059,0.093
0.4634,0.833,0.9129,0.8624,1.1874,1.2391,1.0214,1.054,0.8657,0.8476,0.81,0.8529,0.5913,0.6285,0.1756,0.4255,0.4623,0.4968,0.5303,0.7127,0.877,0.3985,0.4774,0.5371,0.1864,0.3491,0.5146,0.5856,0.3686,0.0505
0.4726,0.85,0.9136,0.9161,1.239,1.2893,1.1073,1.1155,0.9533,0.9064,0.8796,0.8451,0.6552,0.6999,0.255,0.46,0.5257,0.5082,0.5975,0.7308,0.9439,0.5016,0.4991,0.6288,0.1866,0.3731,0.6304,0.6007,0.3924,-0.0263
0.4665,0.8452,0.8924,0.9359,1.2395,1.2814,1.1498,1.124,0.9986,0.9317,0.9068,0.8123,0.7072,0.7553,0.3411,0.5047,0.5932,0.5109,0.664,0.742,0.9869,0.614,0.5295,0.7169,0.2009,0.3907,0.7267,0.5989,0.3714,-0.1222
0.4378,0.8104,0.8429,0.9102,1.1793,1.2086,1.1389,1.0732,0.9934,0.9147,0.8862,0.7545,0.736,0.7845,0.4146,0.5466,0.656,0.4988,0.722,0.7374,0.9935,0.7233,0.5615,0.7905,0.2261,0.4018,0.7902,0.5805,0.3065,-0.221
0.3838,0.7405,0.7611,0.8328,1.0561,1.071,1.0708,0.9629,0.934,0.8511,0.8184,0.6731,0.7339,0.7813,0.4605,0.5734,0.7042,0.4682,0.7624,0.71,0.9564,0.816,0.587,0.8395,0.2554,0.4041,0.8096,0.5447,0.2056,-0.3083
0.3058,0.6328,0.6455,0.703,0.8739,0.8747,0.9481,0.7987,0.8214,0.7427,0.7093,0.5709,0.6977,0.7433,0.4691,0.5736,0.7267,0.417,0.7743,0.6536,0.8732,0.8779,0.5964,0.8555,0.28,0.3939,0.7775,0.4912,0.0828,-0.3727
0.2072,0.4869,0.4966,0.5242,0.6412,0.6304,0.7781,0.591,0.6612,0.5958,0.5681,0.4525,0.6282,0.6705,0.4366,0.5381,0.7118,0.3444,0.746,0.5635,0.7451,0.8954,0.5798,0.8329,0.2903,0.3672,0.6928,0.42,-0.0448,-0.4065
0.0923,0.3041,0.3165,0.3034,0.3693,0.3517,0.5717,0.3529,0.4633,0.4206,0.4057,0.3231,0.5289,0.565,0.3636,0.4602,0.649,0.2498,0.6668,0.4359,0.576,0.857,0.5276,0.769,0.2779,0.3209,0.5605,0.3327,-0.1593,-0.4056
-0.0346,0.088,0.1089,0.0499,0.0711,0.0542,0.3418,0.0998,0.2411,0.2294,0.2326,0.1885,0.405,0.4298,0.2543,0.3369,0.5305,0.1331,0.5295,0.2696,0.372,0.7553,0.4325,0.6643,0.2371,0.2545,0.3913,0.2319,-0.2456,-0.3698
-0.1691,-0.1548,-0.1195,-0.2239,-0.2398,-0.2456,0.1019,-0.1521,0.0106,0.0354,0.0588,0.0546,0.2627,0.2694,0.1147,0.17,0.3542,-0.0052,0.3331,0.0671,0.141,0.589,0.2912,0.5225,0.1663,0.1701,0.2009,0.1225,-0.2935,-0.3015
-0.3071,-0.4137,-0.3586,-0.5033,-0.5485,-0.5302,-0.1342,-0.3867,-0.2109,-0.1483,-0.1064,-0.0723,0.1085,0.0897,-0.0477,-0.0333,0.1256,-0.1629,0.0848,-0.1644,-0.1066,0.3647,0.1064,0.3507,0.0683,0.0733,0.0074,0.0113,-0.2991,-0.2061
-0.4442,-0.6738,-0.5946,-0.7709,-0.8392,-0.783,-0.3538,-0.5888,-0.4061,-0.3105,-0.2541,-0.186,-0.0509,-0.1016,-0.224,-0.2594,-0.142,-0.3351,-0.1997,-0.4118,-0.3585,0.0966,-0.113,0.1586,-0.0491,-0.0272,-0.1709,-0.0926,-0.2654,-0.0907
-0.5753,-0.917,-0.8111,-1.0084,-1.0951,-0.9885,-0.5457,-0.7462,-0.5596,-0.442,-0.3763,-0.2803,-0.2087,-0.295,-0.404,-0.4902,-0.4276,-0.5138,-0.4972,-0.6573,-0.6005,-0.1945,-0.3519,-0.0416,-0.174,-0.1214,-0.3174,-0.1796,-0.2007,0.0361
-0.695,-1.1239,-0.9911,-1.1979,-1.3001,-1.1343,-0.7014,-0.8508,-0.6598,-0.537,-0.4661,-0.3496,-0.3582,-0.48,-0.5767,-0.7051,-0.706,-0.6888,-0.7809,-0.8804,-0.8181,-0.4842,-0.5916,-0.2366,-0.2924,-0.1986,-0.4202,-0.2406,-0.1172,0.1657
-0.7979,-1.2771,-1.1203,-1.3251,-1.4409,-1.2127,-0.8156,-0.8998,-0.7004,-0.5933,-0.5193,-0.3903,-0.4933,-0.6465,-0.7311,-0.884,-0.9516,-0.8488,-1.0248,-1.0614,-0.9985,-0.7481,-0.8121,-0.4137,-0.3904,-0.2499,-0.4732,-0.269,-0.0284,0.2894
-0.8792,-1.3645,-1.1892,-1.3815,-1.5089,-1.2222,-0.8867,-0.8964,-0.6818,-0.612,-0.5348,-0.4015,-0.609,-0.7858,-0.8576,-1.0117,-1.1427,-0.9834,-1.2079,-1.1851,-1.1322,-0.9657,-0.996,-0.5623,-0.457,-0.2699,-0.4774,-0.2624,0.0536,0.4003
-0.9355,-1.3818,-1.1957,-1.366,-1.5023,-1.1681,-0.9164,-0.8491,-0.611,-0.5974,-0.5151,-0.3856,-0.702,-0.8925,-0.9496,-1.0805,-1.2664,-1.0851,-1.3187,-1.2445,-1.2154,-1.1242,-1.1318,-0.6757,-0.4863,-0.2576,-0.44,-0.2237,0.12,0.4931
-0.966,-1.3341,-1.1451,-1.286,-1.4276,-1.0626,-0.9099,-0.7697,-0.5007,-0.5564,-0.4665,-0.349,-0.7719,-0.9659,-1.0048,-1.0923,-1.3204,-1.1505,-1.3574,-1.243,-1.2513,-1.2201,-1.2156,-0.752,-0.4793,-0.218,-0.3741,-0.1612,0.1672,0.5651
-0.9722,-1.235,-1.05,-1.1562,-1.2988,-0.9226,-0.8751,-0.6723,-0.3678,-0.4981,-0.3981,-0.3015,-0.8212,-1.0105,-1.0258,-1.0585,-1.3136,-1.1805,-1.3348,-1.1944,-1.2502,-1.2594,-1.2515,-0.7954,-0.4436,-0.1611,-0.2964,-0.0877,0.1964,0.6163
-0.9586,-1.1046,-0.9281,-0.9974,-1.1363,-0.7685,-0.8221,-0.5705,-0.2313,-0.4331,-0.3215,-0.2552,-0.8558,-1.0358,-1.0197,-0.998,-1.2633,-1.1796,-1.2703,-1.1206,-1.228,-1.2566,-1.2504,-0.8149,-0.3923,-0.1012,-0.2247,-0.0189,0.2128,0.6488
-0.932,-0.9667,-0.7997,-0.8332,-0.9648,-0.6207,-0.763,-0.4764,-0.1101,-0.373,-0.249,-0.2225,-0.884,-1.0548,-0.996,-0.933,-1.1912,-1.1539,-1.1869,-1.0473,-1.2037,-1.2308,-1.2266,-0.8228,-0.3412,-0.0532,-0.1751,0.0301,0.2233,0.6667
-0.9006,-0.8442,-0.6846,-0.687,-0.8092,-0.498,-0.7104,-0.4001,-0.021,-0.3292,-0.1917,-0.214,-0.9149,-1.0809,-0.9652,-0.8849,-1.1184,-1.1101,-1.1065,-0.999,-1.1956,-1.2014,-1.1951,-0.8321,-0.3048,-0.0298,-0.1587,0.0476,0.2336,0.6754
-0.8732,-0.7557,-0.6,-0.5783,-0.6923,-0.4152,-0.6763,-0.3492,0.023,-0.312,-0.1589,-0.2358,-0.9562,-1.1252,-0.9361,-0.8698,-1.0614,-1.0536,-1.0453,-0.9934,-1.2178,-1.1847,-1.1681,-0.8531,-0.2933,-0.0375,-0.18,0.029,0.2464,0.6805
-0.8575,-0.7123,-0.5572,-0.5202,-0.6303,-0.3825,-0.6706,-0.3294,0.0142,-0.3289,-0.1558,-0.2883,-1.0124,-1.1936,-0.9148,-0.896,-1.0291,-0.9889,-1.0112,-1.0389,-1.2769,-1.1903,-1.153,-0.8915,-0.3095,-0.0753,-0.2361,-0.0225,0.2601,0.6875
-0.8585,-0.7156,-0.5609,-0.5173,-0.631,-0.4037,-0.699,-0.3437,-0.0488,-0.3828,-0.1834,-0.3659,-1.0829,-1.285,-0.9039,-0.9623,-1.0222,-0.9191,-1.0036,-1.1326,-1.3707,-1.2197,-1.1518,-0.9471,-0.3491,-0.1344,-0.3171,-0.0958,0.2688,0.7004
-0.8776,-0.7579,-0.6082,-0.5649,-0.6915,-0.4764,-0.7613,-0.3917,-0.1601,-0.4705,-0.2385,-0.4581,-1.1618,-1.3908,-0.9025,-1.0589,-1.0337,-0.8469,-1.0141,-1.2611,-1.4881,-1.2666,-1.1616,-1.0136,-0.4012,-0.2008,-0.4082,-0.175,0.265,0.7214
-0.9113,-0.8227,-0.6885,-0.6493,-0.7979,-0.5911,-0.8501,-0.4689,-0.307,-0.5823,-0.3134,-0.5515,-1.2381,-1.496,-0.9059,-1.1691,-1.0511,-0.7743,-1.0299,-1.403,-1.6105,-1.3184,-1.1762,-1.0799,-0.4521,-0.2589,-0.4926,-0.2428,0.2415,0.7492
-0.9516,-0.8887,-0.7855,-0.7497,-0.9272,-0.7323,-0.9509,-0.5658,-0.4705,-0.7019,-0.3974,-0.6319,-1.2971,-1.5819,-0.9066,-1.2722,-1.059,-0.7029,-1.0362,-1.5328,-1.7151,-1.3595,-1.188,-1.1325,-0.4886,-0.295,-0.5541,-0.2845,0.1948,0.7794
-0.9873,-0.9333,-0.8799,-0.8421,-1.0509,-0.8795,-1.0435,-0.6682,-0.6275,-0.8081,-0.4776,-0.6866,-1.3233,-1.6294,-0.8952,-1.3476,-1.0427,-0.6338,-1.02,-1.6255,-1.779,-1.3743,-1.1902,-1.1577,-0.5011,-0.3003,-0.5795,-0.2905,0.127,0.804
-1.0069,-0.9381,-0.9535,-0.903,-1.1404,-1.0107,-1.105,-0.7592,-0.7542,-0.8788,-0.5405,-0.706,-1.3024,-1.6227,-0.8616,-1.3778,-0.9912,-0.567,-0.9725,-1.6614,-1.7833,-1.351,-1.1782,-1.1449,-0.4865,-0.2725,-0.5611,-0.2583,0.046,0.8133
-1.0008,-0.8922,-0.993,-0.915,-1.1728,-1.1059,-1.1143,-0.8218,-0.83,-0.8938,-0.5741,-0.6846,-1.225,-1.5524,-0.7973,-1.3526,-0.899,-0.5022,-0.8908,-1.6296,-1.7175,-1.2843,-1.1508,-1.0885,-0.4484,-0.2159,-0.4977,-0.1916,-0.0355,0.7975
-0.9642,-0.795,-0.9926,-0.8697,-1.1354,-1.1511,-1.0565,-0.8427,-0.8406,-0.8401,-0.5687,-0.6223,-1.0882,-1.4183,-0.6974,-1.2703,-0.7675,-0.4387,-0.7785,-1.5307,-1.5816,-1.1773,-1.1111,-0.9898,-0.3965,-0.1404,-0.3951,-0.1002,-0.1035,0.7495
-0.8981,-0.656,-0.955,-0.7701,-1.0291,-1.1409,-0.9271,-0.8148,-0.7812,-0.7142,-0.5198,-0.5247,-0.8977,-1.2289,-0.5627,-1.1388,-0.6054,-0.3762,-0.6454,-1.3766,-1.3874,-1.0411,-1.0657,-0.8578,-0.3447,-0.0599,-0.2664,0.0021,-0.1453,0.6663
-0.8097,-0.4932,-0.8911,-0.6298,-0.8678,-1.0802,-0.7333,-0.7398,-0.6573,-0.5244,-0.4282,-0.4028,-0.6675,-1.0017,-0.3997,-0.9748,-0.427,-0.3156,-0.5065,-1.1895,-1.1564,-0.894,-1.0243,-0.7076,-0.3078,0.0105,-0.1293,0.0999,-0.1528,0.5512
-0.7115,-0.3291,-0.8169,-0.4706,-0.6762,-0.9835,-0.4946,-0.6282,-0.4839,-0.2895,-0.3008,-0.2716,-0.419,-0.7604,-0.2211,-0.8009,-0.2508,-0.2595,-0.3795,-0.9979,-0.9177,-0.7578,-0.9979,-0.5586,-0.2986,0.0568,-0.0037,0.1785,-0.1245,0.4131
-0.6189,-0.1871,-0.7503,-0.3181,-0.4844,-0.8722,-0.2388,-0.4978,-0.2829,-0.0366,-0.1497,-0.1481,-0.1778,-0.532,-0.044,-0.6419,-0.0965,-0.2123,-0.2823,-0.832,-0.7024,-0.654,-0.9968,-0.4308,-0.3248,0.0698,0.0922,0.2271,-0.0655,0.2661
-0.5476,-0.0871,-0.7069,-0.1969,-0.3224,-0.7705,0.0016,-0.3708,-0.0799,0.204,0.009,-0.0486,0.03,-0.3428,0.1134,-0.5205,0.0179,-0.1794,-0.2293,-0.7185,-0.5386,-0.5993,-1.0275,-0.3412,-0.3873,0.047,0.1461,0.2408,0.0133,0.1267
-0.5107,-0.042,-0.6973,-0.1259,-0.2142,-0.7005,0.1963,-0.2699,0.1,0.4042,0.1579,0.0151,0.1824,-0.2146,0.2344,-0.453,0.0796,-0.1661,-0.2287,-0.6753,-0.4463,-0.6018,-1.0916,-0.3002,-0.4793,-0.0064,0.1535,0.222,0.0983,0.0111
-0.5156,-0.056,-0.7245,-0.1147,-0.1735,-0.6778,0.3224,-0.2135,0.236,0.5427,0.2808,0.037,0.2652,-0.1606,0.3075,-0.4464,0.083,-0.1755,-0.28,-0.7082,-0.4339,-0.6593,-1.1842,-0.31,-0.5875,-0.0783,0.1191,0.1799,0.1755,-0.0679
-0.5622,-0.1234,-0.7837,-0.1615,-0.2008,-0.7078,0.3694,-0.2121,0.3149,0.6098,0.3661,0.0192,0.2752,-0.1832,0.3286,-0.4965,0.0312,-0.2077,-0.3738,-0.8093,-0.4959,-0.7595,-1.2948,-0.3641,-0.695,-0.1524,0.0549,0.1289,0.2336,-0.103
-0.6427,-0.2297,-0.8637,-0.2536,-0.2837,-0.7842,0.3405,-0.266,0.333,0.6082,0.4082,-0.0292,0.2202,-0.273,0.3024,-0.5899,-0.0646,-0.2583,-0.4937,-0.9587,-0.6151,-0.8831,-1.4094,-0.4491,-0.7847,-0.2126,-0.0222,0.0848,0.2663,-0.0945
-0.7422,-0.3538,-0.9485,-0.3693,-0.3992,-0.8903,0.2522,-0.3648,0.2964,0.5528,0.4094,-0.0934,0.1185,-0.4107,0.2409,-0.7058,-0.1868,-0.3193,-0.6196,-1.1282,-0.7652,-1.0084,-1.5135,-0.5477,-0.8433,-0.2467,-0.0944,0.0618,0.273,-0.0496
-0.8425,-0.4719,-1.0209,-0.4827,-0.5188,-1.0023,0.1302,-0.4895,0.2198,0.4669,0.3783,-0.156,-0.0057,-0.5708,0.1614,-0.8211,-0.315,-0.3803,-0.7315,-1.2876,-0.9171,-1.116,-1.5956,-0.6427,-0.8644,-0.2498,-0.1467,0.0682,0.2592,0.0191
-0.9256,-0.5611,-1.0652,-0.569,-0.6139,-1.0938,0.0041,-0.6161,0.1232,0.377,0.3286,-0.2001,-0.126,-0.7265,0.0826,-0.9142,-0.4292,-0.431,-0.8142,-1.4102,-1.0446,-1.1923,-1.6486,-0.7195,-0.8489,-0.2249,-0.1699,0.1053,0.2339,0.0963
-0.9778,-0.6043,-1.0703,-0.6095,-0.662,-1.142,-0.0986,-0.7204,0.0283,0.3077,0.2753,-0.213,-0.2195,-0.8547,0.0199,-0.9697,-0.514,-0.4633,-0.8594,-1.4783,-1.1291,-1.2319,-1.6716,-0.7689,-0.8044,-0.1815,-0.1614,0.1675,0.208,0.167
-0.9935,-0.593,-1.0326,-0.5953,-0.6507,-1.1324,-0.1573,-0.7817,-0.045,0.277,0.2321,-0.1879,-0.2702,-0.9403,-0.0175,-0.9803,-0.5606,-0.4739,-0.8672,-1.4865,-1.1634,-1.2374,-1.669,-0.787,-0.7419,-0.1316,-0.1247,0.2447,0.1913,0.2203
-0.9767,-0.5295,-0.9567,-0.5297,-0.5812,-1.0621,-0.1625,-0.787,-0.0815,0.2929,0.2086,-0.1258,-0.2725,-0.9785,-0.0297,-0.9489,-0.5684,-0.4645,-0.8449,-1.4422,-1.1526,-1.2176,-1.6494,-0.7751,-0.6725,-0.085,-0.0674,0.3254,0.1897,0.2513
-0.9415,-0.428,-0.8567,-0.4284,-0.4683,-0.9414,-0.1171,-0.7326,-0.0726,0.3531,0.2094,-0.0355,-0.2324,-0.9762,-0.0262,-0.8877,-0.5457,-0.4425,-0.8064,-1.3646,-1.1127,-1.1856,-1.6244,-0.7389,-0.6043,-0.0457,0.0015,0.4008,0.2038,0.263
-0.9113,-0.3134,-0.7542,-0.3182,-0.3401,-0.7932,-0.0368,-0.6243,-0.0165,0.4446,0.2337,0.0679,-0.1667,-0.9512,-0.0255,-0.8176,-0.5093,-0.4206,-0.7697,-1.2821,-1.0688,-1.1573,-1.607,-0.6878,-0.5407,-0.0094,0.074,0.4669,0.2285,0.2659
-0.9156,-0.2195,-0.6773,-0.2338,-0.2337,-0.6507,0.0526,-0.4767,0.0818,0.5466,0.2758,0.1656,-0.1014,-0.9302,-0.0529,-0.7662,-0.4833,-0.4158,-0.7563,-1.2288,-1.0517,-1.1504,-1.6112,-0.6342,-0.4804,0.0361,0.1441,0.5257,0.2541,0.2776
-0.9863,-0.1853,-0.6568,-0.2143,-0.1907,-0.5531,0.1186,-0.3114,0.2119,0.6339,0.3263,0.2387,-0.0678,-0.9449,-0.1375,-0.7654,-0.4975,-0.4489,-0.7897,-1.2403,-1.0936,-1.184,-1.652,-0.593,-0.4191,0.1081,0.2086,0.5851,0.2682,0.3206
-1.1531,-0.2501,-0.7233,-0.2979,-0.2511,-0.5402,0.1276,-0.1539,0.3594,0.6804,0.3736,0.2725,-0.0973,-1.0283,-0.3089,-0.8491,-0.5851,-0.5432,-0.8946,-1.3505,-1.225,-1.2777,-1.745,-0.5799,-0.3514,0.2248,0.2666,0.657,0.2591,0.4194
-1.4396,-0.4476,-0.9029,-0.5168,-0.4465,-0.6466,0.0506,-0.0313,0.5071,0.6637,0.4067,0.2608,-0.2161,-1.2088,-0.5931,-1.0491,-0.7789,-0.7223,-1.0945,-1.5878,-1.4706,-1.4502,-1.9045,-0.6098,-0.2736,0.4011,0.3184,0.7557,0.2181,0.5972
-1.8581,-0.8001,-1.2125,-0.8915,-0.7948,-0.896,-0.1317,0.0311,0.636,0.5685,0.4168,0.2078,-0.4397,-1.5046,-1.0073,-1.3905,-1.1056,-1.0055,-1.4079,-1.9705,-1.8451,-1.7155,-2.1413,-0.6923,-0.1845,0.6446,0.3664,0.8951,0.1415,0.8715
-2.4065,-1.3122,-1.6552,-1.4253,-1.2949,-1.2959,-0.4243,0.0125,0.7275,0.3904,0.4003,0.1297,-0.7672,-1.9176,-1.5548,-1.8861,-1.5786,-1.4017,-1.8418,-2.5023,-2.3479,-2.077,-2.4574,-0.8279,-0.0844,0.9549,0.4155,1.0872,0.0308,1.2494
-3.0649,-1.9665,-2.2162,-2.0994,-1.9238,-1.8342,-0.8145,-0.1009,0.7645,0.138,0.36,0.0539,-1.1779,-2.4286,-2.2196,-2.5299,-2.1903,-1.9028,-2.3847,-3.1665,-2.9587,-2.5213,-2.8405,-1.0029,0.0262,1.3241,0.4763,1.3415,-0.1081,1.724
-3.795,-2.721,-2.8611,-2.8712,-2.6363,-2.4774,-1.2713,-0.3131,0.7344,-0.165,0.3067,0.016,-1.6294,-2.9946,-2.9633,-3.2911,-2.9059,-2.4776,-3.0007,-3.9226,-3.6331,-3.0133,-3.2598,-1.1867,0.1505,1.7405,0.567,1.6644,-0.2677,2.2716
-4.5411,-3.5108,-3.5372,-3.6745,-3.3672,-3.172,-1.7467,-0.6165,0.6322,-0.4803,0.2582,0.0556,-2.059,-3.5502,-3.7249,-4.1125,-3.6615,-3.0708,-3.6277,-4.7045,-4.3034,-3.4951,-3.6643,-1.3325,0.2959,2.1911,0.7135,2.0592,-0.4408,2.851
-5.235,-4.2534,-4.1776,-4.4258,-4.0377,-3.8494,-2.1797,-0.9909,0.4628,-0.7582,0.2383,0.2107,-2.3903,-4.0128,-4.4248,-4.9116,-4.3674,-3.6056,-4.1803,-5.4244,-4.8827,-3.8898,-3.9861,-1.3824,0.4747,2.6637,0.9476,2.525,-0.6217,3.4062
-5.8025,-4.8583,-4.7089,-5.0329,-4.5633,-4.4331,-2.5035,-1.4044,0.2426,-0.9427,0.2732,0.5105,-2.5423,-4.2936,-4.9739,-5.5892,-4.9181,-3.9931,-4.5608,-5.9811,-5.2751,-4.1118,-4.1491,-1.2768,0.6998,3.1459,1.3008,3.0549,-0.8064,3.8712
-6.1727,-5.2396,-5.0611,-5.4079,-4.8658,-4.8483,-2.6545,-1.8165,-0.0022,-0.9795,0.3874,0.969,-2.4434,-4.3118,-5.2855,-6.042,-5.2083,-4.1457,-4.6738,-6.2746,-5.3904,-4.0811,-4.0816,-0.9672,0.9804,3.623,1.7959,3.6329,-0.9909,4.179
-6.2877,-5.3297,-5.1787,-5.4817,-4.885,-5.0331,-2.5835,-2.1833,-0.2394,-0.8262,0.5981,1.5796,-2.0457,-4.0101,-5.2902,-6.1799,-5.1516,-3.9937,-4.4446,-6.2224,-5.1605,-3.74,-3.731,-0.4285,1.3164,4.075,2.438,4.2322,-1.1699,4.2711
-6.113,-5.0915,-5.03,-5.2161,-4.5897,-4.9485,-2.2655,-2.4646,-0.436,-0.4614,0.9103,2.3134,-1.337,-3.3692,-4.9493,-5.9431,-4.6991,-3.5002,-3.8373,-5.7774,-4.5555,-3.0675,-3.0775,0.331,1.6947,4.4742,3.2078,4.8144,-1.3354,4.1087
-5.6445,-4.5265,-4.6137,-4.6135,-3.986,-4.5861,-1.7075,-2.6302,-0.5654,0.1077,1.3141,3.1204,-0.3486,-2.4158,-4.2653,-5.3169,-3.853,-2.6728,-2.8663,-4.9403,-3.5942,-2.0887,-2.1429,1.2663,2.0883,4.7862,4.0586,5.3325,-1.4765,3.6816
-4.9117,-3.6775,-3.9608,-3.7195,-3.1199,-3.9717,-0.9507,-2.6655,-0.6122,0.8433,1.7833,3.9353,0.8448,-1.2237,-3.2857,-4.3387,-2.6724,-1.5667,-1.6007,-3.7659,-2.3466,-0.8765,-0.9926,2.2981,2.4593,4.9738,4.9197,5.7353,-1.5807,3.0127
-3.9762,-2.6239,-3.1309,-2.6191,-2.073,-3.1636,-0.0673,-2.5739,-0.5755,1.679,2.2774,4.6851,2.1326,0.094,-2.0993,-3.0967,-1.2684,-0.281,-0.1576,-2.3591,-0.9275,0.4567,0.2706,3.3234,2.765,5.0027,5.7049,5.9748,-1.6362,2.1576
-2.9249,-1.472,-2.2048,-1.4254,-0.9534,-2.2455,0.8488,-2.376,-0.4683,2.5286,2.7469,5.2988,3.3836,1.4007,-0.8245,-1.7192,0.2105,1.0542,1.3131,-0.862,0.5191,1.7733,1.5194,4.2305,2.9641,4.849,6.3257,6.014,-1.6337,1.1984
-1.8587,-0.3404,-1.2744,-0.2649,0.1193,-1.3161,1.6953,-2.106,-0.3148,3.2987,3.1408,5.7177,4.4642,2.555,0.406,-0.3567,1.6002,2.2963,2.6515,0.5654,1.8398,2.9316,2.6207,4.9156,3.025,4.5057,6.7055,5.834,-1.5692,0.2327
-0.8805,0.6552,-0.4311,0.7399,1.0297,-0.4758,2.3768,-1.8056,-0.1445,3.9025,3.4142,5.9034,5.258,3.4321,1.465,0.8395,2.7455,3.3106,3.7114,1.7693,2.8947,3.8053,3.4543,5.299,2.9303,3.9866,6.7928,5.4387,-1.4443,-0.6394
-0.0825,1.4169,0.245,1.4865,1.6817,0.1861,2.8182,-1.5176,0.0133,4.2733,3.5369,5.844,5.6828,3.9407,2.247,1.7392,3.5222,3.9897,4.3815,2.6235,3.5763,4.3024,3.9305,5.3366,2.6806,3.3279,6.5705,4.8569,-1.2669,-1.3289
0.464,1.8756,0.6941,1.9049,2.0111,0.6025,2.9748,-1.2794,0.1349,4.3736,3.498,5.5552,5.7005,4.0353,2.6822,2.2507,3.8541,4.2685,4.6002,3.0474,3.8242,4.376,4.0014,5.026,2.2946,2.5851,6.0595,4.1403,-1.0499,-1.7696
0.7159,1.9977,0.8826,1.9648,1.9922,0.7353,2.8372,-1.1182,0.2066,4.1997,3.3082,5.0786,5.3206,3.72,2.7427,2.3321,3.7203,4.1307,4.3609,3.0155,3.6306,4.0289,3.6658,4.4056,1.8074,1.8273,5.3157,3.358,-0.8098,-1.9246
0.661,1.7859,0.8056,1.676,1.6385,0.579,2.4309,-1.048,0.2255,3.7806,2.9977,4.4749,4.5964,3.0456,2.4424,1.9934,3.1531,3.6075,3.7083,2.5575,3.0383,3.3096,2.9669,3.5476,1.2657,1.1285,4.4216,2.5882,-0.5643,-1.789
0.3175,1.2756,0.4853,1.0839,0.9989,0.1587,1.8097,-1.068,0.2001,3.172,2.6118,3.8153,3.6142,2.099,1.8311,1.2914,2.2282,2.7687,2.7273,1.75,2.1318,2.3026,1.9831,2.5465,0.7221,0.5586,3.4744,1.9085,-0.3306,-1.3881
-0.2713,0.5266,-0.035,0.2597,0.1477,-0.475,1.0472,-1.1642,0.1478,2.4472,2.2038,3.1721,2.4797,0.9888,0.9839,0.3172,1.0495,1.7082,1.5271,0.7018,1.0225,1.114,0.8157,1.5048,0.2283,0.1743,2.5719,1.3863,-0.123,-0.7706
-1.0435,-0.3871,-0.6993,-0.7108,-0.827,-1.2546,0.225,-1.3116,0.092,1.6866,1.8275,2.6097,1.3026,-0.1712,-0.0111,-0.8201,-0.2686,0.5286,0.2239,-0.4651,-0.1685,-0.1434,-0.4263,0.5199,-0.1707,0.012,1.7995,1.0706,0.0487,-0.0011
-1.9277,-1.3874,-1.4471,-1.7405,-1.8357,-2.105,-0.5775,-1.4784,0.0591,0.9674,1.5309,2.1774,0.183,-1.2762,-1.0649,-2.0096,-1.6164,-0.6734,-1.0742,-1.6338,-1.3263,-1.3639,-1.6393,-0.3279,-0.4421,0.0847,1.2206,0.9868,0.1794,0.8494
-2.8524,-2.402,-2.2217,-2.7505,-2.7981,-2.9527,-1.2925,-1.6303,0.0739,0.3553,1.3506,1.9056,-0.7988,-2.2427,-2.0973,-3.1543,-2.9011,-1.8173,-2.2782,-2.7074,-2.3566,-2.4604,-2.7359,-0.9825,-0.5674,0.381,0.8706,1.1345,0.2695,1.7116
-3.7534,-3.3707,-2.9751,-3.6786,-3.6513,-3.734,-1.8692,-1.7353,0.157,-0.1013,1.3087,1.8048,-1.5874,-3.0145,-3.0446,-4.1809,-4.0544,-2.8446,-3.3252,-3.6191,-3.1941,-3.3706,-3.6523,-1.4145,-0.5435,0.869,0.7569,1.4904,0.3235,2.5253
-4.5801,-4.2488,-3.6706,-4.4827,-4.3532,-4.3999,-2.2763,-1.7677,0.3216,-0.3738,1.4125,1.8676,-2.154,-3.5646,-3.8626,-5.0451,-5.0339,-3.7195,-4.1793,-4.3354,-3.8067,-4.0594,-4.351,-1.6196,-0.381,1.5021,0.862,2.0131,0.3491,3.2441
-5.2986,-5.0077,-4.2834,-5.1403,-4.8829,-4.9187,-2.5017,-1.711,0.5721,-0.453,1.655,2.073,-2.4928,-3.892,-4.5278,-5.7306,-5.8215,-4.427,-4.8287,-4.8534,-4.1927,-4.5177,-4.8199,-1.6137,-0.1013,2.2268,1.1513,2.6509,0.355,3.8374
-5.8906,-5.6322,-4.7984,-5.6455,-5.2367,-5.276,-2.5491,-1.5593,0.9044,-0.3463,2.0175,2.3916,-2.6158,-4.0146,-5.0349,-6.2434,-6.4175,-4.9677,-5.2802,-5.1929,-4.3735,-4.7567,-5.0685,-1.4259,0.2671,2.9892,1.5808,3.3498,0.3489,4.2906
-6.3509,-6.1168,-5.2088,-6.0026,-5.4238,-5.4717,-2.4339,-1.3169,1.3071,-0.0735,2.4733,2.7907,-2.5456,-3.9613,-5.3918,-6.6029,-6.834,-5.3524,-5.5517,-5.3858,-4.3847,-4.8026,-5.1226,-1.0917,0.6922,3.7414,2.1049,4.0603,0.3368,4.6023
-6.683,-6.4612,-5.5129,-6.2213,-5.4602,-5.5172,-2.1784,-0.9968,1.7641,0.3377,2.9916,3.2377,-2.31,-3.7639,-5.6149,-6.833,-7.089,-5.5978,-5.6658,-5.4659,-4.2651,-4.6889,-5.0178,-0.6468,1.142,4.4443,2.6828,4.7418,0.3216,4.7806
-6.8943,-6.668,-5.7129,-6.312,-5.3647,-5.4307,-1.8076,-0.6176,2.2567,0.8555,3.5408,3.7036,-1.9373,-3.4515,-5.7239,-6.9556,-7.2014,-5.7223,-5.6455,-5.4612,-4.0499,-4.4511,-4.7935,-0.1237,1.587,5.0694,3.2816,5.3645,0.3034,4.8392
-6.9935,-6.7416,-5.8132,-6.2845,-5.1568,-5.2351,-1.3466,-0.2014,2.7654,1.4471,4.0916,4.1629,-1.4541,-3.0481,-5.7375,-6.9865,-7.1889,-5.7441,-5.5114,-5.3901,-3.7659,-4.1227,-4.4881,0.4501,2.0014,5.5978,3.8764,5.9084,0.2807,4.7941
-6.9889,-6.6893,-5.8209,-6.1482,-4.8557,-4.955,-0.8204,0.229,3.2711,2.0794,4.6182,4.5948,-0.8855,-2.5729,-5.6722,-6.9362,-7.0681,-5.6801,-5.2826,-5.2622,-3.4316,-3.7325,-4.1352,1.052,2.3649,6.0186,4.449,6.3615,0.251,4.661
-6.889,-6.5229,-5.7456,-5.9147,-4.4813,-4.6161,-0.253,0.6521,3.7547,2.72,5.0986,4.9815,-0.2565,-2.0427,-5.541,-6.812,-6.8551,-5.5458,-4.9779,-5.0822,-3.0597,-3.3048,-3.7615,1.6621,2.6632,6.3266,4.9853,6.7162,0.2123,4.4545
-6.7036,-6.2609,-5.6,-5.6002,-4.0556,-4.244,0.3308,1.0487,4.1974,3.3378,5.5143,5.308,0.4073,-1.475,-5.3543,-6.6222,-6.5677,-5.3556,-4.6175,-4.8547,-2.6616,-2.8598,-3.3863,2.2624,2.8884,6.5208,5.4723,6.9673,0.1642,4.188
-6.4452,-5.928,-5.3999,-5.2269,-3.6028,-3.8636,0.9059,1.4026,4.5809,3.9031,5.8491,5.5615,1.0789,-0.8893,-5.1211,-6.3789,-6.2253,-5.123,-4.2233,-4.5884,-2.2505,-2.4143,-3.0222,2.8353,3.0388,6.6032,5.8968,7.1106,0.1079,3.8746
-6.1293,-5.5542,-5.1638,-4.8233,-3.1487,-3.4974,1.4472,1.7014,4.8879,4.3899,6.0893,5.7313,1.731,-0.3081,-4.8501,-6.0993,-5.8493,-4.8604,-3.8186,-4.2986,-1.8431,-1.9829,-2.6761,3.3638,3.1187,6.5789,6.2456,7.1435,0.0463,3.5273
-5.7741,-5.1712,-4.9107,-4.4205,-2.7184,-3.1645,1.9314,1.9363,5.1036,4.7776,6.2243,5.8102,2.3384,0.245,-4.5508,-5.8043,-5.4616,-4.5787,-3.4257,-4.0061,-1.4591,-1.5775,-2.3514,3.8324,3.1372,6.4566,6.5064,7.0663,-0.0168,3.1599
-5.3987,-4.8089,-4.6593,-4.0493,-2.3335,-2.8782,2.3397,2.1022,5.2175,5.0541,6.2487,5.7959,2.8806,0.7485,-4.2342,-5.5163,-5.0821,-4.287,-3.0638,-3.7343,-1.1177,-1.2078,-2.049,4.2292,3.1073,6.2495,6.6709,6.8853,-0.0775,2.7872
-5.022,-4.4915,-4.4252,-3.7347,-2.0093,-2.6454,2.6607,2.1977,5.2256,5.2171,6.165,5.6936,3.3448,1.186,-3.9127,-5.2552,-4.7275,-3.993,-2.7466,-3.5043,-0.8338,-0.8797,-1.7691,4.5476,3.0443,5.9757,6.7378,6.6149,-0.1333,2.4244
-4.6603,-4.2345,-4.2206,-3.4923,-1.7523,-2.466,2.8923,2.2257,5.1328,5.2758,5.9855,5.518,3.7271,1.5494,-3.5998,-5.0351,-4.4089,-3.7028,-2.4804,-3.3309,-0.6147,-0.5955,-1.511,4.7881,2.9647,5.6588,6.7148,6.2791,-0.1831,2.0863
-4.3265,-4.0435,-4.0521,-3.3259,-1.5596,-2.3333,3.0431,2.1939,4.9534,5.2497,5.7335,5.2927,4.0331,1.841,-3.3089,-4.8623,-4.1316,-3.4218,-2.2642,-3.2185,-0.4572,-0.3525,-1.2739,4.9589,2.8844,5.3257,6.6194,5.9103,-0.2277,1.7854
-4.0287,-3.9136,-3.9211,-3.2272,-1.4195,-2.2358,3.1308,2.1151,4.7113,5.1671,5.4412,5.0492,4.2765,2.0723,-3.0511,-4.7337,-3.8949,-3.1545,-2.0899,-3.1599,-0.3482,-0.1441,-1.056,5.075,2.8177,5.0055,6.4778,5.5467,-0.2696,1.5308
-3.7699,-3.8311,-3.8231,-3.1773,-1.3132,-2.1584,3.1803,2.0067,4.4377,5.0604,5.1464,4.8226,4.4758,2.2621,-2.8334,-4.6377,-3.6921,-2.9043,-1.9438,-3.1368,-0.2663,0.0404,-0.8536,5.1559,2.7754,4.7251,6.321,5.2261,-0.3118,1.3261
-3.5482,-3.7753,-3.748,-3.1499,-1.2179,-2.085,3.2191,1.8891,4.1678,4.9617,4.8862,4.6455,4.6512,2.4328,-2.6574,-4.556,-3.5117,-2.6727,-1.8085,-3.1231,-0.186,0.2139,-0.6617,5.2221,2.7645,4.5068,6.1803,4.9805,-0.3575,1.1692
-3.3573,-3.7213,-3.6813,-3.1155,-1.1098,-2.0001,3.2733,1.7836,3.9357,4.8975,4.6915,4.5422,4.8204,2.6055,-2.518,-4.4667,-3.339,-2.4581,-1.6654,-3.0885,-0.082,0.3899,-0.4731,5.292,2.7882,4.3654,6.0825,4.8308,-0.4093,1.0524
-3.1872,-3.6438,-3.6057,-3.0456,-0.9677,-1.8905,3.3635,1.7094,3.7696,4.8853,4.5816,4.5236,4.9965,2.7972,-2.4044,-4.3473,-3.1582,-2.2554,-1.497,-3.0041,0.0663,0.5812,-0.2797,5.3791,2.8459,4.3068,6.0461,4.7834,-0.4686,0.9639
-3.0262,-3.5204,-3.5042,-2.9168,-0.7757,-1.7468,3.5013,1.6812,3.6878,4.9313,4.5607,4.5847,5.1861,3.0177,-2.3018,-4.1783,-2.954,-2.0555,-1.2892,-2.8465,0.272,0.7977,-0.0738,5.4906,2.935,4.3284,6.0788,4.8303,-0.5361,0.8899
-2.8626,-3.3342,-3.3631,-2.7131,-0.525,-1.5644,3.688,1.7069,3.695,5.0304,4.6182,4.7054,5.3889,3.2692,-2.1941,-3.9458,-2.7143,-1.8464,-1.0336,-2.6017,0.539,1.0451,0.1505,5.6274,3.0515,4.4205,6.1775,4.9512,-0.6114,0.8176
-2.6867,-3.0776,-3.175,-2.4292,-0.2162,-1.3445,3.9147,1.7862,3.7826,5.168,4.7308,4.8549,5.5992,3.5468,-2.0687,-3.6443,-2.4323,-1.6164,-0.7283,-2.2674,0.8613,1.3234,0.3955,5.7854,3.1909,4.5686,6.33,5.1179,-0.694,0.7376
-2.4938,-2.7536,-2.9412,-2.0708,0.1412,-1.0949,4.1649,1.9108,3.93,5.3233,4.8682,4.9983,5.8075,3.8397,-1.9194,-3.2782,-2.1077,-1.3565,-0.3796,-1.8545,1.224,1.6267,0.6585,5.9571,3.3479,4.7555,6.5178,5.2998,-0.7835,0.6463
-2.286,-2.3772,-2.6728,-1.6555,0.5279,-0.8292,4.4173,2.0656,4.1094,5.4734,4.9998,5.1056,6.0029,4.1335,-1.7501,-2.8633,-1.7492,-1.065,-0.002,-1.3863,1.6047,1.9427,0.9318,6.1337,3.517,4.9638,6.7202,5.47,-0.8796,0.5468
-2.0741,-1.9751,-2.3895,-1.212,0.9178,-0.5665,4.6501,2.2313,4.2905,5.5978,5.1012,5.1588,6.1748,4.411,-1.5759,-2.4257,-1.3738,-0.7488,0.383,-0.8972,1.9757,2.2537,1.2025,6.3065,3.6916,5.1774,6.9174,5.6095,-0.9822,0.449
-1.8771,-1.5827,-2.1186,-0.777,1.2796,-0.3293,4.8453,2.3876,4.4473,5.682,5.1598,5.1568,6.3153,4.6548,-1.4216,-2.0006,-1.0064,-0.4248,0.7486,-0.4289,2.3068,2.5383,1.4543,6.4679,3.8646,5.3833,7.0938,5.7108,-1.0906,0.3683
-1.7195,-1.2401,-1.8903,-0.3912,1.5826,-0.1401,4.9917,2.5169,4.5623,5.7205,5.1767,5.1162,6.4202,4.8499,-1.317,-1.6274,-0.676,-0.1166,1.0664,-0.0253,2.5699,2.7758,1.6705,6.6129,4.0292,5.5732,7.2404,5.7783,-1.2035,0.3217
-1.6265,-0.9845,-1.7331,-0.0926,1.8017,-0.0175,5.0877,2.6081,4.6301,5.7189,5.1664,5.0673,6.4918,4.9873,-1.2905,-1.3428,-0.4106,0.1496,1.312,0.2754,2.744,2.9507,1.8381,6.7405,4.1807,5.7439,7.3567,5.8271,-1.3187,0.3237
-1.6173,-0.8428,-1.6673,0.0919,1.924,0.0288,5.1433,2.6595,4.6592,5.6942,5.1548,5.0484,6.5412,5.0683,-1.3603,-1.1729,-0.2305,0.3519,1.471,0.4489,2.8221,3.058,1.952,6.856,4.3176,5.8984,7.4514,5.8793,-1.4332,0.3809
-1.6987,-0.8242,-1.7,0.153,1.954,0.0014,5.1804,2.6806,4.6709,5.6748,5.1753,5.0992,6.5891,5.1078,-1.5283,-1.1256,-0.1421,0.4782,1.5436,0.4921,2.815,3.1074,2.018,6.9714,4.4428,6.0448,7.5422,5.9602,-1.5429,0.4886
-1.8619,-0.9166,-1.8217,0.1033,1.9145,-0.0834,5.2302,2.6904,4.6953,5.6969,5.2641,5.2546,6.6652,5.1343,-1.7771,-1.1866,-0.1343,0.531,1.5474,0.4267,2.7531,3.1233,2.0534,7.106,4.5628,6.1942,7.6538,6.0938,-1.6441,0.6293
-2.0825,-1.087,-2.0073,-0.0235,1.8444,-0.1975,5.328,2.713,4.765,5.7992,5.4538,5.5393,6.8038,5.1865,-2.0712,-1.3202,-0.1784,0.5276,1.5151,0.2969,2.682,3.1413,2.084,7.2819,4.6858,6.358,7.8126,6.2984,-1.7333,0.7745
-2.3246,-1.2871,-2.2201,-0.1785,1.7905,-0.3062,5.5052,2.7716,4.9074,6.0144,5.767,5.9638,7.0363,5.3047,-2.3639,-1.4749,-0.2337,0.497,1.4889,0.1615,2.6536,3.2008,2.139,7.5192,4.8184,6.5433,8.0408,6.5828,-1.8087,0.8903
-2.547,-1.4627,-2.4185,-0.3071,1.7982,-0.375,5.7812,2.8819,5.1372,6.3608,6.2105,6.5212,7.3826,5.5214,-2.6063,-1.5941,-0.2551,0.474,1.5118,0.0828,2.7151,3.3359,2.2443,7.8285,4.9621,6.7505,8.3497,6.9436,-1.8704,0.9436
-2.7098,-1.5633,-2.564,-0.359,1.9014,-0.376,6.1573,3.0475,5.4518,6.8356,6.7704,7.1853,7.8438,5.8523,-2.7567,-1.6262,-0.2029,0.4916,1.6187,0.1139,2.8984,3.5674,2.4173,8.206,5.1114,6.9707,8.7343,7.3635,-1.9205,0.9094
-2.7804,-1.5506,-2.6261,-0.2973,2.1166,-0.2919,6.6138,3.2592,5.8298,7.4113,7.4111,7.9106,8.3994,6.2918,-2.7877,-1.5337,-0.0503,0.5743,1.8293,0.2893,3.2137,3.8985,2.6636,8.6314,5.254,7.1861,9.1718,7.812,-1.962,0.775
-2.7361,-1.4032,-2.5861,-0.1031,2.4397,-0.1178,7.1129,3.4969,6.2343,8.037,8.0766,8.6339,9.0083,6.8126,-2.6893,-1.2986,0.2116,0.7342,2.145,0.6202,3.6486,4.3143,2.9768,9.07,5.3728,7.3722,9.6229,8.2471,-1.9984,0.5423
-2.5659,-1.1181,-2.4376,0.2226,2.8492,0.1394,7.6047,3.7348,6.6191,8.6452,8.697,9.2801,9.6146,7.371,-2.4682,-0.9234,0.5735,0.9694,2.5492,1.0935,4.171,4.7855,3.3399,9.4784,5.4496,7.5017,10.038,8.6205,-2.0317,0.2261
-2.2704,-0.7084,-2.1857,0.6616,3.3109,0.4641,8.0362,3.9468,6.9372,9.1624,9.1981,9.7722,10.1571,7.9149,-2.1435,-0.4277,1.0114,1.2667,3.0119,1.6771,4.7369,5.2743,3.729,9.812,5.4691,7.5493,10.3646,8.8837,-2.0615,-0.1489
-1.8611,-0.1997,-1.8437,1.1835,3.7854,0.8347,8.3611,4.1125,7.1491,9.5214,9.5143,10.044,10.5794,8.3931,-1.7413,0.1565,1.4927,1.6051,3.4959,2.3266,5.2993,5.7412,4.1174,10.0332,5.4222,7.4968,10.5567,8.9959,-2.0855,-0.5531
-1.3593,0.3755,-1.4311,1.7512,4.2358,1.2275,8.5482,4.2198,7.2305,9.6753,9.6017,10.0546,10.8399,8.7649,-1.2896,0.7917,1.983,1.9609,3.9643,2.9947,5.8162,6.1524,4.4794,10.1184,5.3079,7.3366,10.5833,8.9325,-2.0993,-0.9569
-0.7941,0.9824,-0.9706,2.3279,4.6335,1.62,8.5869,4.2671,7.1764,9.6066,9.4479,9.8001,10.9196,9.0065,-0.8144,1.4413,2.4531,2.3109,4.3874,3.6393,6.2581,6.4841,4.7932,10.0619,5.1336,7.074,10.4346,8.6908,-2.0983,-1.3353
-0.2008,1.5884,-0.4862,2.8808,4.9622,1.9927,8.489,4.2626,7.003,9.3328,9.0776,9.3187,10.8252,9.1143,-0.3381,2.0746,2.8822,2.6352,4.7468,4.2301,6.6111,6.7258,5.0436,9.8778,4.9138,6.7278,10.1254,8.2945,-2.0786,-1.6702
0.3828,2.1653,-0.002,3.3853,5.2183,2.3309,8.2862,4.2221,6.7451,8.9045,8.5503,8.6874,10.5882,9.1044,0.1194,2.6692,3.2588,2.9175,5.0364,4.7515,6.8778,6.8802,5.2225,9.5974,4.6678,6.3285,9.6936,7.7914,-2.0388,-1.9518
0.9195,2.6911,0.4591,3.8256,5.4093,2.625,8.0246,4.1657,6.4508,8.397,7.9512,8.0097,10.2593,9.0084,0.5398,3.2123,3.5794,3.1443,5.2615,5.2027,7.0739,6.9615,5.3291,9.2647,4.4174,5.9155,9.196,7.248,-1.9804,-2.1775
1.3768,3.1498,0.8753,4.1947,5.5496,2.8695,7.7565,4.1148,6.1732,7.8972,7.3769,7.3969,9.8997,8.8666,0.905,3.6985,3.8444,3.305,5.4342,5.5935,7.2235,6.9912,5.3687,8.9299,4.1849,5.5323,8.6995,6.7394,-1.9089,-2.3503
1.7298,3.53,1.2274,4.4923,5.656,3.0624,7.5314,4.0883,5.9622,7.4891,6.9182,6.9477,9.5705,8.7208,1.1982,4.1273,4.0554,3.3917,5.5697,5.9394,7.3526,6.994,5.3518,8.6413,3.991,5.2214,8.2718,6.337,-1.8324,-2.4765
1.9636,3.8246,1.4994,4.7228,5.7438,3.2037,7.3893,4.1007,5.8564,7.2396,6.6457,6.7314,9.3238,8.6075,1.4045,4.5001,4.2132,3.4013,5.6815,6.2554,7.4834,6.9932,5.293,8.4392,3.8538,5.0194,7.9711,6.0975,-1.7613,-2.5639
2.0742,4.0297,1.6802,4.8924,5.8244,3.2954,7.3558,4.1604,5.8782,7.1898,6.5989,6.7778,9.1963,8.5539,1.5145,4.8175,4.3178,3.3375,5.7798,6.5519,7.631,7.0086,5.2103,8.3512,3.7883,4.9526,7.8392,6.0547,-1.7056,-2.6196
2.0682,4.1449,1.7653,5.0085,5.9049,3.3411,7.4413,4.2705,6.0323,7.3516,6.7836,7.0758,9.2065,8.5755,1.5262,5.0786,4.3711,3.212,5.8711,6.8326,7.8018,7.0544,5.1241,8.3906,3.8055,5.0345,7.8964,6.2157,-1.6736,-2.6498
1.9618,4.1743,1.758,5.0788,5.9896,3.3478,7.642,4.4291,6.3072,7.7091,7.1738,7.5808,9.3557,8.6772,1.4475,5.2812,4.3789,3.0462,5.9595,7.0947,7.9948,7.14,5.0564,8.5567,3.9119,5.2641,8.1405,6.5618,-1.6694,-2.6593
1.7784,4.1275,1.6698,5.1118,6.0814,3.3258,7.9434,4.6312,6.6789,8.2253,7.7206,8.226,9.6301,8.8549,1.2962,5.4233,4.3532,2.8687,6.0489,7.3319,8.204,7.27,5.0292,8.8367,4.1084,5.6257,8.5486,7.053,-1.6926,-2.6522
1.5468,4.0193,1.52,5.1169,6.1832,3.2895,8.3237,4.8691,7.1162,8.8497,8.3613,8.9359,10.0054,9.098,1.0989,5.5049,4.3118,2.7123,6.1444,7.5364,8.4213,7.4459,5.0624,9.2084,4.3889,6.0905,9.0811,7.6352,-1.7375,-2.6332
1.2985,3.8699,1.3337,5.1044,6.2984,3.2559,8.7569,5.1339,7.5845,9.5264,9.0299,9.6391,10.45,9.3913,0.8879,5.5298,4.2762,2.609,6.2531,7.7029,8.6384,7.6666,5.1716,9.6431,4.7397,6.6187,9.6872,8.2481,-1.7941,-2.6081
1.0654,3.7026,1.1396,5.086,6.431,3.2434,9.2151,5.4146,8.0499,10.2006,9.665,10.276,10.9287,9.7168,0.6969,5.5061,4.2677,2.5843,6.3829,7.8296,8.8489,7.9286,5.3657,10.1082,5.1393,7.1638,10.3113,8.8327,-1.8493,-2.5847
0.8768,3.542,0.9666,5.0737,6.5845,3.2689,9.6706,5.6991,8.4814,10.8239,10.2158,10.8043,11.4062,10.0553,0.5576,5.4461,4.3028,2.6528,6.5405,7.9192,9.0482,8.2256,5.6454,10.5707,5.5604,7.6779,10.8992,9.3387,-1.8889,-2.5718
0.7575,3.4111,0.8406,5.0796,6.7618,3.3456,10.0975,5.9744,8.8532,11.3573,10.646,11.1993,11.8492,10.3879,0.495,5.3651,4.3893,2.8147,6.7288,7.978,9.2338,8.5486,6.0021,10.9998,5.9721,8.1174,11.4039,9.7292,-1.9002,-2.5788
0.725,3.3283,0.7814,5.1143,6.9638,3.481,10.4733,6.2276,9.1455,11.7731,10.9357,11.4532,12.2297,10.6976,0.5241,5.2786,4.5238,3.0556,6.9443,8.0147,9.4042,8.8855,6.4184,11.3702,6.3448,8.4489,11.7902,9.9834,-1.8735,-2.6135
0.7876,3.3054,0.8007,5.185,7.189,3.6751,10.7802,6.4467,9.346,12.0563,11.0816,11.5711,12.5264,10.9702,0.6478,5.2003,4.6917,3.3482,7.1762,8.0375,9.5585,9.2213,6.869,11.6641,6.6531,8.6524,12.0364,10.0973,-1.8043,-2.6802
0.9435,3.3454,0.9013,5.2945,7.4324,3.9206,11.0064,6.6222,9.4505,12.2033,11.095,11.5678,12.7263,11.1949,0.8557,5.1387,4.8692,3.6575,7.4069,8.0522,9.695,9.5391,7.3235,11.8717,6.8791,8.7231,12.1353,10.0812,-1.6931,-2.7779
1.1808,3.4427,1.0774,5.4399,7.6857,4.2035,11.1464,6.748,9.4622,12.2215,10.9985,11.4633,12.8248,11.3646,1.1259,5.0962,5.0279,3.9465,7.6141,8.0608,9.8109,9.8209,7.7494,11.9896,7.0139,8.6698,12.0924,9.9556,-1.5452,-2.9001
1.4788,3.5839,1.3162,5.6123,7.9371,4.5054,11.2005,6.8218,9.3918,12.1263,10.8209,11.2803,12.824,11.4747,1.4283,5.0681,5.1397,4.1828,7.7743,8.0603,9.9014,10.0488,8.1159,12.0195,7.0571,8.512,11.9228,9.7461,-1.3694,-3.0346
1.8108,3.7497,1.6005,5.7982,8.1727,4.8057,11.1742,6.8451,9.2552,11.9387,10.5922,11.0412,12.7318,11.5228,1.7295,5.0441,5.1821,4.3439,7.8664,8.0438,9.96,10.2066,8.3974,11.9652,7.0158,8.2755,11.6487,9.4794,-1.1758,-3.1658
2.1468,3.9177,1.91,5.9807,8.3777,5.0839,11.0764,6.8224,9.0712,11.6824,10.3396,10.7666,12.5594,11.5076,1.9981,5.0106,5.1417,4.4193,7.8753,8.0019,9.9792,10.2814,8.5769,11.8316,6.9025,7.9885,11.2956,9.1797,-0.9751,-3.2766
2.4582,4.0662,2.2237,6.1417,8.5384,5.3226,10.9177,6.7603,8.859,11.381,10.084,10.4749,12.3197,11.4289,2.2089,4.9543,5.0165,4.4114,7.7951,7.9256,9.9522,10.2655,8.6474,11.6248,6.7332,7.6772,10.8905,8.8674,-0.7768,-3.3518
2.7209,4.1765,2.5214,6.2647,8.6438,5.5081,10.7095,6.666,8.6351,11.0563,9.8384,10.1815,12.0264,11.2885,2.3466,4.8659,4.8158,4.3335,7.6302,7.8096,9.8747,10.1585,8.6132,11.3525,6.5251,7.3642,10.4591,8.5583,-0.5892,-3.3806
2.9186,4.236,2.7845,6.3366,8.6875,5.632,10.4629,6.5459,8.411,10.7267,9.6086,9.8991,11.6933,11.0913,2.4068,4.7425,4.559,4.2068,7.3964,7.6541,9.7471,9.9689,8.4893,11.0259,6.2955,7.0661,10.0247,8.2644,-0.419,-3.3587
3.0452,4.2391,2.9985,6.3502,8.6685,5.6914,10.1885,6.4039,8.1924,10.4054,9.3939,9.637,11.335,10.8461,2.3963,4.589,4.272,4.0557,7.1187,7.467,9.5754,9.7149,8.2993,10.6609,6.06,6.7939,9.6073,7.9938,-0.2718,-3.2893
3.1047,4.188,3.1537,6.3044,8.5912,5.6879,9.8962,6.2415,7.9781,10.1008,9.19,9.4012,10.9663,10.566,2.3299,4.4162,3.983,3.9042,6.8281,7.2618,9.3715,9.4233,8.0724,10.2779,5.8328,6.553,9.2226,7.7518,-0.1525,-3.1822
3.1093,4.091,3.2464,6.2048,8.4643,5.6268,9.5944,6.0571,7.7615,9.8156,8.9906,9.194,10.6019,10.2677,2.2274,4.2379,3.7182,3.7714,6.5565,7.0559,9.1515,9.1257,7.8393,9.9004,5.6255,6.3449,8.8819,7.5414,-0.065,-3.0513
3.0768,3.9608,3.2785,6.062,8.299,5.516,9.2894,5.8473,7.5317,9.5471,8.7895,9.014,10.2555,9.9693,2.1093,4.0673,3.4969,3.6688,6.3308,6.8659,8.9326,8.8536,7.6271,9.5522,5.4471,6.1681,8.5916,7.363,-0.0125,-2.9119
3.0265,3.8107,3.2568,5.8892,8.1058,5.3636,8.9837,5.607,7.2761,9.2876,8.581,8.8556,9.9371,9.6872,1.9932,3.9126,3.3287,3.5991,6.1674,6.7037,8.7294,8.6319,7.4551,9.253,5.3032,6.0189,8.3527,7.2146,0.0041,-2.7766
2.9746,3.6521,3.1908,5.6989,7.8921,5.1766,8.6756,5.3315,6.9825,9.0249,8.3594,8.7088,9.6507,9.4325,1.8912,3.775,3.2119,3.5566,6.069,6.5726,8.55,8.4737,7.3318,9.0146,5.1954,5.8918,8.16,7.0905,-0.0141,-2.6531
2.9315,3.4912,3.0908,5.4995,7.6601,4.9597,8.3579,5.0167,6.6408,8.7428,8.1178,8.5595,9.3921,9.2081,1.8084,3.6471,3.1342,3.5293,6.0228,6.4653,8.3929,8.376,7.2534,8.8369,5.1199,5.7783,8.001,6.9804,-0.0628,-2.5431
2.8998,3.3275,2.9651,5.2933,7.4059,4.7145,8.0189,4.66,6.2448,8.423,7.8478,8.3907,9.1477,9.0063,1.7434,3.5142,3.0748,3.5019,6.003,6.3644,8.2455,8.3202,7.2046,8.7066,5.0675,5.6671,7.8564,6.8693,-0.1351,-2.4419
2.8738,3.1528,2.8186,5.075,7.1205,4.4398,7.6435,4.2612,5.7925,8.0472,7.5398,8.1845,8.8959,8.8091,1.6888,3.3564,3.0079,3.4595,5.9749,6.2439,8.0853,8.2742,7.1619,8.5984,5.0238,5.5435,7.7016,6.739,-0.2217,-2.3406
2.8411,2.953,2.6509,4.8328,6.7914,4.132,7.2162,3.8223,5.2876,7.6004,7.1847,7.926,8.6099,8.5904,1.6332,3.1526,2.9071,3.3898,5.901,6.0742,7.8836,8.1993,7.0976,8.4786,4.9713,5.3914,7.51,6.5712,-0.3123,-2.2281
2.7855,2.7116,2.4568,4.551,6.4061,3.7864,6.7238,3.3484,4.7387,7.0745,6.7766,7.6066,8.2628,8.3203,1.5632,2.8846,2.7494,3.2848,5.7481,5.8275,7.6108,8.057,6.9852,8.312,4.8913,5.1959,7.2574,6.351,-0.3976,-2.0937
2.6904,2.4139,2.2288,4.2143,5.9553,3.3995,6.16,2.8477,4.1596,6.4713,6.3153,7.2273,7.8335,7.9715,1.4659,2.5414,2.5189,3.142,5.4935,5.484,7.2435,7.8179,6.8048,8.0681,4.7683,4.9466,6.9272,6.0717,-0.4697,-1.9303
2.5435,2.0524,1.9601,3.813,5.437,2.9706,5.5279,2.3319,3.5687,5.8039,5.8094,6.8007,7.3126,7.5263,1.3321,2.1228,2.2099,2.9639,5.1295,5.037,6.7706,7.4672,6.5473,7.7282,4.5925,4.6409,6.5142,5.7372,-0.5238,-1.7352
2.3402,1.6308,1.6492,3.3473,4.8594,2.5052,4.8426,1.8159,2.9866,5.0973,5.277,6.35,6.7057,6.9817,1.1585,1.6408,1.8276,2.7573,4.6656,4.4966,6.1979,7.0092,6.2165,7.2901,4.3632,4.2861,6.0268,5.3633,-0.5579,-1.5123
2.0861,1.1654,1.3035,2.8306,4.2422,2.0159,4.1303,1.3169,2.4347,4.3859,4.7444,5.9065,6.0352,6.3533,0.9498,1.1193,1.3885,2.5327,4.1273,3.8893,5.5501,6.4665,5.8293,6.7685,4.0889,3.8989,5.4866,4.9755,-0.5731,-1.2711
1.798,0.6845,0.9395,2.2888,3.6153,1.5226,3.4261,0.8528,1.9323,3.7093,4.2432,5.5047,5.337,5.6738,0.7189,0.5913,0.9181,2.3027,3.5528,3.2555,4.8679,5.8775,5.4131,6.1938,3.7862,3.5025,4.9253,4.6045,-0.5731,-1.0265
1.5017,0.2241,0.582,1.7573,3.0153,1.0508,2.769,0.4395,1.4941,3.1067,3.8055,5.1758,4.6563,4.9891,0.4853,0.0939,0.4479,2.0806,2.9871,2.6427,4.2022,5.2895,5.0014,5.6061,3.4768,3.1224,4.3798,4.2799,-0.5638,-0.7965
1.2279,-0.1786,0.2592,1.2752,2.4805,0.6276,2.1957,0.0893,1.1283,2.6111,3.4586,4.9426,4.0396,4.3505,0.2725,-0.3377,0.0109,1.8787,2.4751,2.0987,3.6061,4.7509,4.6281,5.0491,3.1835,2.7815,3.8859,4.0247,-0.552,-0.5998
1.0073,-0.4914,-0.002,0.8775,2.0437,0.2775,1.7351,-0.1913,0.836,2.2443,3.2201,4.8148,3.5278,3.8061,0.1032,-0.6752,-0.3631,1.707,2.0546,1.6632,3.1253,4.3032,4.3219,4.5614,2.9251,2.4952,3.4726,3.8502,-0.5442,-0.4525
0.8647,-0.6933,-0.182,0.5887,1.7272,0.0176,1.4034,-0.4021,0.6101,2.0126,3.0944,4.7868,3.1486,3.3922,-0.0044,-0.9017,-0.6517,1.572,1.7507,1.3618,2.7908,3.9735,4.1008,4.1708,2.7135,2.2692,3.157,3.7541,-0.5451,-0.3655
0.8146,-0.7785,-0.2716,0.4184,1.5382,-0.1454,1.201,-0.5496,0.4367,1.905,3.0706,4.8373,2.9121,3.127,-0.0394,-1.0134,-0.8425,1.4766,1.5723,1.2028,2.6132,3.7705,3.9697,3.8883,2.5514,2.0983,2.9413,3.7204,-0.5571,-0.3424
0.8601,-0.7558,-0.2737,0.3602,1.4682,-0.2162,1.1124,-0.6465,0.2953,1.8939,3.1221,4.9318,2.8086,3.0075,0.0007,-1.0184,-0.9337,1.4208,1.5124,1.177,2.5822,3.6842,3.9198,3.7075,2.4325,1.9675,2.8123,3.722,-0.5803,-0.3794
0.9932,-0.6464,-0.2013,0.3946,1.4947,-0.2099,1.1073,-0.7106,0.1611,1.9378,3.2093,5.0267,2.8104,3.0112,0.1113,-0.9343,-0.9328,1.4028,1.5509,1.261,2.6696,3.6882,3.9313,3.6056,2.3437,1.8554,2.7435,3.7244,-0.6131,-0.4659
1.1983,-0.478,-0.0741,0.4938,1.5859,-0.1484,1.1458,-0.7629,0.0073,1.987,3.2839,5.075,2.876,3.1006,0.283,-0.7835,-0.8537,1.4197,1.6593,1.4221,2.8347,3.7469,3.9775,3.548,2.268,1.7378,2.6996,3.6917,-0.6532,-0.5869
1.4554,-0.279,0.0865,0.6281,1.7065,-0.0562,1.1838,-0.8244,-0.1911,1.9914,3.2954,5.0331,2.9575,3.2305,0.5041,-0.5893,-0.7135,1.4687,1.8073,1.625,3.0328,3.8222,4.0308,3.4957,2.1887,1.5924,2.6426,3.5915,-0.6974,-0.7258
1.7444,-0.0731,0.2625,0.7716,1.8238,0.0443,1.1798,-0.914,-0.4539,1.9083,3.1997,4.868,3.0082,3.3559,0.7624,-0.3721,-0.5302,1.5478,1.967,1.8369,3.2223,3.8816,4.0679,3.4123,2.0921,1.4023,2.5385,3.4009,-0.7427,-0.8675
2.0473,0.124,0.4422,0.9059,1.9125,0.1364,1.102,-1.0441,-0.7917,1.7101,2.967,4.5634,2.9907,3.44,1.047,-0.1478,-0.3201,1.6551,2.1176,2.0323,3.3712,3.9031,4.0738,3.2712,1.9701,1.1597,2.3637,3.1099,-0.786,-1.0002
2.35,0.3057,0.6218,1.0217,1.9576,0.2106,0.9329,-1.2195,-1.2027,1.3892,2.5886,4.1234,2.8828,3.4591,1.3479,0.0736,-0.0972,1.7893,2.2464,2.1958,3.4619,3.8783,4.044,3.0609,1.8206,0.8662,2.1096,2.7247,-0.8242,-1.1177
2.6427,0.473,0.8032,1.1185,1.9554,0.2653,0.6719,-1.4357,-1.6724,0.9596,2.0801,3.5734,2.6803,3.4055,1.6568,0.2873,0.1274,1.9492,2.3496,2.3232,3.4922,3.8123,3.9846,2.786,1.647,0.5333,1.784,2.2666,-0.855,-1.2189
2.9198,0.632,0.9916,1.2017,1.9125,0.3049,0.3351,-1.6803,-2.1755,0.4543,1.4794,2.9571,2.3969,3.2872,1.9669,0.4926,0.3455,2.1336,2.4307,2.4205,3.4744,3.7207,3.91,2.4658,1.4572,0.1798,1.4092,1.7698,-0.8771,-1.3074
3.1787,0.7903,1.1916,1.2797,1.8426,0.3374,-0.0485,-1.9356,-2.6794,-0.0811,0.841,2.3289,2.0596,3.1239,2.2722,0.6913,0.5517,2.3406,2.4981,2.5011,3.4305,3.6251,3.8396,2.1293,1.2613,-0.1716,1.0178,1.2755,-0.89,-1.3896
3.4192,0.954,1.4043,1.3609,1.7634,0.3717,-0.4425,-2.1815,-3.1506,-0.5959,0.2261,1.7454,1.7034,2.9422,2.5677,0.8858,0.7428,2.5666,2.5622,2.5824,3.3873,3.5477,3.7935,1.8081,1.0703,-0.4987,0.6457,0.825,-0.8941,-1.4726
3.6427,1.1258,1.6268,1.4516,1.6927,0.4155,-0.8096,-2.3999,-3.5592,-1.0443,-0.3081,1.2553,1.3634,2.7691,2.8491,1.0777,0.9176,2.8063,2.633,2.6812,3.3699,3.5064,3.7879,1.5305,0.8935,-0.7842,0.325,0.4521,-0.89,-1.5626
3.8513,1.3052,1.8528,1.5554,1.6458,0.4736,-1.1178,-2.5769,-3.8845,-1.3918,-0.7187,0.8914,1.0694,2.6273,3.1133,1.2681,1.0765,3.0523,2.7174,2.8099,3.3965,3.5115,3.8321,1.3154,0.7374,-1.0187,0.0777,0.177,-0.8778,-1.6634
4.0483,1.4893,2.0742,1.6732,1.6334,0.5479,-1.3456,-2.7052,-4.1171,-1.6211,-0.9843,0.6655,0.8409,2.5313,3.3585,1.4573,1.2212,3.296,2.8189,2.9746,3.4761,3.5644,3.9268,1.1701,0.6045,-1.2029,-0.0884,0.0029,-0.8569,-1.7767
4.2381,1.6751,2.2838,1.8051,1.6608,0.6375,-1.4838,-2.7842,-4.2604,-1.7333,-1.1071,0.5673,0.6854,2.4871,3.5857,1.6455,1.3553,3.5289,2.9376,3.1744,3.6072,3.6586,4.0643,1.0902,0.4934,-1.3472,-0.1808,-0.0839,-0.8258,-1.9022
4.426,1.8606,2.4769,1.9503,1.7278,0.7391,-1.5362,-2.8199,-4.3291,-1.7461,-1.1112,0.568,0.5998,2.4928,3.7987,1.8338,1.4836,3.7443,3.0715,3.4025,3.7803,3.7825,4.2309,1.0626,0.399,-1.469,-0.2197,-0.1109,-0.783,-2.0388
4.618,2.0453,2.6518,2.1076,1.829,0.848,-1.5175,-2.8229,-4.3463,-1.6898,-1.0363,0.6265,0.5724,2.5409,4.0038,2.0233,1.6121,3.939,3.2174,3.6473,3.9806,3.922,4.41,1.0689,0.3142,-1.5892,-0.2331,-0.1132,-0.7268,-2.185
4.8192,2.2291,2.8093,2.2739,1.9548,0.9583,-1.4499,-2.8068,-4.3399,-1.601,-0.9288,0.6973,0.5875,2.6211,4.209,2.2142,1.7469,4.1138,3.3725,3.8953,4.191,4.0641,4.585,1.0898,0.2314,-1.7278,-0.2508,-0.1266,-0.657,-2.3391
5.0322,2.4106,2.9512,2.4431,2.0919,1.0628,-1.359,-2.786,-4.3382,-1.5157,-0.8338,0.7392,0.6286,2.7221,4.4211,2.4049,1.8922,4.2725,3.5336,4.1316,4.3955,4.1982,4.7423,1.1091,0.144,-1.8997,-0.2976,-0.1813,-0.5751,-2.4986
5.2557,2.5856,3.0786,2.6051,2.2246,1.1534,-1.27,-2.7741,-4.3655,-1.464,-0.7872,0.7211,0.6813,2.8332,4.6434,2.5905,2.0493,4.4204,3.6972,4.3425,4.5802,4.3171,4.8722,1.1155,0.048,-2.1124,-0.3887,-0.2968,-0.4849,-2.66
5.4844,2.7469,3.191,2.7466,2.3368,1.2217,-1.204,-2.7826,-4.439,-1.4654,-0.8117,0.6262,0.7351,2.9453,4.8739,2.7634,2.2148,4.5621,3.8586,4.5162,4.7357,4.4168,4.9698,1.1043,-0.0574,-2.3645,-0.5273,-0.4799,-0.3929,-2.8189
5.71,2.886,3.2864,2.8542,2.4142,1.26,-1.1757,-2.8202,-4.5669,-1.5281,-0.9147,0.4524,0.7845,3.0513,5.105,2.9153,2.3818,4.6994,4.0118,4.645,4.8567,4.4964,5.0347,1.0765,-0.17,-2.6467,-0.7048,-0.7247,-0.3072,-2.9696
5.9232,2.9954,3.3628,2.9177,2.4473,1.2633,-1.1918,-2.8914,-4.7478,-1.6486,-1.09,0.2106,0.8278,3.1467,5.3257,3.0393,2.5406,4.8307,4.1501,4.7266,4.9428,4.5572,5.0704,1.0384,-0.2849,-2.9438,-0.904,-1.0162,-0.2373,-3.1072
6.1165,3.0721,3.4191,2.934,2.4336,1.2311,-1.2514,-2.9968,-4.9717,-1.8143,-1.3209,-0.0796,0.8672,3.2298,5.5246,3.1332,2.6817,4.9524,4.2676,4.765,4.9986,4.6024,5.0831,0.9993,-0.3956,-3.2384,-1.1038,-1.3337,-0.1914,-3.2282
6.2866,3.1188,3.4573,2.9087,2.3786,1.1689,-1.3463,-3.132,-5.2224,-2.0068,-1.5852,-0.3944,0.907,3.302,5.6943,3.2012,2.7986,5.0604,4.361,4.7706,5.0323,4.6361,5.0812,0.9692,-0.4962,-3.514,-1.2842,-1.6563,-0.1753,-3.3325
6.435,3.1442,3.482,2.856,2.2952,1.0877,-1.4631,-3.2883,-5.4801,-2.2059,-1.8601,-0.7101,0.9526,3.3674,5.8338,3.2541,2.8897,5.1528,4.4307,4.7591,5.0552,4.6635,5.0739,0.9568,-0.5822,-3.7588,-1.4305,-1.9661,-0.1903,-3.4238
6.5681,3.1609,3.5001,2.7952,2.2014,1.0024,-1.5856,-3.4535,-5.7249,-2.3926,-2.1265,-1.0072,1.0092,3.4323,5.9503,3.3068,2.9595,5.2316,4.4819,4.7485,5.0793,4.6896,5.07,0.9675,-0.6519,-3.967,-1.5364,-2.2511,-0.2331,-3.5095
6.6953,3.1818,3.5184,2.7457,2.1161,0.9288,-1.698,-3.6136,-5.9406,-2.5524,-2.3717,-1.2724,1.0807,3.5035,6.0573,3.375,3.0171,5.3026,4.523,4.7559,5.1158,4.7197,5.0771,1.0022,-0.7068,-4.1395,-1.604,-2.506,-0.2955,-3.5993
6.8265,3.2166,3.5424,2.722,2.0545,0.8796,-1.7881,-3.7555,-6.1175,-2.6778,-2.5907,-1.5002,1.1684,3.5861,6.1715,3.4704,3.0734,5.3744,4.5639,4.7943,5.1722,4.758,5.1008,1.0571,-0.7512,-4.2832,-1.6428,-2.7319,-0.3669,-3.703
6.9694,3.2689,3.5745,2.73,2.0253,0.8615,-1.85,-3.8689,-6.2536,-2.7687,-2.7851,-1.6924,1.2702,3.6816,6.3078,3.5972,3.1376,5.4552,4.613,4.8687,5.2509,4.8071,5.144,1.1246,-0.7908,-4.4085,-1.6671,-2.9346,-0.4357,-3.8277
7.1265,3.3347,3.614,2.7654,2.0277,0.8733,-1.8849,-3.9483,-6.3544,-2.832,-2.9604,-1.8572,1.3801,3.7868,6.4741,3.7494,3.2131,5.5493,4.6731,4.9745,5.3475,4.8664,5.206,1.1944,-0.8309,-4.527,-1.6916,-3.1218,-0.4915,-3.9751
7.2941,3.4025,3.6574,2.8147,2.0531,0.9065,-1.9005,-3.9938,-6.4307,-2.8796,-3.1236,-2.0055,1.4885,3.8931,6.6677,3.9106,3.295,5.6542,4.7404,5.0973,5.4511,4.9313,5.2822,1.2558,-0.8752,-4.6478,-1.7292,-3.301,-0.5269,-4.1397
7.462,3.4561,3.6996,2.8583,2.0866,0.9477,-1.9089,-4.0102,-6.495,-2.9251,-3.2798,-2.1488,1.5835,3.9877,6.8739,4.0564,3.3694,5.7594,4.8029,5.2148,5.5457,4.9927,5.3634,1.2992,-0.9249,-4.7762,-1.7877,-3.4766,-0.5378,-4.3085
7.6153,3.4776,3.7347,2.8755,2.1108,0.9819,-1.9222,-4.0051,-6.5579,-2.9806,-3.4308,-2.2951,1.6528,4.0559,7.0689,4.1594,3.4162,5.848,4.8431,5.3013,5.6128,5.0378,5.4371,1.3175,-0.9784,-4.9119,-1.8694,-3.6491,-0.5237,-4.4631
7.7372,3.4522,3.7578,2.8491,2.1104,0.9968,-1.9495,-3.9872,-6.6251,-3.0533,-3.5746,-2.4475,1.6864,4.0844,7.2247,4.1946,3.4138,5.9004,4.8415,5.3332,5.6356,5.0527,5.4893,1.3069,-1.0325,-5.0502,-1.971,-3.8147,-0.487,-4.5837
7.8135,3.3723,3.7657,2.7698,2.0753,0.9854,-1.9941,-3.9636,-6.6958,-3.1436,-3.7053,-2.603,1.6788,4.0643,7.3162,4.1459,3.3452,5.9002,4.7821,5.2942,5.6028,5.0255,5.5074,1.2674,-1.0834,-5.1828,-2.0846,-3.9664,-0.4323,-4.6536
7.8356,3.2397,3.759,2.6387,2.0034,0.9483,-2.0529,-3.9382,-6.7636,-3.2449,-3.8147,-2.7535,1.6303,3.9937,7.3278,4.0105,3.2038,5.8391,4.6572,5.1808,5.5121,4.9501,5.4834,1.2024,-1.1282,-5.3008,-2.2,-4.0958,-0.3654,-4.6637
7.8031,3.0674,3.742,2.4681,1.901,0.8936,-2.1171,-3.912,-6.8177,-3.3456,-3.8936,-2.8877,1.5468,3.878,7.2576,3.8012,2.9975,5.7213,4.4713,5.0038,5.3718,4.8283,5.4165,1.1174,-1.1658,-5.3964,-2.3073,-4.1954,-0.2919,-4.6144
7.7244,2.8772,3.7226,2.2791,1.7818,0.8343,-2.1759,-3.8824,-6.8456,-3.4321,-3.9339,-2.9939,1.4375,3.7289,7.1184,3.545,2.7486,5.5634,4.2417,4.7877,5.1994,4.6706,5.3135,1.0183,-1.198,-5.4658,-2.3991,-4.2613,-0.2171,-4.5164
7.6149,2.6962,3.7103,2.0979,1.664,0.7858,-2.2191,-3.8449,-6.836,-3.4927,-3.93,-3.0625,1.312,3.5616,6.9357,3.2793,2.4914,5.3925,3.9964,4.5668,5.0191,4.4945,5.1885,0.9097,-1.2294,-5.5103,-2.4731,-4.2944,-0.145,-4.3881
7.4941,2.5514,3.7142,1.95,1.5661,0.7611,-2.2406,-3.7948,-6.7813,-3.5205,-3.8805,-3.0884,1.1776,3.3909,6.7424,3.0449,2.2652,5.2405,3.7692,4.378,4.8564,4.3209,5.0595,0.7937,-1.2662,-5.5362,-2.5325,-4.3007,-0.0787,-4.2522
7.382,2.4635,3.7402,1.8557,1.5031,0.7683,-2.24,-3.7283,-6.6794,-3.5157,-3.7889,-3.0718,1.0378,3.2289,6.5722,2.8777,2.1069,5.1372,3.593,4.2542,4.7335,4.1705,4.9451,0.6699,-1.3155,-5.5535,-2.5857,-4.2904,-0.0201,-4.1309
7.2952,2.4432,3.79,1.8261,1.4838,0.809,-2.222,-3.6437,-6.5342,-3.4849,-3.6638,-3.0182,0.8925,3.0834,6.4528,2.8024,2.0427,5.1038,3.4933,4.2172,4.6659,4.0598,4.8603,0.5366,-1.3828,-5.5739,-2.6435,-4.276,0.0303,-4.042
7.245,2.4891,3.8606,1.8625,1.5099,0.8786,-2.1948,-3.5418,-6.3548,-3.4387,-3.5167,-2.9376,0.7403,2.9588,6.4005,2.828,2.0836,5.1484,3.4838,4.2751,4.66,3.9988,4.8138,0.3933,-1.4705,-5.6069,-2.7155,-4.2693,0.0737,-3.9956
7.2358,2.5893,3.9461,1.9572,1.5768,0.9689,-2.1668,-3.4251,-6.1537,-3.3893,-3.3604,-2.8419,0.5815,2.8574,6.4183,2.9473,2.2234,5.2642,3.5641,4.4209,4.7139,3.9907,4.8063,0.2428,-1.5765,-5.6577,-2.8071,-4.2786,0.1122,-3.9931
7.2659,2.7253,4.0395,2.097,1.6763,1.0706,-2.1435,-3.2972,-5.9437,-3.3458,-3.2058,-2.7427,0.4209,2.782,6.4955,3.1397,2.4402,5.4313,3.7211,4.6361,4.819,4.0323,4.8318,0.0931,-1.6943,-5.7249,-2.9165,-4.307,0.1489,-4.0284
7.328,2.8771,4.1345,2.2666,1.799,1.1759,-2.1251,-3.161,-5.735,-3.3116,-3.0595,-2.6482,0.2694,2.7368,6.6114,3.3769,2.7021,5.6207,3.9318,4.8945,4.9632,4.1164,4.8792,-0.0419,-1.8136,-5.8005,-3.0337,-4.3511,0.1865,-4.0902
7.4116,3.0275,4.2271,2.4515,1.937,1.2806,-2.1053,-3.0183,-5.5333,-3.283,-2.922,-2.5618,0.1436,2.7284,6.7403,3.6285,2.973,5.8006,4.1684,5.168,5.1336,4.2337,4.9362,-0.1441,-1.9219,-5.8708,-3.1414,-4.4008,0.2269,-4.1657
7.5042,3.1649,4.3153,2.6398,2.0847,1.3834,-2.0724,-2.8692,-5.3384,-3.249,-2.7876,-2.4814,0.0639,2.7641,6.8568,3.8679,3.2194,5.9419,4.4035,5.4316,5.3186,4.3748,4.9918,-0.1932,-2.006,-5.9191,-3.2178,-4.4411,0.2702,-4.2431
7.5928,3.2834,4.3976,2.8218,2.2383,1.4851,-2.0121,-2.7127,-5.1455,-3.194,-2.6457,-2.4,0.0507,2.8505,6.9404,4.0753,3.4157,6.024,4.614,5.666,5.5089,4.5315,5.0386,-0.171,-2.0544,-5.9279,-3.2403,-4.4542,0.3145,-4.3138
7.6648,3.3811,4.4718,2.9895,2.3946,1.5863,-1.9115,-2.5481,-4.9468,-3.1018,-2.4841,-2.3073,0.1202,2.9915,6.9782,4.2391,3.547,6.0369,4.7841,5.8594,5.6978,4.6971,5.0737,-0.0642,-2.058,-5.8826,-3.1896,-4.4229,0.3556,-4.3726
7.7083,3.4572,4.5326,3.1342,2.5487,1.6853,-1.7628,-2.376,-4.7347,-2.9601,-2.2916,-2.1926,0.2808,3.1864,6.9651,4.3543,3.6095,5.9824,4.9059,6.0063,5.8802,4.8659,5.0979,0.1323,-2.0114,-5.7733,-3.0532,-4.3336,0.388,-4.417
7.7128,3.5096,4.5718,3.2462,2.6929,1.7767,-1.5657,-2.1998,-4.5046,-2.7639,-2.0616,-2.0467,0.5307,3.4292,6.9024,4.4207,3.6089,5.8707,4.978,6.1055,6.0522,5.0324,5.1143,0.4138,-1.9136,-5.5964,-2.8278,-4.1783,0.4054,-4.4456
7.6708,3.534,4.5786,3.3155,2.8176,1.8525,-1.3279,-2.0249,-4.2568,-2.517,-1.7934,-1.8637,0.8582,3.7093,6.7952,4.4402,3.5566,5.7173,5.0038,6.1583,6.2096,5.1903,5.1267,0.7666,-1.7681,-5.3553,-2.52,-3.9566,0.4024,-4.4565
7.5784,3.5245,4.5428,3.3338,2.9128,1.904,-1.0623,-1.8579,-3.9958,-2.2311,-1.4922,-1.6424,1.2442,4.0129,6.651,4.4157,3.4663,5.5385,4.9888,6.1667,6.3485,5.3325,5.1385,1.1697,-1.5821,-5.0593,-2.1447,-3.6745,0.3762,-4.4474
7.4372,3.477,4.4579,3.2978,2.9723,1.9259,-0.7838,-1.7036,-3.7288,-1.9219,-1.1675,-1.3853,1.6659,4.3261,6.4782,4.3507,3.3508,5.3486,4.9396,6.1338,6.466,5.4519,5.1518,1.599,-1.3655,-4.7218,-1.7231,-3.3434,0.3275,-4.4159
7.2541,3.3911,4.3243,3.2114,2.9963,1.9186,-0.5041,-1.5628,-3.4628,-1.6044,-0.8307,-1.0976,2.102,4.6369,6.2857,4.2504,3.2208,5.1583,4.8629,6.0642,6.5605,5.543,5.1676,2.0312,-1.1293,-4.3577,-1.2782,-2.9777,0.2611,-4.3614
7.0412,3.2721,4.151,3.0868,2.9936,1.8901,-0.2287,-1.431,-3.2016,-1.2892,-0.4923,-0.7863,2.5358,4.9373,6.0828,4.1222,3.0842,4.9744,4.7658,5.965,6.6333,5.6031,5.1866,2.4473,-0.8835,-3.9812,-0.8318,-2.5921,0.1851,-4.2859
6.8136,3.1314,3.9544,2.9428,2.9798,1.8548,0.0442,-1.2987,-2.9443,-0.9795,-0.1603,-0.4583,2.9575,5.2237,5.8787,3.9768,2.9464,4.8009,4.6554,5.8462,6.6879,5.6337,5.2091,2.8355,-0.6362,-3.6039,-0.4011,-2.2,0.1095,-4.1948
6.5875,2.9842,3.7554,2.8013,2.9748,1.8305,0.3224,-1.1536,-2.6858,-0.672,0.161,-0.1203,3.3633,5.4962,5.682,3.827,2.8114,4.64,4.5402,5.7205,6.7305,5.6408,5.2354,3.191,-0.3928,-3.2341,0.0029,-1.8123,0.0438,-4.0968
6.3779,2.8467,3.5743,2.6838,2.9973,1.8336,0.6155,-0.9837,-2.4186,-0.3598,0.4699,0.2213,3.7533,5.7571,5.5004,3.6871,2.6824,4.4935,4.4289,5.6028,6.7685,5.6339,5.266,3.5148,-0.1575,-2.8774,0.375,-1.4377,-0.0047,-4.0024
6.1967,2.7334,3.4274,2.6069,3.06,1.8749,0.9303,-0.7814,-2.1368,-0.0363,0.7667,0.5589,4.1282,6.008,5.3398,3.571,2.5625,4.3631,4.3306,5.508,6.8096,5.6244,5.3006,3.8107,0.0657,-2.5382,0.7144,-1.0837,-0.0323,-3.9227
6.0521,2.6544,3.3233,2.5795,3.1661,1.9568,1.2658,-0.5458,-1.8384,0.3,1.0521,0.8828,4.4852,6.2479,5.2037,3.491,2.4553,4.2503,4.2533,5.4497,6.8604,5.6226,5.338,4.0816,0.2712,-2.2218,1.0217,-0.7577,-0.0395,-3.867
5.948,2.6144,3.2622,2.6026,3.3079,2.0728,1.6122,-0.2839,-1.5281,0.6432,1.326,1.1813,4.8171,6.472,5.0932,3.456,2.3643,4.1566,4.2027,5.4382,6.9247,5.6357,5.3749,4.3265,0.4507,-1.9356,1.2968,-0.4675,-0.03,-3.8416
5.884,2.613,3.2374,2.67,3.4695,2.2093,1.9513,-0.0091,-1.2159,0.9803,1.5874,1.4414,5.1118,6.6719,5.0069,3.4711,2.2929,4.0819,4.1812,5.4794,7.0032,5.666,5.4062,4.54,0.5938,-1.6893,1.5377,-0.2215,-0.0096,-3.8489
5.8569,2.646,3.2371,2.7717,3.6307,2.3498,2.2616,0.2624,-0.9153,1.2941,1.835,1.6517,5.356,6.8377,4.9422,3.5372,2.2432,4.025,4.1877,5.5737,7.0935,5.7107,5.4257,4.7132,0.6897,-1.493,1.7412,-0.0266,0.0154,-3.8872
5.8608,2.7067,3.2487,2.8958,3.7726,2.4794,2.5243,0.5155,-0.6389,1.569,2.0682,1.805,5.5392,6.9608,4.8951,3.6507,2.2158,3.9832,4.2181,5.7174,7.1915,5.7637,5.4272,4.8378,0.731,-1.3539,1.9048,0.1136,0.0399,-3.952
5.8885,2.7874,3.2609,3.0319,3.8823,2.5877,2.7285,0.7405,-0.3948,1.7957,2.288,1.9014,5.6579,7.0379,4.8611,3.8049,2.2089,3.9529,4.2664,5.9027,7.2929,5.8177,5.4072,4.9096,0.7158,-1.2734,2.0295,0.2011,0.0603,-4.0366
5.9318,2.8802,3.2656,3.1716,3.9557,2.6714,2.8754,0.9352,-0.1835,1.9747,2.4979,1.949,5.7187,7.0725,4.8351,3.99,2.2188,3.9299,4.3259,6.119,7.3943,5.8672,5.3658,4.9325,0.6506,-1.2445,2.1213,0.2448,0.0749,-4.1337
5.9824,2.978,3.2591,3.3091,3.9976,2.7332,2.9778,1.1053,0.002,2.1168,2.7031,1.9634,5.7377,7.0755,4.8122,4.194,2.2397,3.9098,4.3904,6.3543,7.494,5.9096,5.3072,4.9189,0.5491,-1.252,2.1913,0.2594,0.0837,-4.2366
6.0324,3.0742,3.2413,3.441,4.0195,2.7806,3.057,1.2616,0.1747,2.2403,2.9091,1.9643,5.7377,7.0638,4.7877,4.4043,2.2646,3.889,4.4545,6.5959,7.5919,5.9461,5.2393,4.8882,0.4309,-1.2751,2.2538,0.2634,0.0878,-4.3393
