FP1,F3,F7,FC3,C3,C5,P3,P7,PO7,PO3,O1,Oz,Pz,CPz,FP2,Fz,F4,F8,FC4,FCz,Cz,C4,C6,P4,P8,PO8,PO4,O2,(corr) HEOG,(corr) VEOG
-0.0962,-0.8156,0.3293,-1.1659,-1.0433,-0.1544,-0.3716,-0.3571,-0.6126,0.1442,0.4669,1.2666,0.4941,0.06,-0.1689,-0.5771,0.1152,-0.6725,0.6107,-0.3302,-0.2865,0.8002,0.0804,0.6988,0.3089,0.6412,0.8529,0.9658,0.2496,-2.1885
-0.0712,-0.5497,0.3477,-0.9455,-0.8174,0.0188,-0.2168,-0.2966,-0.4471,0.3526,0.6168,1.2465,0.4976,-0.041,-0.2893,-0.4674,-0.1771,-0.6859,0.1951,-0.3655,-0.4381,0.2568,-0.1107,0.5888,0.393,0.7307,0.8672,0.9359,0.482,-2.3624
-0.0445,-0.3048,0.366,-0.7332,-0.5917,0.189,-0.05,-0.2184,-0.2748,0.5554,0.7559,1.2199,0.5268,-0.1013,-0.4012,-0.3672,-0.4343,-0.7077,-0.1812,-0.3871,-0.5489,-0.2226,-0.2802,0.5174,0.4843,0.828,0.8968,0.9114,0.6878,-2.5105
-0.0086,-0.0897,0.3904,-0.5315,-0.3658,0.3536,0.1339,-0.1111,-0.0929,0.7444,0.8744,1.1846,0.5991,-0.0893,-0.49,-0.2795,-0.6246,-0.7383,-0.4848,-0.3809,-0.5853,-0.5854,-0.408,0.5118,0.5858,0.9364,0.9499,0.8966,0.8468,-2.6276
0.0397,0.088,0.4206,-0.3424,-0.1418,0.5051,0.3305,0.0256,0.0928,0.9079,0.9613,1.1374,0.7212,0.0129,-0.5459,-0.2044,-0.727,-0.7733,-0.6879,-0.3343,-0.5242,-0.7931,-0.4771,0.5852,0.6965,1.0539,1.0275,0.8923,0.9448,-2.7018
0.0994,0.2245,0.4511,-0.167,0.0753,0.6332,0.5248,0.1796,0.2677,1.0317,1.005,1.0744,0.8866,0.2056,-0.5638,-0.1377,-0.7337,-0.8027,-0.7718,-0.2382,-0.3577,-0.8276,-0.4758,0.7337,0.8099,1.1717,1.1216,0.8944,0.9763,-2.7172
0.1683,0.3218,0.4748,-0.0046,0.2788,0.7271,0.6949,0.3299,0.4111,1.1007,0.9966,0.9917,1.0759,0.4704,-0.5405,-0.0714,-0.6492,-0.8116,-0.7304,-0.0889,-0.0947,-0.694,-0.3992,0.936,0.9151,1.2757,1.2159,0.8952,0.9439,-2.6606
0.2457,0.3907,0.4886,0.1477,0.4619,0.7803,0.8173,0.4522,0.5019,1.1038,0.9327,0.8873,1.2602,0.7739,-0.4725,0.0058,-0.488,-0.7822,-0.5724,0.1104,0.2393,-0.4201,-0.2509,1.1575,0.998,1.3484,1.2885,0.8847,0.8582,-2.5315
0.3351,0.4503,0.4978,0.2956,0.6199,0.7941,0.8734,0.5258,0.5252,1.037,0.8181,0.7626,1.4073,1.074,-0.3539,0.1067,-0.2704,-0.6978,-0.3208,0.3492,0.6065,-0.0515,-0.0423,1.3569,1.0448,1.3737,1.317,0.8534,0.7357,-2.3478
0.4442,0.5252,0.5155,0.4457,0.7513,0.7785,0.8552,0.5391,0.4768,0.9067,0.6667,0.6233,1.4887,1.3281,-0.1774,0.2424,-0.0183,-0.5481,-0.0094,0.6111,0.9638,0.3572,0.208,1.4952,1.0452,1.3406,1.2834,0.7953,0.5958,-2.1464
0.5817,0.6386,0.5598,0.6041,0.8581,0.7504,0.7679,0.493,0.3663,0.7303,0.4998,0.4799,1.4857,1.5017,0.0618,0.4195,0.2477,-0.3324,0.3239,0.8762,1.2709,0.7526,0.4778,1.5435,0.9953,1.2469,1.1794,0.7101,0.4582,-1.975
0.7536,0.8058,0.6465,0.7737,0.9442,0.7292,0.6286,0.3998,0.2147,0.5329,0.3419,0.3456,1.3925,1.574,0.3615,0.6379,0.5115,-0.0627,0.6447,1.1249,1.4973,1.0922,0.7442,1.4881,0.8991,1.1002,1.0086,0.6038,0.339,-1.8789
0.9579,1.0267,0.7821,0.9519,1.0138,0.7308,0.4619,0.2797,0.0502,0.3426,0.2154,0.2334,1.2167,1.5402,0.7084,0.8891,0.7614,0.2382,0.929,1.3406,1.6273,1.3512,0.9874,1.3332,0.7682,0.9167,0.7861,0.4871,0.2481,-1.8854
1.1822,1.2843,0.9593,1.1296,1.0687,0.7631,0.2938,0.1549,-0.0992,0.1841,0.1351,0.1524,0.9765,1.41,1.0764,1.1566,0.9907,0.54,1.1664,1.5117,1.6605,1.524,1.1926,1.0989,0.6193,0.7181,0.5356,0.3728,0.1875,-1.9929
1.4033,1.5461,1.156,1.2918,1.1069,0.8224,0.1451,0.0443,-0.2122,0.0728,0.1038,0.1048,0.6953,1.2031,1.4289,1.4175,1.1951,0.8112,1.3583,1.6314,1.6087,1.6203,1.3512,0.816,0.4715,0.5265,0.2843,0.272,0.1518,-2.1686
1.5907,1.771,1.3388,1.4197,1.1221,0.8938,0.0267,-0.0407,-0.2782,0.0115,0.1119,0.0851,0.3966,0.9428,1.7238,1.6443,1.3692,1.0246,1.5123,1.696,1.4902,1.6585,1.4589,0.5193,0.3421,0.3607,0.0573,0.1915,0.1305,-2.3558
1.7116,1.9187,1.4705,1.4935,1.1045,0.9541,-0.0617,-0.0979,-0.2992,-0.0104,0.1389,0.0805,0.0995,0.6512,1.9208,1.8081,1.5042,1.1618,1.6339,1.702,1.3229,1.6559,1.514,0.2404,0.2441,0.2325,-0.1265,0.1322,0.1119,-2.4896
1.7376,1.9582,1.5193,1.497,1.043,0.9776,-0.1295,-0.1326,-0.2869,-0.0132,0.1592,0.0737,-0.1831,0.3452,1.9878,1.8813,1.5851,1.2148,1.7195,1.644,1.1198,1.6214,1.5147,0.0018,0.1836,0.1451,-0.2579,0.0891,0.0874,-2.5137
1.6495,1.873,1.4655,1.4194,0.9282,0.9421,-0.1909,-0.155,-0.2586,-0.0214,0.1476,0.0464,-0.4448,0.0355,1.9066,1.8406,1.5912,1.1858,1.7524,1.5129,0.8855,1.5521,1.4576,-0.1853,0.1593,0.0937,-0.3373,0.0532,0.0543,-2.393
1.4406,1.6623,1.3061,1.2577,0.7553,0.8344,-0.2589,-0.1751,-0.2314,-0.0574,0.0866,-0.0167,-0.6831,-0.2712,1.6753,1.6693,1.4983,1.0844,1.7041,1.2971,0.6181,1.4332,1.3381,-0.3217,0.163,0.067,-0.3733,0.0137,0.0154,-2.1186
1.1171,1.3382,1.0542,1.0162,0.5266,0.6538,-0.3402,-0.1999,-0.2175,-0.1349,-0.0296,-0.124,-0.8965,-0.5696,1.3083,1.3598,1.2842,0.9251,1.5408,0.9863,0.3122,1.2443,1.1523,-0.4169,0.1813,0.0501,-0.3803,-0.0388,-0.0224,-1.7053
0.6977,0.922,0.7354,0.7066,0.2535,0.4131,-0.4319,-0.2304,-0.2211,-0.2548,-0.1935,-0.2746,-1.0822,-0.8522,0.8344,0.917,0.9357,0.7245,1.2346,0.5764,-0.0346,0.9672,0.8998,-0.4855,0.1978,0.0276,-0.374,-0.1099,-0.0518,-1.1842
0.2113,0.4413,0.3822,0.3474,-0.0432,0.1362,-0.5221,-0.2616,-0.2374,-0.4051,-0.3856,-0.4575,-1.2341,-1.107,0.2935,0.361,0.4559,0.5002,0.7757,0.0765,-0.4157,0.5951,0.5875,-0.5418,0.1964,-0.013,-0.3691,-0.2007,-0.0679,-0.5947
-0.3044,-0.0722,0.0281,-0.0369,-0.3352,-0.1447,-0.5921,-0.2842,-0.2549,-0.5623,-0.5789,-0.653,-1.3432,-1.3167,-0.267,-0.2708,-0.129,0.2692,0.1824,-0.4862,-0.8112,0.1396,0.2315,-0.596,0.1641,-0.0796,-0.376,-0.3068,-0.0701,0.0217
-0.8064,-0.5831,-0.2976,-0.4158,-0.5895,-0.3952,-0.6215,-0.2873,-0.2592,-0.6973,-0.7444,-0.8363,-1.398,-1.4601,-0.7975,-0.9239,-0.7686,0.0479,-0.4953,-1.0652,-1.1871,-0.367,-0.1426,-0.6514,0.0936,-0.1736,-0.3993,-0.4195,-0.0622,0.6247
-1.2493,-1.0532,-0.5725,-0.7554,-0.7734,-0.5838,-0.5936,-0.2619,-0.237,-0.7814,-0.8566,-0.9819,-1.3872,-1.5161,-1.2501,-1.5313,-1.3919,-0.1494,-1.1801,-1.5991,-1.4994,-0.8745,-0.5025,-0.7044,-0.0152,-0.2902,-0.4377,-0.5272,-0.0507,1.1766
-1.5904,-1.443,-0.7813,-1.0215,-0.8609,-0.6876,-0.5005,-0.2029,-0.1805,-0.793,-0.8985,-1.0691,-1.3024,-1.4684,-1.5839,-2.0224,-1.9174,-0.3108,-1.7802,-2.0205,-1.7019,-1.3229,-0.814,-0.7459,-0.1552,-0.4198,-0.4848,-0.6179,-0.0421,1.6414
-1.7946,-1.7154,-0.9154,-1.1856,-0.8387,-0.6966,-0.3455,-0.1105,-0.0888,-0.7223,-0.8637,-1.0861,-1.1414,-1.3107,-1.7694,-2.3351,-2.2683,-0.4276,-2.2075,-2.2699,-1.7573,-1.6541,-1.0473,-0.7649,-0.3138,-0.5503,-0.532,-0.6813,-0.041,1.987
-1.841,-1.8424,-0.9716,-1.2312,-0.7114,-0.6164,-0.1439,0.0101,0.0318,-0.5737,-0.7573,-1.0326,-0.9111,-1.0513,-1.7933,-2.4288,-2.3889,-0.4956,-2.3965,-2.3096,-1.6479,-1.825,-1.1831,-0.7529,-0.4758,-0.6696,-0.5706,-0.7111,-0.049,2.1891
-1.729,-1.8125,-0.9534,-1.1603,-0.5028,-0.4682,0.0788,0.1497,0.1692,-0.3652,-0.5943,-0.9193,-0.6293,-0.7151,-1.6622,-2.2953,-2.2589,-0.5154,-2.3208,-2.1349,-1.3832,-1.8175,-1.2178,-0.7075,-0.6267,-0.7678,-0.5951,-0.7056,-0.0641,2.2378
-1.4815,-1.6374,-0.8727,-0.9956,-0.254,-0.2857,0.2912,0.2957,0.3082,-0.1256,-0.3972,-0.7655,-0.324,-0.3419,-1.4036,-1.9637,-1.9011,-0.4931,-2.0012,-1.7786,-1.0019,-1.6444,-1.1641,-0.6347,-0.7548,-0.8392,-0.6041,-0.6688,-0.0828,2.1442
-1.1443,-1.3539,-0.7499,-0.7778,-0.0166,-0.1101,0.4614,0.4337,0.4329,0.1105,-0.1921,-0.5951,-0.0303,0.0187,-1.0637,-1.4976,-1.3797,-0.4394,-1.5029,-1.3067,-0.5659,-1.3473,-1.049,-0.5488,-0.8525,-0.8822,-0.6009,-0.6086,-0.1017,1.9424
-0.7785,-1.0191,-0.6131,-0.558,0.1584,0.0187,0.5627,0.5486,0.5283,0.309,-0.0057,-0.4317,0.2147,0.3157,-0.7001,-0.9826,-0.7881,-0.3688,-0.9223,-0.8055,-0.1493,-0.9889,-0.9074,-0.4686,-0.9161,-0.8987,-0.5917,-0.5359,-0.1194,1.685
-0.4492,-0.699,-0.4928,-0.3861,0.2314,0.0701,0.5788,0.626,0.5828,0.441,0.1384,-0.2949,0.3789,0.5066,-0.3708,-0.5091,-0.23,-0.2972,-0.3666,-0.3635,0.1782,-0.6396,-0.7737,-0.4135,-0.944,-0.8922,-0.5834,-0.4621,-0.137,1.4322
-0.2105,-0.4533,-0.4147,-0.298,0.1846,0.0298,0.5065,0.654,0.588,0.487,0.2227,-0.198,0.4415,0.5667,-0.122,-0.1524,0.2044,-0.238,0.0693,-0.0515,0.3655,-0.3624,-0.6741,-0.3982,-0.9365,-0.8667,-0.581,-0.3974,-0.1578,1.2374
-0.0931,-0.3197,-0.3932,-0.306,0.0265,-0.0966,0.356,0.6251,0.5406,0.4401,0.2379,-0.1461,0.3977,0.494,0.0217,0.0442,0.458,-0.1995,0.3226,0.0925,0.3927,-0.2002,-0.6209,-0.4283,-0.895,-0.8258,-0.5855,-0.3488,-0.1853,1.1347
-0.0967,-0.3039,-0.4262,-0.3952,-0.2087,-0.2847,0.1495,0.5376,0.4425,0.3062,0.184,-0.1368,0.2601,0.3111,0.0627,0.0781,0.5183,-0.1826,0.3739,0.0717,0.2748,-0.1674,-0.6107,-0.4985,-0.8218,-0.7719,-0.5935,-0.3195,-0.2221,1.1315
-0.1909,-0.3786,-0.4959,-0.5264,-0.469,-0.4976,-0.083,0.3963,0.301,0.1032,0.0706,-0.1608,0.0575,0.0606,0.0287,-0.0142,0.4175,-0.1799,0.2488,-0.0722,0.0578,-0.248,-0.6268,-0.5931,-0.7219,-0.7076,-0.5979,-0.3085,-0.2679,1.2094
-0.3241,-0.4918,-0.5744,-0.6473,-0.6968,-0.694,-0.3086,0.2129,0.1287,-0.1413,-0.0845,-0.2042,-0.1708,-0.2037,-0.0366,-0.1684,0.2205,-0.1787,0.0084,-0.2706,-0.1929,-0.4013,-0.6442,-0.6888,-0.6026,-0.6358,-0.59,-0.3112,-0.3195,1.3332
-0.4391,-0.5835,-0.6327,-0.707,-0.8426,-0.8388,-0.497,0.0044,-0.0574,-0.3946,-0.2577,-0.2513,-0.3826,-0.4279,-0.0858,-0.3114,0.0055,-0.1647,-0.268,-0.4477,-0.4088,-0.5726,-0.6375,-0.7603,-0.4742,-0.5607,-0.562,-0.3207,-0.3715,1.4643
-0.4887,-0.6035,-0.65,-0.6713,-0.8776,-0.9109,-0.6254,-0.2087,-0.2374,-0.6233,-0.4225,-0.2872,-0.5411,-0.5703,-0.0825,-0.3811,-0.157,-0.1265,-0.502,-0.5397,-0.5353,-0.7064,-0.5873,-0.7854,-0.3492,-0.4874,-0.5102,-0.3294,-0.4184,1.5743
-0.4494,-0.5276,-0.6211,-0.5322,-0.7998,-0.9075,-0.6819,-0.404,-0.3906,-0.7985,-0.554,-0.3005,-0.6227,-0.6096,-0.0113,-0.3421,-0.2206,-0.0589,-0.6344,-0.5113,-0.5446,-0.7589,-0.4853,-0.7506,-0.2404,-0.4223,-0.4359,-0.3307,-0.457,1.6527
-0.3266,-0.3635,-0.5577,-0.3112,-0.6343,-0.8436,-0.6667,-0.5606,-0.4979,-0.9,-0.6328,-0.285,-0.621,-0.5493,0.1187,-0.1932,-0.1702,0.0348,-0.6354,-0.3627,-0.4414,-0.7073,-0.3364,-0.6547,-0.1593,-0.3716,-0.3466,-0.3208,-0.4878,1.7079
-0.152,-0.1488,-0.4843,-0.0525,-0.4248,-0.7464,-0.5909,-0.6605,-0.5437,-0.9194,-0.6483,-0.241,-0.5475,-0.4155,0.2766,0.0351,-0.0199,0.1445,-0.5076,-0.1273,-0.2594,-0.553,-0.1576,-0.5095,-0.114,-0.3408,-0.2546,-0.2997,-0.5153,1.7629
0.0266,0.0615,-0.4309,0.1896,-0.2217,-0.6466,-0.4726,-0.6906,-0.5181,-0.8604,-0.601,-0.175,-0.4282,-0.2494,0.419,0.2914,0.1957,0.2549,-0.2813,0.14,-0.0515,-0.3206,0.0251,-0.3375,-0.1084,-0.3338,-0.1756,-0.2717,-0.547,1.8467
0.1588,0.211,-0.4232,0.3666,-0.067,-0.5695,-0.3317,-0.6444,-0.4181,-0.7371,-0.5016,-0.0988,-0.2961,-0.0961,0.5011,0.5179,0.4335,0.349,-0.005,0.3787,0.1256,-0.0519,0.1824,-0.1678,-0.1419,-0.3527,-0.1251,-0.2455,-0.5892,1.9853
0.2062,0.2598,-0.4745,0.4495,0.0166,-0.5281,-0.1845,-0.5222,-0.2483,-0.5701,-0.3688,-0.0274,-0.1828,0.0066,0.4879,0.6665,0.6526,0.4111,0.2668,0.5392,0.2261,0.2026,0.2857,-0.0295,-0.2099,-0.3971,-0.1152,-0.2318,-0.6437,2.1931
0.1518,0.1953,-0.5809,0.4362,0.0315,-0.5205,-0.0401,-0.3316,-0.0198,-0.3816,-0.2242,0.0246,-0.1106,0.0376,0.3632,0.7091,0.8224,0.4292,0.4849,0.5946,0.2262,0.3937,0.3131,0.0543,-0.305,-0.4641,-0.1514,-0.2412,-0.705,2.4689
0.0046,0.0365,-0.7223,0.351,0.0033,-0.5319,0.1011,-0.0869,0.2503,-0.1912,-0.0882,0.0461,-0.0873,-0.0032,0.1328,0.6438,0.9261,0.3971,0.6146,0.5461,0.1293,0.4827,0.2524,0.0707,-0.4181,-0.5487,-0.2314,-0.2816,-0.7611,2.7941
-0.2036,-0.1723,-0.8673,0.2368,-0.0288,-0.5402,0.2461,0.1918,0.5413,-0.013,0.0245,0.0326,-0.105,-0.0962,-0.1754,0.4928,0.9617,0.3156,0.6414,0.4205,-0.0371,0.4494,0.1044,0.02,-0.5399,-0.645,-0.3448,-0.3556,-0.796,3.1367
-0.4263,-0.3733,-0.9813,0.1423,-0.0239,-0.5234,0.4044,0.4809,0.8305,0.1451,0.1064,-0.0131,-0.1438,-0.2079,-0.5176,0.2954,0.9386,0.1932,0.5722,0.261,-0.229,0.2954,-0.1168,-0.0855,-0.6625,-0.7469,-0.4757,-0.4597,-0.7953,3.4585
-0.6145,-0.5115,-1.0353,0.1081,0.0477,-0.4663,0.5839,0.7552,1.0959,0.2805,0.1575,-0.082,-0.1774,-0.3004,-0.8425,0.0978,0.8735,0.0444,0.4326,0.1159,-0.3978,0.0447,-0.3854,-0.2246,-0.7804,-0.8497,-0.6061,-0.585,-0.7505,3.7237
-0.7271,-0.5473,-1.0125,0.1571,0.1969,-0.3644,0.7865,0.9917,1.3177,0.3938,0.1833,-0.1605,-0.1813,-0.3408,-1.1011,-0.0572,0.7864,-0.1123,0.2604,0.0262,-0.502,-0.2616,-0.6671,-0.372,-0.8911,-0.9509,-0.7201,-0.7191,-0.6623,3.9057
-0.7393,-0.465,-0.9109,0.2899,0.4135,-0.2243,1.0054,1.1716,1.4812,0.4868,0.193,-0.234,-0.1391,-0.3089,-1.2558,-0.1385,0.6972,-0.2571,0.0975,0.017,-0.5157,-0.5725,-0.9246,-0.5034,-0.9946,-1.0504,-0.8071,-0.849,-0.5413,3.9914
-0.6461,-0.2739,-0.7431,0.4876,0.6704,-0.0609,1.226,1.284,1.5779,0.5605,0.1971,-0.2898,-0.047,-0.2014,-1.2859,-0.1317,0.6238,-0.3717,-0.0186,0.0931,-0.4335,-0.8371,-1.123,-0.5998,-1.0926,-1.1496,-0.8636,-0.963,-0.405,3.9802
-0.4617,-0.0035,-0.5316,0.7188,0.9317,0.1072,1.429,1.3264,1.6072,0.6158,0.2063,-0.3185,0.0857,-0.032,-1.1908,-0.0395,0.5808,-0.4409,-0.0618,0.2401,-0.2705,-1.0141,-1.2359,-0.6507,-1.1867,-1.25,-0.8927,-1.0534,-0.2742,3.8819
-0.2151,0.3049,-0.3047,0.9491,1.1623,0.2627,1.5949,1.3055,1.5763,0.6533,0.2303,-0.3159,0.2394,0.1728,-0.9894,0.1198,0.5765,-0.4554,-0.0224,0.4281,-0.0577,-1.0792,-1.2499,-0.655,-1.2774,-1.3524,-0.9015,-1.1163,-0.168,3.7132
0.0555,0.6075,-0.0917,1.1489,1.3354,0.3929,1.709,1.2362,1.4994,0.6752,0.2767,-0.2828,0.3889,0.3792,-0.7171,0.3162,0.6115,-0.413,0.0913,0.6193,0.1646,-1.0296,-1.1679,-0.6194,-1.3626,-1.4547,-0.8977,-1.1517,-0.0998,3.4971
0.3086,0.8654,0.0796,1.2979,1.4366,0.4901,1.7652,1.1388,1.3963,0.6853,0.3499,-0.2241,0.5099,0.5533,-0.4211,0.514,0.6766,-0.32,0.2548,0.7759,0.3552,-0.884,-1.009,-0.5559,-1.4366,-1.5501,-0.8855,-1.161,-0.0757,3.2626
0.5056,1.0489,0.1853,1.3863,1.4642,0.5506,1.7675,1.0366,1.2897,0.6893,0.4498,-0.1484,0.5835,0.6674,-0.1532,0.6769,0.7534,-0.1915,0.4332,0.8669,0.4795,-0.6778,-0.8051,-0.4775,-1.4893,-1.625,-0.8619,-1.1448,-0.0945,3.0458
0.6148,1.1397,0.207,1.4129,1.4263,0.5726,1.7284,0.9523,1.2023,0.6932,0.5696,-0.0667,0.5999,0.7043,0.036,0.7745,0.8176,-0.0507,0.5876,0.8736,0.5153,-0.456,-0.5948,-0.3941,-1.506,-1.6583,-0.8157,-1.1,-0.15,2.8891
0.6141,1.1292,0.1319,1.3812,1.3362,0.5542,1.6652,0.905,1.154,0.7014,0.695,0.0079,0.5581,0.6585,0.104,0.7857,0.8432,0.0743,0.6833,0.7913,0.4553,-0.2641,-0.4168,-0.3103,-1.4682,-1.6217,-0.7283,-1.0192,-0.2341,2.8395
0.4919,1.0168,-0.0462,1.2962,1.2074,0.4925,1.5952,0.9079,1.1596,0.7143,0.805,0.0605,0.4641,0.5346,0.0198,0.7006,0.8077,0.1534,0.6944,0.6274,0.3058,-0.1405,-0.3035,-0.2248,-1.3557,-1.483,-0.5779,-0.8916,-0.338,2.9435
0.2461,0.8065,-0.3272,1.1622,1.0509,0.3849,1.5309,0.9666,1.2268,0.7279,0.8743,0.0749,0.327,0.3441,-0.2335,0.5193,0.6964,0.158,0.6069,0.3964,0.0825,-0.1118,-0.2779,-0.1335,-1.1513,-1.2131,-0.3465,-0.7061,-0.4536,3.241
-0.1178,0.5044,-0.7047,0.9814,0.873,0.2302,1.4775,1.0794,1.3566,0.7346,0.8792,0.0361,0.1556,0.1007,-0.6591,0.2494,0.5041,0.0649,0.4177,0.1145,-0.1959,-0.1915,-0.3521,-0.0334,-0.846,-0.794,-0.0262,-0.4558,-0.5735,3.7575
-0.5882,0.1174,-1.1667,0.7542,0.676,0.0308,1.4334,1.2383,1.5446,0.7271,0.8046,-0.0667,-0.0435,-0.1824,-1.2465,-0.0982,0.2352,-0.1413,0.1325,-0.2061,-0.5124,-0.3808,-0.5282,0.0732,-0.4442,-0.2259,0.3752,-0.1413,-0.6908,4.4962
-1.1486,-0.3474,-1.696,0.48,0.4602,-0.2071,1.394,1.431,1.7827,0.7036,0.6521,-0.2344,-0.2657,-0.4936,-1.9733,-0.5115,-0.0988,-0.4654,-0.2366,-0.5592,-0.8549,-0.671,-0.7999,0.1775,0.0342,0.4684,0.8348,0.2276,-0.7986,5.4327
-1.7776,-0.8815,-2.2714,0.1585,0.225,-0.4741,1.3565,1.643,2.0609,0.6734,0.4449,-0.4536,-0.5043,-0.822,-2.8071,-0.979,-0.4822,-0.8994,-0.6737,-0.9441,-1.2156,-1.0451,-1.154,0.2664,0.5542,1.2452,1.3193,0.6339,-0.8906,6.5143
-2.4489,-1.4731,-2.8691,-0.2092,-0.0284,-0.7603,1.3241,1.8585,2.3682,0.6597,0.2293,-0.693,-0.7466,-1.154,-3.7066,-1.4891,-0.8989,-1.4222,-1.1597,-1.3616,-1.5881,-1.479,-1.5714,0.3282,1.0715,2.046,1.7942,1.0584,-0.9617,7.6637
-3.1301,-2.1046,-3.4638,-0.6182,-0.297,-1.0567,1.309,2.0609,2.6924,0.6987,0.069,-0.9038,-0.9701,-1.4703,-4.6237,-2.0275,-1.3324,-2.0002,-1.6717,-1.8084,-1.9624,-1.9418,-2.0266,0.3598,1.5403,2.809,2.2336,1.4848,-1.0092,8.7892
-3.7828,-2.7508,-4.0304,-1.0583,-0.5735,-1.3573,1.3316,2.2331,3.0198,0.8346,0.0366,-1.025,-1.141,-1.7443,-5.5048,-2.5741,-1.7651,-2.5912,-2.1808,-2.272,-2.3212,-2.3959,-2.4877,0.3719,1.9225,3.479,2.6272,1.9042,-1.0336,9.7966
-4.3632,-3.3779,-4.5442,-1.5115,-0.8468,-1.6579,1.4163,2.3582,3.3348,1.1107,0.1997,-0.9928,-1.2168,-1.9429,-6.2937,-3.1015,-2.1754,-3.1494,-2.6519,-2.7275,-2.638,-2.7985,-2.9172,0.3905,2.1937,4.0162,2.9824,2.3164,-1.0393,10.6033
-4.8255,-3.9452,-4.9824,-1.9512,-1.1002,-1.9534,1.5869,2.4213,3.6203,1.5591,0.6075,-0.752,-1.1526,-2.0298,-6.9349,-3.5745,-2.5353,-3.6313,-3.0444,-3.1389,-2.8788,-3.1044,-3.2751,0.4526,2.3455,4.3986,3.3194,2.7275,-1.0334,11.1502
-5.127,-4.4092,-5.3246,-2.3438,-1.3125,-2.2353,1.8594,2.4118,3.8595,2.1911,1.2787,-0.2686,-0.9091,-1.9724,-7.3798,-3.9536,-2.8121,-4.0014,-3.3163,-3.4633,-3.0066,-3.2724,-3.5237,0.5975,2.3825,4.6189,3.662,3.144,-1.0236,11.4103
-5.2345,-4.7304,-5.5546,-2.652,-1.4597,-2.4892,2.2374,2.327,4.0371,2.9916,2.1955,0.4609,-0.4624,-1.7478,-7.592,-4.2001,-2.9716,-4.2359,-3.4309,-3.6588,-2.9898,-3.2715,-3.6353,0.8567,2.3161,4.6791,4.0267,3.5669,-1.0158,11.392
-5.1316,-4.8806,-5.662,-2.8406,-1.5186,-2.6949,2.7086,2.1742,4.1421,3.9176,3.3023,1.4056,0.1887,-1.3505,-7.5545,-4.284,-2.9862,-4.3242,-3.3651,-3.6934,-2.8098,-3.088,-3.5975,1.2428,2.1574,4.5836,4.4143,3.9864,-1.012,11.1365
-4.8238,-4.8494,-5.6441,-2.8841,-1.4728,-2.83,3.2445,1.9724,4.1697,4.9032,4.5138,2.5033,1.018,-0.7965,-7.273,-4.1903,-2.8421,-4.2679,-3.1161,-3.5533,-2.4681,-2.7306,-3.4179,1.7436,1.9133,4.336,4.8059,4.3816,-1.0097,10.7088
-4.3399,-4.6472,-5.5073,-2.7729,-1.317,-2.8748,3.8036,1.7507,4.1243,5.8686,5.7267,3.6685,1.9731,-0.1242,-6.7772,-3.9243,-2.5453,-4.0795,-2.7049,-3.2482,-1.9902,-2.2316,-3.1235,2.3207,1.5858,3.9399,5.1654,4.7226,-1.0032,10.184
-3.7293,-4.3043,-5.2671,-2.5175,-1.0621,-2.8184,4.3369,1.5453,4.0193,6.7315,6.8352,4.8053,2.9799,0.6084,-6.1184,-3.5129,-2.1223,-3.7803,-2.175,-2.8117,-1.4237,-1.6442,-2.7576,2.9136,1.1752,3.402,5.4462,4.9772,-0.9856,9.6319
-3.0565,-3.8663,-4.947,-2.148,-0.7348,-2.6637,4.7947,1.393,3.8765,7.4192,7.7453,5.8199,3.9527,1.3309,-5.3635,-3.0022,-1.6161,-3.3997,-1.5857,-2.2979,-0.8331,-1.0364,-2.3731,3.4498,0.6853,2.7368,5.6017,5.117,-0.9519,9.1038
-2.3917,-3.3865,-4.577,-1.7105,-0.3755,-2.4287,5.1335,1.325,3.7219,7.8774,8.3859,6.6316,4.8042,1.9698,-4.5876,-2.4516,-1.0801,-2.9738,-1.0037,-1.7729,-0.2898,-0.4819,-2.0256,3.8558,0.1273,1.9704,5.5943,5.1235,-0.8995,8.6261
-1.8016,-2.9168,-4.1913,-1.259,-0.0312,-2.1449,5.3218,1.3594,3.5808,8.0753,8.7153,7.1807,5.4577,2.4581,-3.8655,-1.926,-0.5694,-2.5445,-0.4923,-1.3044,0.1388,-0.05,-1.7662,4.0693,-0.4768,1.1416,5.4031,4.9914,-0.8286,8.2015
-1.3412,-2.5001,-3.8253,-0.8455,0.2528,-1.8521,5.3432,1.4976,3.4722,8.0074,8.7217,7.4329,5.855,2.7449,-3.2626,-1.4863,-0.1329,-2.157,-0.1028,-0.9515,0.4001,0.2038,-1.6347,4.0486,-1.0942,0.3007,5.0277,4.7303,-0.741,7.819
-1.0466,-2.1649,-3.5114,-0.5103,0.4424,-1.5905,5.1975,1.7223,3.4047,7.6905,8.4208,7.3797,5.9626,2.8015,-2.8273,-1.1803,0.1933,-1.8539,0.1326,-0.7548,0.4645,0.246,-1.6547,3.7781,-1.6844,-0.495,4.4872,4.3619,-0.6401,7.4657
-0.9311,-1.9226,-3.2742,-0.2748,0.5215,-1.3919,4.8998,2.0008,3.3746,7.1588,7.8505,7.037,5.774,2.6248,-2.5846,-1.0348,0.3912,-1.6686,0.2053,-0.7305,0.3294,0.07,-1.8296,3.2703,-2.2032,-1.1875,3.8171,3.9166,-0.5305,7.138
-0.9841,-1.7676,-3.1256,-0.1384,0.496,-1.2732,4.4773,2.2904,3.3678,6.4575,7.0638,6.4407,5.3079,2.2376,-2.5316,-1.0502,0.4636,-1.617,0.1311,-0.8668,0.0197,-0.3021,-2.1415,2.5628,-2.6097,-1.7259,3.063,3.4285,-0.4184,6.8473
-1.1723,-1.6805,-3.0616,-0.0795,0.3924,-1.2321,3.9661,2.5467,3.3633,5.6383,6.1233,5.6423,4.6053,1.6844,-2.6384,-1.1993,0.4341,-1.6916,-0.052,-1.126,-0.4162,-0.8221,-2.5522,1.7127,-2.8717,-2.0724,2.2751,2.9307,-0.3123,6.6185
-1.4452,-1.6318,-3.0612,-0.0615,0.2535,-1.2483,3.4074,2.732,3.34,4.7545,5.0961,4.7034,3.7232,1.025,-2.8517,-1.4302,0.3442,-1.8597,-0.2888,-1.4499,-0.9143,-1.4221,-3.0087,0.7887,-2.9707,-2.2079,1.5022,2.4528,-0.2228,6.4827
-1.7419,-1.5875,-3.0893,-0.0408,0.1296,-1.2873,2.8442,2.8226,3.2829,3.8596,4.0501,3.6919,2.7292,0.327,-3.104,-1.6748,0.2472,-2.0673,-0.516,-1.7691,-1.4039,-2.0243,-3.45,-0.1375,-2.9056,-2.1339,0.7887,2.0189,-0.1613,6.4678
-2.001,-1.5145,-3.1035,0.0245,0.0692,-1.3075,2.3184,2.8131,3.1881,3.0062,3.0517,2.6774,1.6944,-0.3434,-3.3259,-1.8609,0.1988,-2.2493,-0.6729,-2.0148,-1.819,-2.5529,-3.8177,-0.999,-2.6928,-1.8723,0.1712,1.6481,-0.1378,6.5902
-2.1698,-1.3858,-3.0622,0.1678,0.1113,-1.2683,1.8689,2.7168,3.0664,2.2452,2.1635,1.7289,0.6877,-0.9291,-3.4595,-1.9262,0.2458,-2.3439,-0.7127,-2.1309,-2.1072,-2.9461,-4.0651,-1.7408,-2.3649,-1.4627,-0.3221,1.3552,-0.1574,6.8499
-2.2131,-1.1849,-2.9336,0.4078,0.2784,-1.1372,1.529,2.563,2.9422,1.6252,1.4429,0.9112,-0.2288,-1.3879,-3.4699,-1.8315,0.4159,-2.308,-0.6118,-2.0844,-2.2371,-3.1648,-4.1662,-2.3238,-1.9662,-0.9572,-0.6717,1.1514,-0.2171,7.2291
-2.1189,-0.9086,-2.7042,0.7458,0.5731,-0.8969,1.3247,2.391,2.8499,1.1896,0.9399,0.2818,-1.0037,-1.6956,-3.3529,-1.5699,0.7086,-2.13,-0.3759,-1.872,-2.2014,-3.1991,-4.1203,-2.7267,-1.5472,-0.4138,-0.8673,1.0448,-0.3045,7.6967
-1.9014,-0.5709,-2.383,1.1637,0.9772,-0.5493,1.272,2.2421,2.8281,0.9731,0.6935,-0.1132,-1.599,-1.8473,-3.1377,-1.1712,1.0922,-1.8359,-0.0399,-1.5222,-2.0182,-3.0687,-3.9538,-2.9457,-1.1585,0.1101,-0.9072,1.0405,-0.3984,8.2144
-1.5997,-0.2033,-2.0028,1.6248,1.4533,-0.1179,1.3745,2.1525,2.9116,0.9974,0.729,-0.2431,-1.9913,-1.8551,-2.8814,-0.6982,1.5078,-1.4867,0.3376,-1.0912,-1.7262,-2.819,-3.7155,-2.9923,-0.8448,0.5649,-0.799,1.1401,-0.4732,8.7447
-1.2717,0.1473,-1.6156,2.0778,1.9498,0.3546,1.6226,2.1479,3.1251,1.2682,1.0541,-0.0956,-2.1721,-1.7448,-2.6588,-0.236,1.881,-1.1662,0.6864,-0.6533,-1.3788,-2.5117,-3.468,-2.8898,-0.6397,0.9141,-0.5589,1.3402,-0.505,9.2561
-0.983,0.4248,-1.284,2.4636,2.4087,0.8113,1.9948,2.2405,3.4784,1.7731,1.6566,0.3218,-2.146,-1.5493,-2.5455,0.1252,2.1394,-0.9612,0.9399,-0.2871,-1.0338,-2.212,-3.2739,-2.6685,-0.5617,1.1381,-0.2109,1.6325,-0.4785,9.7246
-0.7949,0.5734,-1.0693,2.7249,2.774,1.1908,2.4603,2.4294,3.9641,2.4824,2.5026,0.981,-1.929,-1.3031,-2.6015,0.3081,2.2306,-0.9403,1.0507,-0.0603,-0.7442,-1.9752,-3.1817,-2.361,-0.612,1.2353,0.2155,2.003,-0.3935,10.1332
-0.7532,0.5475,-1.0208,2.8152,3.0013,1.4373,2.9836,2.7017,4.5581,3.3502,3.5366,1.8347,-1.5455,-1.0364,-2.8574,0.264,2.134,-1.1368,1.0012,-0.0178,-0.5495,-1.8352,-3.2148,-1.9982,-0.7752,1.2201,0.6872,2.4317,-0.2665,10.4711
-0.8814,0.3196,-1.1674,2.7068,3.0637,1.5107,3.5281,3.0357,5.2211,4.3179,4.6829,2.8185,-1.0268,-0.772,-3.3094,-0.0196,1.8639,-1.541,0.8065,-0.1751,-0.4708,-1.7987,-3.3658,-1.607,-1.022,1.1186,1.1701,2.8929,-0.1284,10.7358
-1.1782,-0.1145,-1.5134,2.3948,2.9565,1.3936,4.0602,3.4039,5.9029,5.3181,5.8509,3.855,-0.4098,-0.5236,-3.9211,-0.5192,1.4623,-2.1027,0.5091,-0.5183,-0.5096,-1.8453,-3.5997,-1.2089,-1.3143,0.9617,1.6319,3.3556,-0.0178,10.9357
-1.6203,-0.7349,-2.0379,1.8983,2.6966,1.0956,4.5518,3.7763,6.5484,6.2799,6.943,4.86,0.2653,-0.2961,-4.6323,-1.1823,0.9852,-2.743,0.1674,-1.0093,-0.6494,-1.9341,-3.8626,-0.8202,-1.6121,0.7796,2.0437,3.7854,0.0283,11.0908
-2.1671,-1.4994,-2.6981,1.2576,2.3209,0.6525,4.9823,4.1245,7.104,7.1353,7.8652,5.7503,0.957,-0.0872,-5.3709,-1.9395,0.4872,-3.3712,-0.1591,-1.5951,-0.8602,-2.0141,-4.0946,-0.452,-1.8786,0.5974,2.3831,4.1481,-0.0168,11.2308
-2.7683,-2.3489,-3.4351,0.5286,1.8803,0.1216,5.3394,4.425,7.5254,7.8255,8.5396,6.4526,1.6255,0.1111,-6.0653,-2.7175,0.0105,-3.902,-0.4214,-2.2176,-1.1044,-2.0357,-4.2421,-0.1107,-2.0851,0.4327,2.6352,4.4133,-0.1631,11.3887
-3.3711,-3.2156,-4.1821,-0.2246,1.4333,-0.4265,5.6196,4.6621,7.7826,8.3064,8.9135,6.9121,2.2357,0.3093,-6.6554,-3.4515,-0.4199,-4.2711,-0.5889,-2.8236,-1.3428,-1.9615,-4.2679,0.2006,-2.213,0.2959,2.7938,4.5592,-0.402,11.5922
-3.9282,-4.0328,-4.8731,-0.9376,1.0382,-0.9187,5.8269,4.8298,7.8645,8.5531,8.9672,7.0982,2.7592,0.518,-7.1007,-4.0927,-0.7933,-4.4432,-0.6512,-3.3711,-1.5408,-1.7729,-4.156,0.4809,-2.254,0.1921,2.8603,4.5752,-0.7084,11.8556
-4.4028,-4.7436,-5.4511,-1.554,0.7457,-1.2902,5.972,4.9317,7.7793,8.5619,8.7146,7.0078,3.1757,0.7446,-7.3834,-4.6128,-1.1068,-4.4144,-0.6143,-3.8334,-1.6731,-1.473,-3.9118,0.7292,-2.209,0.1224,2.8421,4.464,-1.047,12.1737
-4.7725,-5.308,-5.8752,-2.031,0.5926,-1.494,6.0702,4.9794,7.5525,8.3499,8.201,6.6649,3.4734,0.9915,-7.5083,-5.0028,-1.3573,-4.208,-0.495,-4.198,-1.7265,-1.0845,-3.5586,0.9425,-2.0864,0.0855,2.7499,4.2402,-1.3798,12.5216
-5.0291,-5.7059,-6.1238,-2.344,0.5978,-1.5075,6.1385,4.9899,7.2234,7.9531,7.4952,6.1162,3.6481,1.2546,-7.4976,-5.269,-1.5377,-3.8662,-0.3145,-4.4646,-1.6996,-0.644,-3.1318,1.1148,-1.9008,0.0783,2.5956,3.9278,-1.6739,12.8594
-5.1768,-5.9372,-6.1959,-2.4875,0.7602,-1.3351,6.194,4.9817,6.8388,7.4225,6.6802,5.4254,3.7034,1.5246,-7.3849,-5.4276,-1.6369,-3.4403,-0.0929,-4.6397,-1.6012,-0.194,-2.6714,1.2386,-1.6702,0.0967,2.3918,3.5564,-1.9071,13.1423
-5.2287,-6.0174,-6.1083,-2.4735,1.0605,-1.0054,6.2513,4.9719,6.447,6.8184,5.8423,4.6646,3.6503,1.7892,-7.2071,-5.4977,-1.6448,-2.9818,0.1531,-4.7322,-1.4455,0.2262,-2.2159,1.3073,-1.4145,0.1356,2.1518,3.1578,-2.0706,13.3316
-5.2016,-5.9715,-5.8907,-2.3272,1.4654,-0.5647,6.3214,4.9732,6.0912,6.204,5.0613,3.9062,3.5078,2.0369,-6.9982,-5.4968,-1.5578,-2.5351,0.4112,-4.7493,-1.2477,0.5879,-1.7969,1.3194,-1.1532,0.1901,1.8912,2.7619,-2.1678,13.4027
-5.1117,-5.8278,-5.5794,-2.0812,1.9343,-0.069,6.4111,4.9917,5.8041,5.6391,4.4016,3.2144,3.3025,2.2607,-6.7845,-5.4377,-1.3839,-2.1329,0.6723,-4.6945,-1.02,0.8776,-1.4364,1.2821,-0.903,0.2558,1.6289,2.3948,-2.2112,13.3498
-4.9719,-5.6118,-5.2111,-1.7695,2.4253,0.4256,6.5232,5.0275,5.6045,5.1732,3.9069,2.6387,3.0679,2.4607,-6.582,-5.328,-1.143,-1.7954,0.9291,-4.5683,-0.7687,1.098,-1.1453,1.2123,-0.6767,0.3291,1.3867,2.0766,-2.2173,13.1852
-4.7906,-5.3435,-4.8197,-1.4224,2.9021,0.8706,6.6562,5.0742,5.496,4.8406,3.5964,2.2098,2.8419,2.6449,-6.3971,-5.1706,-0.8631,-1.5307,1.1762,-4.3689,-0.4943,1.2652,-0.9239,1.1362,-0.4822,0.4067,1.1873,1.8203,-2.2021,12.9344
-4.5727,-5.0366,-4.4348,-1.0629,3.338,1.231,6.8061,5.1219,5.4681,4.6571,3.4644,1.9378,2.6639,2.8282,-6.228,-4.9658,-0.5731,-1.3375,1.4106,-4.0948,-0.1917,1.4045,-0.7633,1.0852,-0.3231,0.485,1.0498,1.6312,-2.1781,12.6288
-4.321,-4.7004,-4.0805,-0.7056,3.7188,1.4886,6.9663,5.1586,5.4994,4.6193,3.4839,1.8137,2.5706,3.0298,-6.067,-4.7127,-0.2948,-1.207,1.6335,-3.7465,0.1471,1.5446,-0.648,1.0901,-0.1994,0.5585,0.9858,1.5065,-2.1529,12.2963
-4.0382,-4.3426,-3.7759,-0.3572,4.0419,1.642,7.1291,5.1736,5.5624,4.7075,3.6121,1.8138,2.5921,3.2701,-5.9029,-4.4108,-0.0363,-1.125,1.8508,-3.3276,0.5305,1.7126,-0.558,1.1753,-0.1094,0.6194,0.9957,1.4366,-2.1299,11.9542
-3.7284,-3.9721,-3.5343,-0.0195,4.3149,1.7044,7.2876,5.1598,5.629,4.8911,3.7997,1.9066,2.7492,3.5664,-5.7229,-4.0613,0.2092,-1.0738,2.0729,-2.846,0.9646,1.9293,-0.4714,1.3541,-0.0503,0.6581,1.0681,1.4074,-2.1104,11.6039
-3.3977,-3.6003,-3.3628,0.3079,4.5514,1.6991,7.4362,5.1151,5.6766,5.1357,4.001,2.0605,3.0511,3.9302,-5.5153,-3.669,0.4609,-1.0338,2.3127,-2.3147,1.4503,2.2074,-0.3678,1.6266,-0.0185,0.6655,1.1829,1.404,-2.0954,11.2327
-3.0552,-3.2423,-3.262,0.6235,4.7666,1.6536,7.5717,5.0434,5.6912,5.4097,4.1815,2.2506,3.4943,4.3646,-5.2724,-3.2435,0.7428,-0.9869,2.5827,-1.7516,1.9816,2.5504,-0.2298,1.9802,-0.0092,0.6365,1.3166,1.4149,-2.0874,10.8201
-2.7132,-2.9155,-3.2269,0.9228,4.9727,1.5944,7.6929,4.9531,5.6688,5.6885,4.3224,2.4606,4.0623,4.8623,-4.9939,-2.8007,1.0742,-0.918,2.8916,-1.1793,2.5444,2.9537,-0.0455,2.3932,-0.0151,0.5738,1.4496,1.435,-2.091,10.3485
-2.3859,-2.6368,-3.2464,1.198,5.1761,1.5426,7.7995,4.8545,5.6135,5.9542,4.4183,2.68,4.725,5.4058,-4.6877,-2.3618,1.4608,-0.8176,3.241,-0.6239,3.1171,3.4063,0.1913,2.8388,-0.0253,0.489,1.5703,1.4652,-2.1119,9.8133
-2.0874,-2.4182,-3.3036,1.4403,5.3763,1.5122,7.8901,4.7565,5.5332,6.1927,4.4705,2.8983,5.4397,5.9678,-4.3681,-1.9512,1.8903,-0.6811,3.6239,-0.1122,3.6726,3.8927,0.4799,3.2886,-0.0263,0.4015,1.6764,1.5096,-2.1552,9.2266
-1.8284,-2.262,-3.3755,1.6437,5.5679,1.5108,7.9619,4.6647,5.4353,6.3888,4.4791,3.0976,6.1529,6.5143,-4.0514,-1.592,2.333,-0.5083,4.0253,0.3322,4.1824,4.3951,0.8143,3.7148,-0.0041,0.3321,1.77,1.5694,-2.2237,8.6146
-1.6126,-2.1573,-3.4345,1.8088,5.7444,1.5414,8.0111,4.5798,5.3236,6.5245,4.4379,3.2502,6.8051,7.0091,-3.75,-1.3005,2.7497,-0.3004,4.4255,0.6936,4.6211,4.8946,1.1834,4.091,0.0514,0.2952,1.8505,1.6377,-2.3157,8.009
-1.4343,-2.08,-3.4502,1.9457,5.9035,1.6063,8.0359,4.5,5.1986,6.5804,4.3346,3.3216,7.3391,7.4196,-3.4675,-1.0808,3.1036,-0.0588,4.8056,0.9678,4.9718,5.3727,1.5733,4.3922,0.1423,0.2907,1.9078,1.6967,-2.4246,7.4363
-1.2776,-1.995,-3.393,2.075,6.052,1.7101,8.0399,4.4238,5.0607,6.5418,4.1582,3.2801,7.7083,7.7235,-3.1959,-0.921,3.3741,0.2159,5.1532,1.1654,5.2295,5.8119,1.9693,4.5958,0.259,0.3,1.9184,1.7193,-2.5399,6.9094
-1.1175,-1.8617,-3.2383,2.226,6.2077,1.8619,8.0349,4.3539,4.9143,6.406,3.908,3.1083,7.886,7.9128,-2.9162,-0.7932,3.5672,0.5242,5.4669,1.3108,5.4032,6.1974,2.3584,4.6834,0.3804,0.288,1.8484,1.676,-2.6486,6.4224
-0.9249,-1.6414,-2.9711,2.4321,6.3977,2.0749,8.0408,4.299,4.7711,6.1884,3.602,2.8127,7.8702,7.9962,-2.604,-0.6567,3.7178,0.8663,5.7575,1.4395,5.5146,6.5178,2.7309,4.6444,0.4775,0.211,1.6608,1.5418,-2.7381,5.9541
-0.6727,-1.3054,-2.5894,2.7244,6.6528,2.3632,8.0821,4.274,4.6506,5.9219,3.2775,2.4241,7.684,7.9971,-2.2362,-0.4669,3.8829,1.2399,6.0459,1.5909,5.5935,6.7675,3.082,4.4781,0.5196,0.0281,1.326,1.3034,-2.7978,5.4763
-0.3424,-0.8401,-2.1054,3.1251,6.9996,2.7378,8.1818,4.2967,4.5754,5.6502,2.9828,1.9897,7.37,7.949,-1.7997,-0.1839,4.1277,1.6403,6.3583,1.8015,5.6729,6.9485,3.4124,4.1968,0.4819,-0.2879,0.8306,0.9603,-2.8213,4.9659
0.0717,-0.2497,-1.544,3.6431,7.4531,3.2019,8.3537,4.3827,4.5646,5.4158,2.7618,1.5578,6.982,7.8891,-1.2948,0.2177,4.5093,2.06,6.7211,2.0981,5.7829,7.0723,3.7287,3.8251,0.3514,-0.743,0.1825,0.5233,-2.8067,4.4135
0.5618,0.4459,-0.9369,4.2719,8.0109,3.7486,8.5972,4.5402,4.6265,5.2482,2.6383,1.1623,6.5745,7.8521,-0.7353,0.7443,5.0622,2.4914,7.1551,2.4943,5.9474,7.1606,4.0421,3.3974,0.1295,-1.3206,-0.5892,0.0091,-2.7569,3.8259
1.1085,1.2148,-0.3167,4.9902,8.6518,4.3593,8.8947,4.7666,4.7538,5.1551,2.6061,0.8132,6.194,7.8647,-0.1438,1.3812,5.7888,2.929,7.6701,2.9886,6.1809,7.2429,4.366,2.9531,-0.1695,-1.9856,-1.4393,-0.5637,-2.6784,3.2231
1.6852,2.0179,0.2878,5.7642,9.3372,5.0053,9.215,5.0477,4.9243,5.1227,2.6308,0.4987,5.8742,7.9421,0.4537,2.0948,6.6559,3.3699,8.2608,3.5651,6.487,7.3512,4.7103,2.5308,-0.524,-2.6932,-2.3135,-1.1765,-2.5797,2.6322
2.2613,2.8122,0.8545,6.5505,10.0169,5.6499,9.5199,5.3593,5.1062,5.1231,2.6621,0.1952,5.6346,8.0868,1.033,2.8369,7.5982,3.8133,8.9039,4.195,6.8574,7.5116,5.0771,2.1622,-0.9111,-3.3982,-3.1556,-1.8089,-2.4692,2.082
2.8059,3.5532,1.3663,7.2993,10.6358,6.2519,9.7731,5.6724,5.2673,5.1267,2.6533,-0.116,5.4827,8.2894,1.5728,3.5516,8.528,4.2568,9.559,4.8395,7.2725,7.7369,5.456,1.8698,-1.3119,-4.0616,-3.9131,-2.4352,-2.3547,1.5996
3.2895,4.1974,1.8092,7.9591,11.1424,6.77,9.9495,5.9588,5.3838,5.1153,2.5791,-0.435,5.4191,8.5312,2.055,4.1821,9.3498,4.6926,10.1725,5.4537,7.7032,8.0211,5.8238,1.6659,-1.7126,-4.6536,-4.5386,-3.0208,-2.2426,1.209
3.6868,4.7065,2.1697,8.4824,11.4966,7.1675,10.0408,6.1964,5.4479,5.0906,2.4468,-0.7359,5.4419,8.7889,2.4616,4.679,9.9768,5.1045,10.6857,5.9915,8.1147,8.3396,6.148,1.5561,-2.1019,-5.151,-4.9907,-3.5211,-2.1378,0.9305
3.9787,5.052,2.4344,8.8322,11.6763,7.4167,10.0577,6.3734,5.4694,5.0757,2.2966,-0.9688,5.5503,9.0397,2.7743,5.0069,10.3471,5.4675,11.046,6.4126,8.4719,8.6542,6.3938,1.5431,-2.4657,-5.5341,-5.2332,-3.8842,-2.0443,0.7784
4.155,5.2205,2.5923,8.989,11.6804,7.5039,10.0265,6.4892,5.4727,5.1087,2.191,-1.0714,5.7457,9.2655,2.9742,5.1505,10.4346,5.7508,11.2165,6.688,8.7461,8.9223,6.5326,1.6305,-2.7836,-5.782,-5.2361,-4.0581,-1.9644,0.758
4.216,5.2173,2.6382,8.9552,11.5298,7.4312,9.9829,6.553,5.4895,5.2313,2.1971,-0.9849,6.0305,9.4566,3.0445,5.1163,10.2527,5.9237,11.1847,6.8055,8.9198,9.1075,6.5493,1.824,-3.0272,-5.8731,-4.9801,-4.0008,-1.8983,0.8606
4.1729,5.0665,2.575,8.7556,11.2634,7.2181,9.9634,6.5806,5.5504,5.4759,2.3688,-0.6695,6.4048,9.6122,2.975,4.9313,9.8502,5.9623,10.9645,6.7717,8.9906,9.1885,6.446,2.1287,-3.1638,-5.7883,-4.4615,-3.6906,-1.843,1.0614
4.0455,4.8077,2.4163,8.4338,10.9315,6.8982,9.9968,6.5905,5.6763,5.8546,2.7315,-0.1163,6.8623,9.739,2.7653,4.6369,9.3002,5.8555,10.5939,6.6106,8.9708,9.1635,6.2417,2.5448,-3.1637,-5.5184,-3.6997,-3.1341,-1.7921,1.3194
3.8592,4.4877,2.1849,8.0446,10.5874,6.5152,10.0983,6.6001,5.8739,6.3542,3.2759,0.649,7.3881,9.8487,2.4276,4.2807,8.6848,5.6081,10.128,6.359,8.8843,9.0502,5.9682,3.0614,-3.01,-5.0718,-2.7417,-2.3701,-1.7362,1.5829
3.6405,4.1525,1.9108,7.6448,10.2788,6.1165,10.2673,6.6231,6.1345,6.9366,3.9589,1.5679,7.9575,9.9536,1.9875,3.9073,8.0804,5.2412,9.6292,6.0595,8.7617,8.8812,5.6635,3.6526,-2.7066,-4.4811,-1.6629,-1.4679,-1.6654,1.7965
3.4134,3.8389,1.6274,7.2842,10.0416,5.7464,10.4875,6.6675,6.4348,7.5452,4.7109,2.5578,8.5367,10.0635,1.4824,3.5521,7.546,4.7883,9.1579,5.7536,8.6343,8.6963,5.3648,4.2759,-2.2828,-3.8044,-0.5625,-0.5205,-1.5716,1.9108
3.1973,3.5703,1.3679,6.9985,9.8952,5.4402,10.7305,6.734,6.7413,8.1133,5.4474,3.5225,9.0861,10.1821,0.958,3.2371,7.1168,4.2913,8.7634,5.4751,8.5275,8.5336,5.1026,4.8751,-1.7928,-3.1211,0.4469,0.3671,-1.4516,1.8898
3.006,3.3561,1.161,6.806,9.8422,5.2202,10.9601,6.8158,7.0146,8.5739,6.0808,4.3653,9.5638,10.3056,0.4639,2.9713,6.8032,3.7945,8.4775,5.246,8.4569,8.4212,4.896,5.3868,-1.3085,-2.5213,1.2544,1.0918,-1.308,1.716
2.8475,3.1946,1.0276,6.7076,9.8702,5.0932,11.1371,6.8987,7.2146,8.8692,6.5328,5.0005,9.9296,10.4215,0.0469,2.7535,6.5939,3.3402,8.3107,5.0752,8.4259,8.372,4.7511,5.75,-0.9073,-2.0908,1.7672,1.5683,-1.149,1.3927
2.726,3.0784,0.9796,6.6905,9.9563,5.0523,11.2246,6.9624,7.3064,8.9573,6.7438,5.3643,10.1492,10.5107,-0.2542,2.5761,6.4632,2.9642,8.2507,4.9597,8.4262,8.381,4.662,5.9157,-0.6571,-1.8949,1.9267,1.7423,-0.9863,0.9412
2.6425,3.0003,1.0197,6.7336,10.0721,5.0798,11.1922,6.9839,7.2649,8.8174,6.681,5.4225,10.1973,10.5494,-0.4136,2.4302,6.3781,2.693,8.2662,4.8873,8.4398,8.4278,4.6138,5.8559,-0.6028,-1.9642,1.7194,1.5998,-0.8321,0.3958
2.597,2.957,1.1428,6.8135,10.1891,5.1523,11.02,6.9421,7.08,8.4518,6.3426,5.1747,10.0601,10.5136,-0.4213,2.3088,6.3069,2.5413,8.3128,4.8407,8.444,8.4811,4.5869,5.5692,-0.7557,-2.2869,1.1811,1.1703,-0.6962,-0.2026
2.5887,2.9512,1.3384,6.9096,10.2826,5.2462,10.701,6.8219,6.7581,7.8857,5.7582,4.6551,9.7365,10.3825,-0.284,2.2089,6.2246,2.5115,8.3429,4.8018,8.4157,8.5071,4.5625,5.0822,-1.09,-2.8081,0.393,0.5228,-0.5847,-0.8126
2.6157,2.9887,1.5926,7.0067,10.334,5.3415,10.2427,6.6182,6.3228,7.1639,4.9859,3.9277,9.2382,10.1426,-0.0247,2.1308,6.1172,2.5936,8.315,4.7548,8.3359,8.4766,4.5267,4.4458,-1.5471,-3.4386,-0.5306,-0.2449,-0.4993,-1.396
2.6739,3.0747,1.8886,7.0952,10.3321,5.4236,9.667,6.3377,5.8109,6.3456,4.1053,3.0788,8.5895,9.7909,0.3204,2.0765,5.9831,2.7664,8.203,4.6882,8.1935,8.3726,4.4733,3.7283,-2.0458,-4.0698,-1.4594,-1.0217,-0.438,-1.9183
2.7563,3.2088,2.2077,7.1697,10.2729,5.4841,9.0081,5.9972,5.2677,5.4977,3.2072,2.2065,7.8258,9.337,0.7058,2.0473,5.8317,2.9988,8.0018,4.5965,7.9874,8.1946,4.4047,3.0062,-2.4978,-4.5934,-2.2677,-1.7006,-0.3973,-2.3495
2.8526,3.3818,2.5294,7.2274,10.1593,5.5198,8.3098,5.6213,4.7392,4.6868,2.3828,1.4085,6.9925,8.8039,1.0832,2.0416,5.6808,3.2536,7.7293,4.4812,7.7282,7.9599,4.3313,2.3536,-2.824,-4.9205,-2.8532,-2.1945,-0.3742,-2.6645
2.9513,3.5757,2.8325,7.2671,10.001,5.5311,7.6207,5.2372,4.2656,3.9721,1.7117,0.7696,6.1422,8.2271,1.4098,2.0558,5.5514,3.4921,7.4235,4.3503,7.4373,7.7023,4.269,1.8333,-2.9685,-4.9967,-3.1519,-2.4493,-0.3671,-2.8468
3.0418,3.767,3.0969,7.2883,9.8129,5.5202,6.9888,4.8699,3.8751,3.3994,1.2519,0.3518,5.3307,7.651,1.6544,2.0844,5.4629,3.6803,7.1355,4.2184,7.1449,7.4659,4.2362,1.4896,-2.908,-4.8108,-3.146,-2.4494,-0.3765,-2.8931
3.1169,3.932,3.3052,7.2918,9.6136,5.4903,6.4552,4.5391,3.5818,2.996,1.0325,0.1861,4.6128,7.1248,1.8032,2.1224,5.4284,3.7941,6.9192,4.1041,6.8861,7.2979,4.25,1.3439,-2.6536,-4.3942,-2.8633,-2.2181,-0.4034,-2.8188
3.1742,4.0527,3.4456,7.2798,9.4231,5.4441,6.0488,4.2565,3.3843,2.7691,1.0505,0.2702,4.0366,6.6953,1.8611,2.1667,5.4519,3.8241,6.8195,4.0276,6.6964,7.2394,4.3223,1.3942,-2.2469,-3.8132,-2.3699,-1.8104,-0.448,-2.6603
3.2167,4.1206,3.5124,7.2561,9.2598,5.3838,5.7827,4.0258,3.269,2.7064,1.272,0.5701,3.6395,6.4012,1.8493,2.2173,5.527,3.777,6.8622,4.0067,6.6055,7.3166,4.4575,1.6172,-1.749,-3.1546,-1.7552,-1.3014,-0.5077,-2.4734
3.2511,4.1373,3.5076,7.2253,9.1378,5.3109,5.6538,3.8434,3.2136,2.779,1.6388,1.0268,3.444,6.2678,1.7998,2.2759,5.6378,3.6742,7.0469,4.0531,6.6327,7.5348,4.6507,1.9744,-1.2289,-2.5088,-1.1158,-0.7727,-0.5773,-2.3245
3.2843,4.1112,3.4389,7.1918,9.0648,5.2262,5.6439,3.7008,3.1917,2.9472,2.077,1.5651,3.4556,6.3032,1.7467,2.3444,5.7622,3.5457,7.3452,4.1687,6.7824,7.8758,4.8873,2.4183,-0.7505,-1.9545,-0.5379,-0.2989,-0.6496,-2.2762
3.3193,4.0522,3.3175,7.1574,9.0404,5.1301,5.7246,3.5863,3.1776,3.1665,2.5089,2.1052,3.6633,6.4974,1.7163,2.4207,5.8755,3.4233,7.7055,4.3431,7.0423,8.2994,5.144,2.9001,-0.3637,-1.5468,-0.0844,0.0632,-0.7172,-2.3699
3.3535,3.9669,3.156,7.1209,9.057,5.0227,5.8621,3.488,3.1492,3.394,2.8642,2.5736,4.0406,6.8239,1.7204,2.497,5.9554,3.3327,8.0623,4.554,7.3838,8.7509,5.392,3.3762,-0.0984,-1.3109,0.2132,0.2807,-0.7739,-2.6123
3.3774,3.8567,2.9666,7.0779,9.1011,4.905,6.0233,3.395,3.0916,3.5948,3.0896,2.9133,4.5497,7.2438,1.7529,2.5593,5.9855,3.2873,8.3499,4.7695,7.7664,9.1702,5.6014,3.813,0.0363,-1.2423,0.3567,0.3469,-0.8158,-2.9707
3.3783,3.719,2.7609,7.0231,9.1571,4.7795,6.1802,3.2999,2.9976,3.7454,3.1555,3.0914,5.1462,7.7118,1.7923,2.5898,5.9577,3.2862,8.5159,4.9543,8.1435,9.5039,5.7466,4.1903,0.0506,-1.3111,0.3771,0.2796,-0.8408,-3.379
3.3445,3.5513,2.5501,6.9523,9.2101,4.6511,6.3135,3.1986,2.8684,3.8367,3.0595,3.1042,5.7842,8.1825,1.8097,2.5718,5.8723,3.3151,8.5312,5.0762,8.4705,9.7151,5.8115,4.5017,-0.0303,-1.4699,0.3252,0.1165,-0.8483,-3.7552
3.2709,3.3567,2.3464,6.866,9.2495,4.5279,6.414,3.0913,2.7128,3.8731,2.8246,2.9765,6.4204,8.616,1.7789,2.495,5.7369,3.3519,8.3956,5.1133,8.7123,9.7895,5.7937,4.7522,-0.1718,-1.6638,0.2602,-0.0917,-0.8385,-4.0241
3.1634,3.1474,2.1637,6.7701,9.2709,4.4201,6.4817,2.9811,2.5446,3.8703,2.495,2.7572,7.0178,8.982,1.6878,2.3603,5.5641,3.374,8.136,5.0589,8.8485,9.7367,5.7046,4.9544,-0.3366,-1.8404,0.2372,-0.2903,-0.8122,-4.1398
3.0396,2.946,2.0177,6.6762,9.2758,4.3388,6.5232,2.8733,2.3801,3.8504,2.1277,2.5092,7.5462,9.2611,1.5443,2.1815,5.3696,3.3655,7.7986,4.9233,8.8763,9.5858,5.568,5.1217,-0.4905,-1.959,0.2953,-0.4297,-0.771,-4.0986
2.9259,2.782,1.9245,6.5984,9.2701,4.2937,6.5479,2.7731,2.2351,3.8358,1.7825,2.2968,7.9812,9.4438,1.3772,1.9838,5.1689,3.3226,7.4377,4.7317,8.8081,9.3765,5.4139,5.2624,-0.6084,-1.9971,0.45,-0.4745,-0.718,-3.9398
2.8511,2.6844,1.8976,6.5486,9.2604,4.2904,6.5641,2.6848,2.1215,3.8439,1.5125,2.1726,8.3026,9.5273,1.2295,1.7982,4.9759,3.2546,7.1024,4.5171,8.6664,9.1482,5.2715,5.3744,-0.6776,-1.9529,0.6899,-0.4088,-0.6576,-3.7322
2.8384,2.6736,1.9449,6.5316,9.2501,4.3275,6.5746,2.6107,2.0461,3.8819,1.3558,2.1668,8.4919,9.5115,1.1479,1.6539,4.8002,3.1803,6.8255,4.313,8.4761,8.9298,5.1612,5.4431,-0.6988,-1.8437,0.978,-0.2396,-0.5957,-3.5539
2.8981,2.7542,2.0662,6.542,9.2363,4.396,6.575,2.5516,2.0093,3.9446,1.3298,2.282,8.5311,9.3947,1.17,1.5712,4.6466,3.1227,6.617,4.144,8.2572,8.7328,5.0895,5.4419,-0.6845,-1.6998,1.2582,0.0057,-0.5393,-3.4701
3.0243,2.913,2.2531,6.5641,9.2087,4.4801,6.5526,2.5067,2.0057,4.0143,1.4288,2.4923,8.4032,9.1724,1.3154,1.5563,4.5158,3.1016,6.4649,4.0206,8.0191,8.5498,5.0476,5.3376,-0.6549,-1.5574,1.4655,0.2835,-0.4951,-3.5181
3.1958,3.1216,2.4902,6.5759,9.1514,4.5604,6.4881,2.4744,2.0245,4.0628,1.6248,2.7495,8.0938,8.8375,1.5809,1.6003,4.4061,3.1286,6.3413,3.9377,7.7598,8.3589,5.0143,5.0972,-0.6321,-1.4505,1.5375,0.5421,-0.468,-3.7019
3.3822,3.344,2.7593,6.5561,9.0475,4.6194,6.3599,2.4525,2.0516,4.0564,1.8722,2.9926,7.5947,8.3842,1.9421,1.6828,4.3163,3.2052,6.2134,3.8776,7.4689,8.1325,4.9635,4.6964,-0.6352,-1.4044,1.4248,0.7294,-0.4601,-3.9966
3.5513,3.5468,3.0439,6.4904,8.8847,4.6459,6.1486,2.4389,2.071,3.9613,2.1147,3.1591,6.9081,7.8127,2.3603,1.7779,4.2474,3.3238,6.0549,3.8166,7.1338,7.8478,4.8723,4.1275,-0.6764,-1.4325,1.1006,0.8013,-0.4699,-4.3604
3.6774,3.7069,3.3327,6.3775,8.6597,4.6386,5.8428,2.4312,2.0678,3.7499,2.2947,3.1965,6.0499,7.1336,2.7922,1.8605,4.203,3.4722,5.8538,3.7327,6.7468,7.4956,4.7287,3.4037,-0.7591,-1.5352,0.5655,0.7276,-0.4925,-4.7483
3.7472,3.8167,3.6212,6.23,8.3812,4.6067,5.4424,2.4273,2.03,3.4064,2.3618,3.0702,5.0518,6.3704,3.1987,1.9125,4.1866,3.6372,5.6144,3.612,6.3104,7.0841,4.5351,2.5601,-0.8786,-1.7021,-0.1522,0.4964,-0.5213,-5.1219
3.7613,3.8834,3.9108,6.0714,8.0683,4.5667,4.9608,2.425,1.95,2.9304,2.2813,2.7684,3.9605,5.5592,3.5522,1.9256,4.1997,3.8084,5.3539,3.4515,5.8393,6.638,4.3075,1.6504,-1.0244,-1.9154,-1.0004,0.115,-0.5491,-5.4555
3.7326,3.9255,4.2055,5.9299,7.7476,4.5382,4.4234,2.4216,1.8256,2.3388,2.0386,2.3027,2.8352,4.7451,3.839,1.9022,4.2397,3.9779,5.095,3.2596,5.3587,6.1916,4.0712,0.74,-1.1836,-2.1541,-1.91,-0.3908,-0.5704,-5.7362
3.6834,3.9662,4.5084,5.8317,7.4483,4.5387,3.8652,2.4134,1.66,1.6647,1.6428,1.7063,1.7426,3.9772,4.06,1.8543,4.3004,4.1398,4.8598,3.0535,4.9005,5.7815,3.854,-0.1026,-1.3436,-2.3978,-2.804,-0.9799,-0.5818,-5.9619
3.6399,4.0281,4.8194,5.7955,7.1973,4.5802,3.3269,2.3966,1.4614,0.9551,1.1252,1.0299,0.7511,3.3028,4.2271,1.7999,4.3743,4.2876,4.664,2.8557,4.4979,5.4388,3.6809,-0.8141,-1.4952,-2.6285,-3.607,-1.5993,-0.5817,-6.1382
3.6286,4.1292,5.1338,5.8295,7.017,4.6676,2.8508,2.3672,1.2423,0.2659,0.5366,0.3358,-0.0757,2.7627,4.3593,1.7604,4.4557,4.4129,4.5163,2.6904,4.1807,5.1849,3.569,-1.3436,-1.6326,-2.8321,-4.2529,-2.1905,-0.5702,-6.2766
3.6718,4.2801,5.4426,5.9318,6.9231,4.7999,2.4765,2.3234,1.0185,-0.3433,-0.0593,-0.3093,-0.6842,2.3874,4.4781,1.7563,4.5427,4.5059,4.4197,2.5803,3.9722,5.0301,3.5261,-1.6574,-1.7537,-2.9977,-4.6918,-2.695,-0.5479,-6.3924
3.7851,4.4838,5.7344,6.0933,6.9252,4.9716,2.2373,2.2666,0.8079,-0.8163,-0.5948,-0.8427,-1.0363,2.1959,4.6034,1.8048,4.6374,4.5582,4.3745,2.5438,3.8876,4.9753,3.5513,-1.7416,-1.8585,-3.1179,-4.894,-3.062,-0.516,-6.5027
3.9749,4.7359,5.9969,6.3016,7.0271,5.1754,2.1568,2.203,0.6291,-1.1069,-1.0072,-1.2134,-1.1122,2.1945,4.7499,1.9168,4.7441,4.5659,4.381,2.5939,3.9331,5.0144,3.6365,-1.6022,-1.9476,-3.1877,-4.8525,-3.2553,-0.4763,-6.6231
4.237,5.0248,6.2187,6.5436,7.2264,5.4037,2.2462,2.1433,0.4996,-1.1851,-1.2476,-1.3887,-0.9131,2.3772,4.9243,2.0949,4.8657,4.5315,4.4394,2.7351,4.1054,5.1367,3.7683,-1.2636,-2.0203,-3.2047,-4.5828,-3.2578,-0.4312,-6.7643
4.5561,5.3325,6.391,6.8075,7.5138,5.6486,2.5016,2.1013,0.4332,-1.0414,-1.2877,-1.3581,-0.4618,2.7252,5.1236,2.3313,4.9995,4.4633,4.5474,2.9613,4.3903,5.3268,3.9293,-0.7656,-2.0743,-3.1684,-4.1206,-3.0737,-0.3836,-6.9306
4.9065,5.6362,6.5078,7.0817,7.8718,5.9012,2.903,2.0912,0.4388,-0.6894,-1.1231,-1.1341,0.1989,3.2074,5.3345,2.6065,5.1351,4.372,4.6969,3.2538,4.7627,5.5642,4.0987,-0.1592,-2.1048,-3.0798,-3.5173,-2.7274,-0.3356,-7.1196
5.2553,5.9102,6.5666,7.3531,8.2738,6.1504,3.4149,2.1237,0.5181,-0.1643,-0.7725,-0.7492,1.0095,3.7814,5.5354,2.8909,5.2543,4.2669,4.8707,3.5819,5.1864,5.823,4.2536,0.4982,-2.1047,-2.9406,-2.834,-2.2582,-0.2878,-7.3255
5.5667,6.1301,6.5693,7.6061,8.6855,6.3828,3.9897,2.2032,0.6649,0.481,-0.275,-0.2509,1.8993,4.3956,5.7012,3.148,5.3349,4.1535,5.0427,3.9054,5.6169,6.0726,4.3717,1.1487,-2.066,-2.7531,-2.1348,-1.7144,-0.239,-7.5445
5.8089,6.276,6.5227,7.8219,9.0673,6.5829,4.5716,2.3256,0.8653,1.1819,0.3159,0.3048,2.7925,4.9933,5.8091,3.3407,5.3555,4.0329,5.1814,4.18,6.0062,6.2811,4.4343,1.7388,-1.9814,-2.5211,-1.4806,-1.1472,-0.1862,-7.779
5.9593,6.3372,6.439,7.9801,9.3776,6.7338,5.1027,2.478,1.098,1.8691,0.9382,0.8595,3.6152,5.5177,5.8464,3.4373,5.3019,3.9046,5.2554,4.3649,6.3088,6.4198,4.4307,2.224,-1.8464,-2.251,-0.9233,-0.6048,-0.127,-8.04
6.0092,6.314,6.3353,8.0607,9.5785,6.8191,5.5274,2.6392,1.3352,2.4743,1.5271,1.3576,4.3009,5.9176,5.8158,3.4188,5.1709,3.7696,5.2412,4.4301,6.4882,6.4691,4.3612,2.572,-1.6613,-1.9531,-0.5031,-0.1294,-0.0625,-8.345
5.9655,6.2178,6.2318,8.0488,9.6396,6.825,5.7968,2.7827,1.5443,2.9352,2.0203,1.7499,4.7951,6.1523,5.7373,3.2831,4.9736,3.6338,5.1292,4.3623,6.5227,6.4226,4.2386,2.7635,-1.433,-1.6434,-0.246,0.2447,0.0013,-8.7128
5.8489,6.0701,6.1493,7.9379,9.5433,6.7428,5.8723,2.8796,1.6897,3.1995,2.3627,1.9962,5.0583,6.1966,5.6461,3.0471,4.7346,3.5101,4.9278,4.169,6.409,6.2897,4.0864,2.7929,-1.1754,-1.343,-0.1638,0.4925,0.0528,-9.156
5.6911,5.8999,6.1062,7.7341,9.2881,6.5717,5.7288,2.9023,1.7368,3.2279,2.5108,2.0683,5.068,6.0433,5.5862,2.7464,4.4899,3.4173,4.6647,3.8787,6.1626,6.0942,3.9356,2.667,-0.9085,-1.0765,-0.254,0.5992,0.0767,-9.6745
5.5292,5.7398,6.1161,7.4577,8.8908,6.3203,5.3577,2.8288,1.6562,2.9977,2.4376,1.9512,4.8204,5.7047,5.6023,2.4308,4.2828,3.3781,4.3824,3.5379,5.8166,5.8713,3.8187,2.4042,-0.6557,-0.8689,-0.5011,0.5612,0.0583,-10.2528
5.4002,5.6223,6.1874,7.142,8.3862,6.0079,4.7693,2.6463,1.4279,2.5061,2.1363,1.646,4.331,5.2116,5.73,2.1576,4.1569,3.4148,4.1317,3.2039,5.4163,5.6604,3.7642,2.0323,-0.4411,-0.7414,-0.8781,0.3863,-0.012,-10.8608
5.335,5.5748,6.3216,6.8292,7.8231,5.6629,3.9936,2.3534,1.0466,1.7728,1.6224,1.1705,3.6342,4.6095,5.989,1.9812,4.1477,3.5441,3.9618,2.9356,5.0126,5.4976,3.7907,1.5853,-0.2854,-0.7084,-1.3487,0.094,-0.1356,-11.4584
5.3528,5.6147,6.5138,6.5631,7.2578,5.3189,3.0794,1.9615,0.524,0.8406,0.934,0.5592,2.7802,3.9524,6.3772,1.9429,4.2741,3.7711,3.9092,2.7814,4.6535,5.4082,3.9031,1.1004,-0.2039,-0.7748,-1.8715,-0.2864,-0.3038,-12.0008
5.4578,5.7451,6.7523,6.3809,6.7455,5.0098,2.0902,1.4949,-0.1091,-0.2264,0.1292,-0.1388,1.8309,3.295,6.8699,2.0608,4.5316,4.0864,3.99,2.7699,4.3757,5.4015,4.0913,0.6134,-0.204,-0.9357,-2.404,-0.7189,-0.4999,-12.4446
5.6381,5.9541,7.019,6.3059,6.3311,4.7638,1.0982,0.9887,-0.8048,-1.3475,-0.7199,-0.8648,0.854,2.6854,7.4236,2.3253,4.8916,4.4657,4.1942,2.903,4.1993,5.4683,4.3316,0.1551,-0.2843,-1.1764,-2.9076,-1.165,-0.7019,-12.7544
5.8682,6.2164,7.2925,6.3431,6.0425,4.5991,0.1764,0.4853,-1.5023,-2.4328,-1.5353,-1.5563,-0.0833,2.159,7.9831,2.6995,5.3056,4.8727,4.4881,3.1552,4.1247,5.5845,4.5911,-0.2514,-0.4344,-1.4747,-3.351,-1.5878,-0.8876,-12.9098
6.1148,6.4982,7.5506,6.4782,5.887,4.5208,-0.6094,0.0294,-2.1359,-3.3938,-2.2431,-2.1551,-0.9208,1.736,8.4916,3.1269,5.7155,5.2657,4.8198,3.4791,4.1341,5.7165,4.8344,-0.5924,-0.6363,-1.8026,-3.7131,-1.9561,-1.0381,-12.9104
6.3433,6.7637,7.7735,6.6807,5.8508,4.5209,-1.209,-0.3387,-2.6443,-4.1537,-2.783,-2.6147,-1.6098,1.4211,8.9009,3.5425,6.0645,5.6039,5.1305,3.8149,4.1969,5.8295,5.0287,-0.8625,-0.8656,-2.1294,-3.9833,-2.2474,-1.1413,-12.7785
6.5239,6.9812,7.9452,6.9097,5.9036,4.5791,-1.5933,-0.59,-2.9815,-4.6578,-3.1164,-2.9061,-2.1173,1.2061,9.1783,3.8854,6.3074,5.8543,5.3653,4.1028,4.2765,5.8942,5.1499,-1.0635,-1.0954,-2.4248,-4.1607,-2.4493,-1.1925,-12.5551
6.6368,7.1274,8.055,7.1217,6.0044,4.6665,-1.7586,-0.7131,-3.1245,-4.8807,-3.2308,-3.0203,-2.4271,1.0747,9.3109,4.1107,6.4169,5.9957,5.4834,4.2945,4.3379,5.8916,5.184,-1.2016,-1.299,-2.6619,-4.2512,-2.5591,-1.1948,-12.2927
6.6744,7.1908,8.0974,7.2786,6.1097,4.7502,-1.7251,-0.7161,-3.0775,-4.8288,-3.1397,-2.967,-2.5397,1.0075,9.306,4.1965,6.3854,6.0205,5.4638,4.3618,4.3549,5.8143,5.128,-1.285,-1.4547,-2.8201,-4.2643,-2.5821,-1.1569,-12.0455
6.6421,7.1724,8.0734,7.3542,6.1811,4.7993,-1.5327,-0.6262,-2.8704,-4.537,-2.8778,-2.7695,-2.4695,0.986,9.1877,4.1468,6.2239,5.9349,5.3068,4.3004,4.3142,5.6642,4.9876,-1.3221,-1.5483,-2.8875,-4.2097,-2.5285,-1.0904,-11.8598
6.5569,7.0855,7.9915,7.3384,6.1918,4.7907,-1.2328,-0.4828,-2.5517,-4.0604,-2.4915,-2.458,-2.2413,0.9965,8.9921,3.988,5.9584,5.7564,5.0322,4.1291,4.2162,5.4504,4.7748,-1.3195,-1.5752,-2.8615,-4.0947,-2.4092,-1.0068,-11.7672
6.4449,6.9538,7.8684,7.2383,6.1308,4.7135,-0.8784,-0.3291,-2.1777,-3.4634,-2.0295,-2.0622,-1.8853,1.0323,8.7612,3.7627,5.6258,5.5102,4.674,3.884,4.0746,5.1858,4.5056,-1.2812,-1.5402,-2.7474,-3.9224,-2.232,-0.9154,-11.7818
6.338,6.8081,7.7282,7.0765,6.0033,4.5718,-0.515,-0.2021,-1.801,-2.8082,-1.5329,-1.6063,-1.4329,1.0933,8.5377,3.5208,5.2705,5.2272,4.2758,3.6112,3.9123,4.8866,4.1994,-1.2082,-1.4555,-2.5573,-3.6923,-2.0007,-0.8222,-11.9019
6.2696,6.6832,7.6016,6.8858,5.8292,4.3835,-0.1739,-0.1247,-1.4609,-2.1461,-1.0301,-1.1071,-0.9135,1.1852,8.3609,3.3114,4.9415,4.9405,3.8847,3.359,3.7575,4.5726,3.8785,-1.0986,-1.338,-2.3077,-3.4016,-1.7148,-0.7308,-12.1149
6.2709,6.6128,7.5221,6.7038,5.6374,4.1778,0.1307,-0.1022,-1.178,-1.5126,-0.5364,-0.5757,-0.3523,1.317,8.2636,3.1761,4.6875,4.6835,3.5466,3.1702,3.639,4.2679,3.5685,-0.949,-1.2063,-2.018,-3.0491,-1.3731,-0.6432,-12.4046
6.3663,6.6257,7.5203,6.565,5.4598,3.9887,0.3998,-0.1236,-0.9558,-0.9281,-0.0572,-0.0223,0.2297,1.4976,8.2698,3.144,4.5512,4.4867,3.3005,3.0768,3.5813,4.0003,3.2968,-0.7561,-1.0781,-1.7105,-2.639,-0.9781,-0.5608,-12.7554
6.5688,6.74,7.6179,6.4953,5.3245,3.8483,0.644,-0.1675,-0.7849,-0.4017,0.4055,0.5394,0.8145,1.7323,8.392,3.2289,4.5611,4.3749,3.1735,3.0959,3.6013,3.7977,3.0896,-0.5193,-0.9684,-1.4091,-2.1836,-0.5402,-0.4854,-13.1528
6.8761,6.9597,7.8207,6.507,5.2501,3.7797,0.8769,-0.2097,-0.651,0.0622,0.8473,1.0885,1.3852,2.0198,8.6289,3.4275,4.7245,4.3628,3.1763,3.2279,3.7049,3.6837,2.9673,-0.243,-0.8888,-1.1384,-1.7052,-0.0802,-0.4192,-13.5803
7.2699,7.2729,8.1153,6.5974,5.2427,3.7921,1.1073,-0.2313,-0.542,0.4585,1.2565,1.5963,1.9237,2.3505,8.9654,3.7212,5.0234,4.4537,3.3016,3.4567,3.8861,3.6715,2.9403,0.0619,-0.8462,-0.9214,-1.2341,0.3727,-0.3649,-14.0167
7.717,7.6533,8.4705,6.7502,5.2952,3.878,1.3339,-0.2243,-0.4533,0.7769,1.6132,2.0303,2.409,2.7059,9.3735,4.0793,5.4177,4.6378,3.5257,3.7531,4.1281,3.7603,3.0064,0.3774,-0.8423,-0.7755,-0.8047,0.7844,-0.3261,-14.4358
8.1761,8.0655,8.8434,6.9392,5.3898,4.0148,1.5437,-0.1935,-0.3897,1.0011,1.8909,2.3588,2.8171,3.0603,9.8179,4.465,5.8539,4.8942,3.8141,4.0806,4.4054,3.9351,3.1513,0.68,-0.8735,-0.7096,-0.4505,1.1221,-0.3069,-14.8114
8.6051,8.4722,9.1889,7.1345,5.5018,4.1696,1.7122,-0.1548,-0.3638,1.1104,2.0609,2.5577,3.1223,3.3834,10.2621,4.8426,6.2774,5.1941,4.1288,4.4018,4.6887,4.1684,3.3508,0.9429,-0.9305,-0.7215,-0.1988,1.3609,-0.311,-15.1234
8.9684,8.8401,9.4687,7.3076,5.6044,4.306,1.809,-0.1302,-0.3924,1.0845,2.0986,2.6147,3.3,3.6441,10.6753,5.1824,6.6437,5.5053,4.4346,4.6852,4.9485,4.4251,3.575,1.1393,-1.0003,-0.7973,-0.0663,1.4879,-0.3414,-15.3634
9.2419,9.1441,9.6582,7.4353,5.6724,4.3912,1.8032,-0.1419,-0.4906,0.9078,1.989,2.5314,3.3302,3.8143,11.0353,5.4637,6.9253,5.797,4.7022,4.9082,5.1585,4.6672,3.7919,1.2456,-1.0681,-0.9144,-0.057,1.504,-0.3979,-15.5352
9.4126,9.3675,9.7477,7.5015,5.6853,4.4016,1.6705,-0.2061,-0.6666,0.5754,1.7312,2.3233,3.2006,3.8715,11.3291,5.6745,7.1115,6.0441,4.9083,5.0583,5.2979,4.8581,3.971,1.2442,-1.1204,-1.0452,-0.1631,1.423,-0.4768,-15.6512
9.4767,9.4992,9.7406,7.4966,5.628,4.3263,1.3994,-0.3294,-0.9185,0.0961,1.3405,2.0163,2.9096,3.8017,11.5493,5.8081,7.2039,6.2286,5.0348,5.1302,5.3515,4.9667,4.0857,1.1262,-1.1485,-1.1633,-0.3666,1.2673,-0.5703,-15.7251
9.4353,9.5317,9.6482,7.4161,5.4914,4.1672,0.9937,-0.507,-1.2329,-0.5057,0.8471,1.6422,2.4675,3.6004,11.6896,5.8604,7.2096,6.3398,5.0672,5.1229,5.3097,4.9708,4.1164,0.8925,-1.15,-1.2487,-0.6436,1.0629,-0.6668,-15.7645
9.2914,9.4586,9.4843,7.2588,5.2721,3.9368,0.4732,-0.7249,-1.5867,-1.1915,0.2924,1.2337,1.8959,3.2724,11.742,5.8276,7.1359,6.3731,4.9959,5.0366,5.1685,4.8588,4.0526,0.5547,-1.1299,-1.2917,-0.9679,0.8338,-0.7536,-15.766
9.0493,9.2755,9.2614,7.0255,4.9723,3.6548,-0.1283,-0.963,-1.95,-1.9116,-0.2757,0.8198,1.2277,2.8328,11.6962,5.7065,6.9887,6.3279,4.8183,4.8723,4.9297,4.6321,3.8949,0.1347,-1.0982,-1.2941,-1.3141,0.599,-0.8197,-15.7152
8.7159,8.9819,8.9898,6.7204,4.6001,3.3437,-0.7671,-1.1997,-2.2902,-2.609,-0.8075,0.4249,0.5045,2.3057,11.5436,5.4972,6.7743,6.2078,4.5426,4.633,4.6023,4.3054,3.6565,-0.3364,-1.0665,-1.2671,-1.6591,0.372,-0.8584,-15.592
8.3046,8.5861,8.6787,6.3519,4.1701,3.0258,-1.3939,-1.4157,-2.5758,-3.2249,-1.2548,0.0694,-0.2242,1.7247,11.2826,5.2078,6.5038,6.0211,4.1902,4.3274,4.2037,3.9063,3.3625,-0.8194,-1.0434,-1.2252,-1.9806,0.163,-0.8693,-15.3803
7.8385,8.1082,8.3387,5.9357,3.7034,2.7207,-1.9588,-1.5962,-2.7797,-3.7034,-1.5739,-0.2268,-0.9041,1.1309,10.9234,4.8566,6.1962,5.7818,3.7948,3.973,3.7605,3.4729,3.0474,-1.2694,-1.0307,-1.1802,-2.2561,-0.0162,-0.8584,-15.0779
7.3503,7.5817,7.9838,5.495,3.2262,2.4432,-2.4161,-1.732,-2.8812,-3.9968,-1.7278,-0.4422,-1.4798,0.5696,10.4906,4.4734,5.879,5.5102,3.3981,3.5956,3.306,3.0486,2.7494,-1.6403,-1.0206,-1.1344,-2.4607,-0.1498,-0.8359,-14.7027
6.8795,7.0503,7.6316,5.0595,2.7666,2.2025,-2.7301,-1.8194,-2.8683,-4.072,-1.6903,-0.5533,-1.9007,0.0851,10.0198,4.0945,5.5834,5.2301,3.0413,3.2269,2.8759,2.6755,2.5032,-1.8902,-0.9979,-1.0789,-2.569,-0.217,-0.8127,-14.2929
6.4651,6.5612,7.3006,4.6599,2.3498,2.0008,-2.8795,-1.8593,-2.7397,-3.9154,-1.45,-0.538,-2.1291,-0.287,9.5506,3.7557,5.3354,4.9647,2.7564,2.8969,2.5014,2.3864,2.3326,-1.9885,-0.9429,-0.996,-2.5579,-0.1955,-0.7975,-13.8992
6.1376,6.1557,7.0073,4.3219,1.9934,1.834,-2.8615,-1.857,-2.5057,-3.5372,-1.015,-0.3804,-2.1468,-0.5258,9.1179,3.4829,5.147,4.7311,2.5574,2.6269,2.2026,2.1981,2.2446,-1.9223,-0.8381,-0.8649,-2.4123,-0.0669,-0.7935,-13.5728
5.9128,5.8612,6.7637,4.0608,1.7048,1.6931,-2.6926,-1.8213,-2.1877,-2.9719,-0.4145,-0.0772,-1.9593,-0.6297,8.7453,3.2862,5.0108,4.5365,2.4368,2.4242,1.984,2.1082,2.2277,-1.7001,-0.6736,-0.6703,-2.1306,0.1763,-0.7981,-13.3541
5.7899,5.6873,6.5761,3.8789,1.4814,1.5678,-2.4062,-1.7627,-1.8169,-2.2752,0.3022,0.3586,-1.5964,-0.6157,8.4423,3.1588,4.9023,4.3777,2.3682,2.2805,1.8351,2.0955,2.2553,-1.3512,-0.4513,-0.4086,-1.7278,0.5265,-0.8029,-13.2644
5.7545,5.6266,6.4469,3.7675,1.3144,1.45,-2.0469,-1.6923,-1.4304,-1.5168,1.0713,0.8965,-1.1073,-0.5148,8.2074,3.0811,4.7887,4.2444,2.3134,2.1768,1.7344,2.1254,2.2918,-0.921,-0.186,-0.0918,-1.2351,0.9599,-0.7966,-13.3046
5.7849,5.6599,6.3756,3.7118,1.1934,1.3377,-1.6633,-1.6205,-1.0673,-0.7713,1.8228,1.4913,-0.5516,-0.3637,8.0334,3.0292,4.6413,4.1233,2.2348,2.0902,1.6572,2.1589,2.3023,-0.4625,0.0961,0.2533,-0.6962,1.4391,-0.7674,-13.4575
5.8595,5.7622,6.3608,3.6962,1.111,1.2356,-1.3,-1.557,-0.7643,-0.1073,2.4897,2.088,0.0104,-0.1962,7.9135,2.9833,4.4462,4.0039,2.1056,2.0035,1.5841,2.162,2.261,-0.0269,0.3625,0.5892,-0.161,1.9183,-0.7071,-13.6931
5.963,5.9109,6.4012,3.7097,1.0654,1.1551,-0.9912,-1.5098,-0.5516,0.4212,3.0166,2.6292,0.528,-0.0355,7.8468,2.9357,4.2101,3.8824,1.9194,1.9118,1.508,2.1142,2.1581,0.3454,0.5793,0.875,0.3226,2.3502,-0.6133,-13.9767
6.0904,6.0902,6.4971,3.7492,1.0618,1.1116,-0.7561,-1.4859,-0.4496,0.7813,3.3665,3.0627,0.9674,0.1106,7.84,2.894,3.9609,3.7637,1.6927,1.8262,1.4369,2.0131,2.0022,0.6309,0.7182,1.0741,0.7159,2.6935,-0.4902,-14.2759
6.2478,6.2951,6.6496,3.8199,1.1105,1.1218,-0.5974,-1.4897,-0.4663,0.9646,3.5246,3.3493,1.315,0.2496,7.9065,2.8807,3.7423,3.661,1.4627,1.7721,1.3932,1.8744,1.8181,0.8254,0.7608,1.1608,0.9954,2.9189,-0.3475,-14.5673
6.4499,6.5309,6.8605,3.9332,1.2239,1.2008,-0.5035,-1.523,-0.5965,0.9852,3.4982,3.4675,1.5768,0.4008,8.0626,2.9269,3.6046,3.5915,1.2785,1.7838,1.4079,1.7269,1.641,0.9424,0.7009,1.1244,1.1549,3.0134,-0.1973,-14.84
6.7138,6.8093,7.1304,4.1024,1.4124,1.3588,-0.4523,-1.5836,-0.8233,0.8747,3.314,3.4168,1.7738,0.5885,8.3214,3.0642,3.5923,3.5717,1.1886,1.8938,1.5112,1.6036,1.5063,1.0072,0.5444,0.97,1.2048,2.9811,-0.051,-15.0958
7.0522,7.1424,7.4567,4.3375,1.6804,1.5983,-0.4183,-1.6663,-1.122,0.6747,3.0111,3.2162,1.9345,0.8332,8.6871,3.3137,3.7327,3.6116,1.2271,2.1233,1.7232,1.5321,1.4406,1.049,0.3072,0.7162,1.1681,2.841,0.0841,-15.3446
7.4672,7.5353,7.8319,4.6392,2.0223,1.9116,-0.3792,-1.764,-1.4653,0.4276,2.634,2.9005,2.0868,1.1449,9.1506,3.6778,4.026,3.7111,1.4024,2.4737,2.0456,1.5259,1.4538,1.0936,0.0114,0.3899,1.0743,2.6224,0.2054,-15.5981
7.9468,7.981,8.2429,4.9964,2.4214,2.2805,-0.3209,-1.8695,-1.828,0.1694,2.2248,2.514,2.2515,1.518,9.6885,4.1371,4.4435,3.8588,1.6936,2.9232,2.4592,1.581,1.5367,1.1576,-0.318,0.0218,0.9538,2.3591,0.3145,-15.8641
8.4655,8.46,8.6718,5.3859,2.8514,2.6778,-0.2399,-1.9768,-2.1898,-0.0737,1.8191,2.1042,2.439,1.9322,10.2659,4.6521,4.9318,4.0337,2.0541,3.4301,2.926,1.6769,1.6638,1.2463,-0.6567,-0.3584,0.8331,2.0844,0.4155,-16.1432
