FP1,F3,F7,FC3,C3,C5,P3,P7,PO7,PO3,O1,Oz,Pz,CPz,FP2,Fz,F4,F8,FC4,FCz,Cz,C4,C6,P4,P8,PO8,PO4,O2,(corr) HEOG,(corr) VEOG
2.6886,2.3111,-0.0897,2.2209,2.2232,1.4282,1.5734,0.691,0.7338,1.4851,0.9131,0.6811,1.4288,1.8486,3.4119,2.301,1.5384,1.1954,1.6545,2.6227,2.5553,1.5392,1.0934,0.3963,0.0952,0.0126,0.4015,0.336,0.0525,-6.1552
2.0703,1.8834,0.1123,1.9245,1.9854,1.2512,1.4366,0.6416,0.71,1.2908,0.8386,0.6877,1.2436,1.701,2.521,1.9948,1.3104,1.0045,1.529,2.4043,2.3501,1.4664,1.0875,0.4145,0.1677,0.0883,0.3981,0.3617,-0.0408,-4.7592
1.4963,1.4788,0.2878,1.6421,1.7607,1.082,1.3044,0.5958,0.6831,1.1053,0.7594,0.6882,1.0744,1.5682,1.7155,1.7042,1.0943,0.8338,1.4082,2.1938,2.155,1.3997,1.0812,0.4398,0.2368,0.1638,0.3998,0.3881,-0.1335,-3.4807
1.0051,1.1196,0.413,1.3868,1.5602,0.9269,1.1821,0.5554,0.6507,0.9392,0.6746,0.679,0.9343,1.4606,1.0654,1.4422,0.9002,0.6968,1.2962,1.9975,1.978,1.343,1.0731,0.4759,0.2999,0.2391,0.4093,0.4149,-0.2233,-2.4249
0.6175,0.8188,0.4735,1.1665,1.39,0.7892,1.0729,0.5195,0.6108,0.8002,0.5837,0.657,0.8297,1.3819,0.6018,1.2168,0.7351,0.5985,1.1952,1.8191,1.8235,1.2967,1.0612,0.5218,0.3541,0.3113,0.4263,0.4386,-0.3069,-1.6464
0.3359,0.5797,0.4662,0.9833,1.2508,0.6691,0.9776,0.484,0.5615,0.6913,0.4863,0.6202,0.759,1.3284,0.3146,1.0299,0.602,0.5356,1.105,1.6592,1.691,1.257,1.0428,0.5721,0.3964,0.3742,0.4463,0.4524,-0.3797,-1.1443
0.1482,0.3974,0.3986,0.8339,1.1383,0.5648,0.8944,0.4436,0.501,0.6111,0.3821,0.5667,0.7135,1.2896,0.1632,0.8781,0.5004,0.4979,1.0236,1.5149,1.5753,1.2172,1.015,0.6166,0.4238,0.4191,0.4615,0.4467,-0.437,-0.8738
0.0358,0.2627,0.2864,0.7124,1.045,0.4736,0.8207,0.3943,0.4286,0.5544,0.2718,0.4954,0.6807,1.2516,0.0948,0.754,0.4277,0.473,0.948,1.3815,1.4686,1.1698,0.9751,0.6435,0.4337,0.4374,0.4621,0.4124,-0.4743,-0.7681
-0.0188,0.1667,0.1503,0.6128,0.9639,0.395,0.7542,0.335,0.3454,0.5149,0.1585,0.4077,0.6483,1.2013,0.0631,0.65,0.3801,0.4504,0.8766,1.254,1.3628,1.1095,0.9224,0.6426,0.4251,0.4231,0.4395,0.3448,-0.4885,-0.761
-0.0276,0.1044,0.0134,0.5325,0.8905,0.3313,0.6949,0.2693,0.2555,0.4871,0.0497,0.3085,0.6088,1.1305,0.0419,0.5603,0.355,0.425,0.8097,1.1299,1.253,1.0354,0.8592,0.6083,0.3991,0.3756,0.3898,0.2467,-0.4782,-0.8033
0.0036,0.0755,-0.1021,0.4728,0.8248,0.288,0.6451,0.2047,0.1658,0.4684,-0.0442,0.2067,0.5612,1.0391,0.0274,0.484,0.3513,0.398,0.7504,1.0104,1.1392,0.9523,0.7916,0.5425,0.3594,0.3009,0.3151,0.1293,-0.4448,-0.8676
0.0715,0.0822,-0.1769,0.4381,0.7706,0.272,0.6081,0.1508,0.0848,0.458,-0.1116,0.1134,0.511,0.9341,0.0325,0.4239,0.3691,0.3761,0.7031,0.9006,1.0266,0.8693,0.7278,0.4542,0.3124,0.2105,0.2241,0.0103,-0.3922,-0.9435
0.171,0.1249,-0.1977,0.432,0.7323,0.2881,0.5862,0.1159,0.0201,0.4553,-0.1449,0.0388,0.4666,0.8275,0.074,0.3854,0.4074,0.3684,0.6719,0.8074,0.9234,0.7969,0.6768,0.3576,0.2653,0.1188,0.1296,-0.0904,-0.3271,-1.0261
0.2905,0.1984,-0.1597,0.4539,0.7123,0.3362,0.578,0.1047,-0.0235,0.4579,-0.1425,-0.0108,0.4357,0.7315,0.1602,0.3719,0.463,0.3816,0.6572,0.7363,0.837,0.7429,0.6446,0.268,0.2247,0.0398,0.0454,-0.1563,-0.2582,-1.105
0.4111,0.2892,-0.0683,0.4961,0.7079,0.4092,0.5782,0.1164,-0.045,0.4608,-0.1106,-0.0346,0.4217,0.6541,0.2834,0.3824,0.5282,0.4174,0.6546,0.6878,0.7703,0.7095,0.6323,0.1984,0.1952,-0.0158,-0.017,-0.1788,-0.1952,-1.1602
0.5089,0.3768,0.0609,0.5442,0.7109,0.494,0.5779,0.1457,-0.0466,0.4574,-0.0607,-0.0371,0.4217,0.5966,0.4199,0.4094,0.5913,0.4697,0.6541,0.6561,0.7201,0.6916,0.6346,0.1561,0.1782,-0.0421,-0.0505,-0.1584,-0.1472,-1.1641
0.5599,0.4383,0.2047,0.5795,0.709,0.573,0.5678,0.1841,-0.0321,0.4412,-0.0055,-0.0255,0.4277,0.5536,0.5367,0.4402,0.6382,0.5257,0.643,0.6301,0.6777,0.6782,0.6406,0.1418,0.1719,-0.0386,-0.0541,-0.1047,-0.1204,-1.0915
0.5464,0.4542,0.3366,0.5848,0.6896,0.629,0.5402,0.2233,-0.0056,0.4088,0.0448,-0.0077,0.4288,0.5153,0.6017,0.4599,0.6555,0.5681,0.6088,0.5964,0.6317,0.6557,0.637,0.15,0.1718,-0.009,-0.0318,-0.0328,-0.1172,-0.9294
0.4612,0.4149,0.4329,0.5484,0.6438,0.649,0.492,0.2575,0.0303,0.3602,0.0849,0.0105,0.4143,0.4714,0.5928,0.4557,0.6334,0.5794,0.5432,0.5428,0.5719,0.6116,0.6113,0.1708,0.1719,0.0394,0.0082,0.0401,-0.1348,-0.6838
0.3104,0.3232,0.4769,0.4679,0.5684,0.6269,0.4249,0.2842,0.0737,0.2995,0.1145,0.0254,0.3765,0.4142,0.5034,0.4201,0.5683,0.5459,0.445,0.4627,0.4918,0.5381,0.5549,0.1922,0.1659,0.0977,0.0558,0.0985,-0.1649,-0.3798
0.1127,0.1937,0.4625,0.3504,0.4676,0.5644,0.3446,0.3042,0.1225,0.2321,0.1353,0.0347,0.3124,0.3403,0.3432,0.3527,0.4631,0.4618,0.3202,0.3556,0.3908,0.4343,0.4657,0.2031,0.1479,0.1553,0.0999,0.1314,-0.196,-0.0558
-0.1045,0.0493,0.3942,0.2101,0.3509,0.4699,0.2585,0.3195,0.173,0.1632,0.1488,0.0357,0.2233,0.2512,0.1346,0.2596,0.3268,0.3306,0.1805,0.2274,0.2732,0.3062,0.3478,0.195,0.1136,0.2018,0.1306,0.1331,-0.2148,0.2461
-0.3096,-0.0853,0.2859,0.0646,0.2304,0.3562,0.1735,0.3312,0.2192,0.0957,0.1538,0.0252,0.115,0.1521,-0.0925,0.1513,0.1731,0.1653,0.0411,0.0884,0.1466,0.1653,0.2107,0.1635,0.0609,0.2275,0.1404,0.1037,-0.21,0.491
-0.4739,-0.1894,0.1571,-0.069,0.1184,0.2376,0.0947,0.3384,0.2533,0.0309,0.1471,0.0001,-0.0043,0.0504,-0.308,0.0401,0.0179,-0.014,-0.0833,-0.0492,0.0203,0.0262,0.0673,0.1093,-0.0089,0.2253,0.1252,0.049,-0.1746,0.6584
-0.5767,-0.251,0.0294,-0.1779,0.0241,0.1276,0.0248,0.3377,0.2674,-0.0313,0.1257,-0.0413,-0.1245,-0.0457,-0.4865,-0.063,-0.1237,-0.1843,-0.1817,-0.174,-0.0969,-0.0966,-0.0695,0.0379,-0.0917,0.1926,0.0861,-0.0204,-0.1074,0.7457
-0.6091,-0.2693,-0.0784,-0.2551,-0.0474,0.0367,-0.0355,0.3244,0.2562,-0.0901,0.0891,-0.0969,-0.2356,-0.1294,-0.6121,-0.1502,-0.24,-0.3244,-0.2484,-0.2778,-0.1979,-0.1924,-0.1887,-0.0416,-0.1802,0.1317,0.0283,-0.0914,-0.0133,0.7661
-0.5755,-0.2533,-0.1535,-0.3006,-0.096,-0.028,-0.0866,0.2947,0.2186,-0.1438,0.0401,-0.1612,-0.3285,-0.1959,-0.679,-0.2177,-0.3242,-0.4191,-0.2844,-0.3568,-0.2787,-0.2557,-0.2829,-0.1182,-0.2653,0.05,-0.0392,-0.1511,0.0978,0.7425
-0.4913,-0.2185,-0.1911,-0.3198,-0.1262,-0.0647,-0.1296,0.2469,0.1588,-0.1896,-0.0156,-0.2261,-0.3962,-0.2433,-0.6904,-0.2663,-0.3755,-0.4613,-0.2957,-0.4122,-0.3386,-0.2877,-0.35,-0.1817,-0.3373,-0.041,-0.1062,-0.1894,0.2127,0.6995
-0.3792,-0.1826,-0.1952,-0.3226,-0.1465,-0.0765,-0.1664,0.1825,0.0846,-0.2253,-0.0713,-0.283,-0.4352,-0.2733,-0.6565,-0.2994,-0.3976,-0.4523,-0.292,-0.4489,-0.3803,-0.2953,-0.3917,-0.2244,-0.388,-0.1284,-0.1634,-0.2018,0.3165,0.6573
-0.2643,-0.161,-0.1764,-0.3202,-0.1678,-0.0715,-0.1999,0.1059,0.0057,-0.2502,-0.1219,-0.3257,-0.4457,-0.2906,-0.5915,-0.3226,-0.3971,-0.4003,-0.2836,-0.4748,-0.4096,-0.29,-0.4138,-0.2434,-0.412,-0.2006,-0.2046,-0.1903,0.3957,0.6292
-0.1691,-0.1631,-0.148,-0.3238,-0.2009,-0.0613,-0.2337,0.0232,-0.0692,-0.2663,-0.1647,-0.351,-0.432,-0.3024,-0.5103,-0.3414,-0.382,-0.3182,-0.2798,-0.4983,-0.4344,-0.2843,-0.4238,-0.2403,-0.4075,-0.2496,-0.2278,-0.1622,0.44,0.6208
-0.1089,-0.1912,-0.1227,-0.3411,-0.2541,-0.058,-0.2714,-0.0587,-0.1339,-0.2777,-0.1995,-0.3592,-0.4012,-0.3163,-0.4253,-0.3603,-0.3592,-0.2209,-0.2866,-0.5259,-0.4621,-0.2897,-0.4297,-0.2208,-0.3771,-0.2719,-0.2344,-0.128,0.4444,0.6314
-0.0882,-0.2396,-0.1089,-0.375,-0.3306,-0.072,-0.3154,-0.1335,-0.1853,-0.2891,-0.2269,-0.3525,-0.3619,-0.3385,-0.3438,-0.3809,-0.334,-0.1228,-0.3064,-0.5607,-0.4984,-0.3134,-0.438,-0.193,-0.326,-0.2685,-0.2281,-0.0975,0.4109,0.6553
-0.101,-0.2973,-0.1093,-0.4232,-0.4276,-0.1089,-0.3664,-0.1962,-0.2233,-0.3044,-0.247,-0.3337,-0.3225,-0.3721,-0.2665,-0.4023,-0.3095,-0.037,-0.3377,-0.6015,-0.5455,-0.3575,-0.4524,-0.1652,-0.2617,-0.2437,-0.2131,-0.077,0.3478,0.6829
-0.1322,-0.3509,-0.1218,-0.4794,-0.5373,-0.1692,-0.4235,-0.2439,-0.2494,-0.3252,-0.2588,-0.3052,-0.2902,-0.4177,-0.1896,-0.4217,-0.2871,0.0257,-0.3769,-0.644,-0.6018,-0.4193,-0.4747,-0.1446,-0.1923,-0.2035,-0.1934,-0.0684,0.2685,0.7031
-0.164,-0.3884,-0.1411,-0.5357,-0.6489,-0.2487,-0.4845,-0.2766,-0.2662,-0.3518,-0.2602,-0.2687,-0.2709,-0.4736,-0.1084,-0.4363,-0.2679,0.0572,-0.4197,-0.6827,-0.6635,-0.4933,-0.5043,-0.1366,-0.1258,-0.1546,-0.1724,-0.0689,0.1885,0.7067
-0.1808,-0.4022,-0.161,-0.5849,-0.7519,-0.3402,-0.547,-0.2975,-0.2769,-0.3834,-0.2503,-0.2262,-0.2684,-0.5375,-0.0231,-0.4447,-0.2531,0.0522,-0.4625,-0.7138,-0.7263,-0.5729,-0.5401,-0.1447,-0.0693,-0.1036,-0.1528,-0.0728,0.1228,0.6909
-0.175,-0.391,-0.1763,-0.6226,-0.8389,-0.4354,-0.6095,-0.3122,-0.2845,-0.419,-0.2296,-0.1806,-0.2845,-0.6077,0.0592,-0.4484,-0.2449,0.0089,-0.5043,-0.7369,-0.7874,-0.6533,-0.5812,-0.1702,-0.0282,-0.0564,-0.1369,-0.074,0.0827,0.661
-0.1484,-0.3599,-0.1847,-0.6477,-0.907,-0.5266,-0.6709,-0.3278,-0.2922,-0.4581,-0.2017,-0.1357,-0.3184,-0.6832,0.1238,-0.4526,-0.2468,-0.0709,-0.5465,-0.7562,-0.8468,-0.7317,-0.6272,-0.2124,-0.0061,-0.0181,-0.1268,-0.0682,0.0743,0.6303
-0.1114,-0.3192,-0.1864,-0.6623,-0.9581,-0.6082,-0.7304,-0.3502,-0.3022,-0.5006,-0.1716,-0.0962,-0.3671,-0.7639,0.1537,-0.4652,-0.2634,-0.1817,-0.5928,-0.7802,-0.9074,-0.808,-0.6781,-0.2679,-0.004,0.0071,-0.1234,-0.0542,0.0981,0.6167
-0.0795,-0.2823,-0.1843,-0.6712,-0.9981,-0.6772,-0.7868,-0.3834,-0.3158,-0.5458,-0.1454,-0.0666,-0.4256,-0.8503,0.135,-0.4952,-0.2999,-0.315,-0.6486,-0.8195,-0.9748,-0.884,-0.7343,-0.3312,-0.0203,0.0162,-0.1273,-0.0344,0.1488,0.6374
-0.0693,-0.2631,-0.1821,-0.6811,-1.0356,-0.7339,-0.8387,-0.4276,-0.333,-0.5922,-0.1282,-0.0505,-0.4884,-0.9425,0.063,-0.5503,-0.3604,-0.4599,-0.7188,-0.8845,-1.0558,-0.9621,-0.7952,-0.3953,-0.0512,0.0077,-0.1377,-0.0138,0.2165,0.7043
-0.0943,-0.2733,-0.1833,-0.6995,-1.0805,-0.7823,-0.8857,-0.48,-0.353,-0.6377,-0.1229,-0.0495,-0.5509,-1.0408,-0.0558,-0.6351,-0.4469,-0.6042,-0.8067,-0.9826,-1.1568,-1.0444,-0.859,-0.4532,-0.0914,-0.0183,-0.1531,0.0016,0.2878,0.8217
-0.1627,-0.3196,-0.1906,-0.7335,-1.1416,-0.8287,-0.9287,-0.5359,-0.3745,-0.6803,-0.1303,-0.0633,-0.611,-1.1453,-0.2046,-0.7494,-0.5573,-0.7357,-0.9119,-1.1162,-1.2821,-1.131,-0.9222,-0.4989,-0.1349,-0.0593,-0.1717,0.0062,0.3479,0.9861
-0.2745,-0.4026,-0.2051,-0.7881,-1.2257,-0.8807,-0.9716,-0.5907,-0.3973,-0.7192,-0.1497,-0.0907,-0.6695,-1.2556,-0.3608,-0.8879,-0.6849,-0.844,-1.0301,-1.2822,-1.4325,-1.2203,-0.9803,-0.5293,-0.1766,-0.1115,-0.1921,-0.0039,0.3833,1.1875
-0.4211,-0.5152,-0.2263,-0.8648,-1.335,-0.9445,-1.0196,-0.6411,-0.4218,-0.7553,-0.1798,-0.1298,-0.729,-1.3702,-0.5011,-1.0404,-0.8177,-0.9206,-1.1526,-1.4712,-1.6047,-1.3082,-1.0282,-0.5442,-0.2131,-0.1699,-0.2139,-0.0312,0.3842,1.4119
-0.5849,-0.6429,-0.2514,-0.9594,-1.4662,-1.023,-1.0786,-0.6857,-0.4498,-0.7915,-0.2199,-0.1796,-0.7932,-1.4862,-0.6068,-1.1927,-0.94,-0.9601,-1.268,-1.6693,-1.7907,-1.389,-1.0616,-0.5469,-0.243,-0.2293,-0.2384,-0.0765,0.3473,1.643
-0.7421,-0.7661,-0.2757,-1.0624,-1.6104,-1.1142,-1.1525,-0.7242,-0.4832,-0.8315,-0.271,-0.2393,-0.864,-1.5987,-0.667,-1.329,-1.0347,-0.9606,-1.3638,-1.8598,-1.9786,-1.4564,-1.0776,-0.5428,-0.2668,-0.2854,-0.268,-0.1389,0.2763,1.8652
-0.8676,-0.8644,-0.2925,-1.1611,-1.7546,-1.2117,-1.2418,-0.7576,-0.5238,-0.8789,-0.3349,-0.3082,-0.9406,-1.7017,-0.6811,-1.4354,-1.087,-0.9234,-1.4298,-2.0266,-2.1549,-1.5046,-1.0755,-0.5379,-0.2856,-0.3348,-0.3048,-0.2148,0.1807,2.067
-0.9409,-0.9222,-0.2955,-1.2437,-1.8847,-1.3069,-1.3428,-0.7871,-0.5719,-0.9356,-0.4134,-0.3847,-1.0191,-1.7885,-0.6583,-1.5033,-1.0892,-0.8545,-1.4609,-2.1578,-2.3069,-1.5308,-1.0575,-0.537,-0.3004,-0.375,-0.3497,-0.2976,0.0731,2.2426
-0.9518,-0.9332,-0.2798,-1.302,-1.9888,-1.3912,-1.4489,-0.8143,-0.6269,-1.0011,-0.5068,-0.4658,-1.0931,-1.8538,-0.6149,-1.5323,-1.0432,-0.764,-1.4583,-2.2485,-2.4255,-1.5354,-1.028,-0.5422,-0.3108,-0.4039,-0.4007,-0.3777,-0.0338,2.3932
-0.9032,-0.9022,-0.2446,-1.3346,-2.0598,-1.4584,-1.5516,-0.8409,-0.6867,-1.0723,-0.6129,-0.5471,-1.1551,-1.8941,-0.57,-1.5304,-0.9609,-0.6658,-1.4298,-2.3017,-2.5064,-1.5224,-0.993,-0.5527,-0.3151,-0.42,-0.4529,-0.4439,-0.1293,2.5247
-0.811,-0.8439,-0.1935,-1.3463,-2.0962,-1.5056,-1.6424,-0.8687,-0.7483,-1.1437,-0.7261,-0.6231,-1.1979,-1.9085,-0.5409,-1.5117,-0.8621,-0.575,-1.3876,-2.3264,-2.5505,-1.4985,-0.9594,-0.5643,-0.3108,-0.4219,-0.4986,-0.4856,-0.2061,2.6451
-0.7008,-0.7784,-0.1336,-1.3458,-2.1018,-1.5327,-1.7136,-0.8985,-0.8076,-1.2082,-0.8379,-0.688,-1.2161,-1.8984,-0.5391,-1.4925,-0.7692,-0.5061,-1.345,-2.3352,-2.5629,-1.4715,-0.9334,-0.5711,-0.2958,-0.4091,-0.5291,-0.4954,-0.2602,2.7613
-0.6014,-0.7251,-0.0729,-1.3429,-2.0836,-1.5421,-1.7601,-0.9296,-0.8599,-1.2582,-0.9376,-0.7365,-1.2068,-1.8669,-0.5681,-1.4872,-0.7029,-0.4693,-1.3141,-2.3403,-2.5507,-1.4488,-0.9196,-0.5674,-0.27,-0.3827,-0.5373,-0.4716,-0.2901,2.8766
-0.5376,-0.6977,-0.019,-1.3452,-2.05,-1.5374,-1.7795,-0.9594,-0.9001,-1.288,-1.0146,-0.7652,-1.1706,-1.8185,-0.6238,-1.5046,-0.6772,-0.469,-1.3031,-2.3511,-2.5218,-1.436,-0.9205,-0.5502,-0.2366,-0.3471,-0.5202,-0.4189,-0.2968,2.9887
-0.5226,-0.7003,0.0234,-1.3558,-2.0093,-1.5232,-1.7732,-0.9839,-0.9246,-1.2949,-1.0617,-0.7735,-1.1125,-1.7592,-0.695,-1.5466,-0.6969,-0.5024,-1.3153,-2.3723,-2.4841,-1.4366,-0.937,-0.5215,-0.2026,-0.3112,-0.4812,-0.3493,-0.2827,3.0889
-0.5549,-0.7276,0.0529,-1.3737,-1.9688,-1.5043,-1.7467,-0.999,-0.9319,-1.281,-1.0767,-0.7653,-1.0417,-1.6973,-0.7662,-1.6082,-0.7571,-0.5607,-1.3499,-2.4035,-2.4451,-1.4523,-0.9688,-0.4892,-0.1785,-0.288,-0.4312,-0.2802,-0.252,3.1627
-0.6185,-0.7668,0.071,-1.3943,-1.9345,-1.4859,-1.7095,-1.0032,-0.9243,-1.2538,-1.0635,-0.7475,-0.9719,-1.6431,-0.8215,-1.6792,-0.8445,-0.6318,-1.4021,-2.4412,-2.4124,-1.4835,-1.0152,-0.4671,-0.1759,-0.2926,-0.3868,-0.2306,-0.2099,3.1937
-0.6886,-0.8027,0.0816,-1.4126,-1.9114,-1.4733,-1.6737,-0.9982,-0.9078,-1.2241,-1.0311,-0.7295,-0.9192,-1.6083,-0.8482,-1.7468,-0.9411,-0.7036,-1.4652,-2.4795,-2.3935,-1.53,-1.0758,-0.4716,-0.2045,-0.3375,-0.3665,-0.2163,-0.1622,3.1681
-0.7399,-0.8227,0.089,-1.4246,-1.9039,-1.4718,-1.6518,-0.9899,-0.89,-1.2042,-0.9905,-0.7195,-0.8994,-1.6048,-0.8395,-1.7987,-1.0276,-0.7671,-1.5317,-2.5128,-2.396,-1.5909,-1.1499,-0.5169,-0.2679,-0.4275,-0.3853,-0.2456,-0.1146,3.0802
-0.7553,-0.8204,0.0958,-1.43,-1.9157,-1.4863,-1.6531,-0.9863,-0.878,-1.2032,-0.9514,-0.7221,-0.9247,-1.6419,-0.7962,-1.8257,-1.0886,-0.8186,-1.5952,-2.5372,-2.4264,-1.6649,-1.2365,-0.61,-0.3601,-0.5545,-0.449,-0.3152,-0.073,2.9348
-0.732,-0.7988,0.0996,-1.4329,-1.95,-1.5213,-1.6807,-0.995,-0.8754,-1.2241,-0.9192,-0.7367,-0.9999,-1.7249,-0.7277,-1.8248,-1.1163,-0.8604,-1.6517,-2.5525,-2.4897,-1.7501,-1.3335,-0.746,-0.4644,-0.6955,-0.5503,-0.4105,-0.0424,2.7489
-0.6852,-0.7704,0.0905,-1.4428,-2.0094,-1.581,-1.7298,-1.02,-0.88,-1.2614,-0.8937,-0.7574,-1.1204,-1.8533,-0.6518,-1.8011,-1.1135,-0.9004,-1.701,-2.5639,-2.5889,-1.8444,-1.4379,-0.9065,-0.5539,-0.8145,-0.6681,-0.5079,-0.0278,2.5505
-0.647,-0.7562,0.051,-1.4737,-2.0962,-1.6689,-1.7876,-1.0595,-0.8835,-1.3016,-0.8705,-0.7754,-1.2722,-2.0205,-0.5947,-1.7691,-1.0947,-0.9514,-1.7483,-2.5828,-2.7249,-1.9462,-1.5458,-1.0607,-0.5969,-0.8686,-0.7704,-0.5805,-0.0333,2.3765
-0.6605,-0.7815,-0.0416,-1.5413,-2.2109,-1.7871,-1.8349,-1.1047,-0.8731,-1.3256,-0.8433,-0.7814,-1.4328,-2.2145,-0.5892,-1.7511,-1.0845,-1.0284,-1.8032,-2.6252,-2.8956,-2.0536,-1.6528,-1.1704,-0.5625,-0.8174,-0.8202,-0.6046,-0.0611,2.2702
-0.7708,-0.8702,-0.2081,-1.6594,-2.3508,-1.9342,-1.8492,-1.1408,-0.8341,-1.3122,-0.8068,-0.7691,-1.5748,-2.4174,-0.6702,-1.7729,-1.1118,-1.1455,-1.8772,-2.7081,-3.095,-2.1639,-1.7535,-1.1968,-0.4291,-0.6338,-0.7838,-0.5662,-0.1106,2.2769
-1.0139,-1.0368,-0.4589,-1.8332,-2.5065,-2.1022,-1.8082,-1.1489,-0.753,-1.2429,-0.7591,-0.7364,-1.6682,-2.6061,-0.8681,-1.8565,-1.2015,-1.3117,-1.9785,-2.8429,-3.3102,-2.2708,-1.8408,-1.1075,-0.1903,-0.3132,-0.6386,-0.4651,-0.1775,2.4387
-1.4047,-1.2784,-0.7853,-2.0535,-2.6585,-2.2737,-1.6922,-1.1095,-0.6215,-1.1056,-0.7029,-0.6862,-1.6842,-2.7512,-1.2001,-2.0109,-1.3645,-1.5249,-2.1056,-3.0276,-3.519,-2.3612,-1.9036,-0.8827,0.1405,0.1205,-0.3791,-0.3162,-0.2531,2.7869
-1.9282,-1.5693,-1.1544,-2.2919,-2.7752,-2.4203,-1.487,-1.0068,-0.439,-0.8977,-0.6447,-0.6247,-1.5968,-2.8178,-1.6605,-2.2241,-1.5886,-1.7676,-2.2412,-3.2405,-3.6871,-2.4122,-1.9253,-0.5192,0.53,0.6152,-0.02,-0.146,-0.3256,3.3336
-2.5343,-1.8586,-1.5098,-2.4998,-2.8141,-2.5035,-1.186,-0.8332,-0.2146,-0.6271,-0.5929,-0.5587,-1.3854,-2.7668,-2.2137,-2.4581,-1.8335,-2.0036,-2.3487,-3.437,-3.7689,-2.3903,-1.8823,-0.0303,0.9282,1.0968,0.4055,0.0132,-0.3822,4.0638
-3.1402,-2.0748,-1.7776,-2.6126,-2.7261,-2.4789,-0.7918,-0.593,0.0317,-0.3121,-0.5554,-0.4924,-1.036,-2.5584,-2.7918,-2.6494,-2.0318,-2.1794,-2.374,-3.5522,-3.7105,-2.2535,-1.7456,0.5557,1.2756,1.481,0.8508,0.1306,-0.4119,4.9317
-3.6403,-2.1349,-1.8793,-2.5587,-2.4638,-2.3037,-0.3166,-0.3052,0.271,0.0208,-0.5368,-0.4248,-0.5428,-2.1584,-3.2995,-2.7167,-2.0984,-2.2306,-2.2525,-3.5098,-3.4574,-1.9572,-1.4844,1.2009,1.5132,1.6892,1.2653,0.1856,-0.4077,5.8624
-3.9242,-1.9609,-1.7463,-2.2738,-1.9913,-1.9457,0.2171,-0.0033,0.4683,0.341,-0.5366,-0.3482,0.0895,-1.545,-3.6284,-2.5758,-1.9471,-2.0931,-1.9219,-3.2359,-2.9643,-1.4637,-1.0727,1.8629,1.5933,1.6646,1.6041,0.1725,-0.3683,6.7611
-3.8976,-1.4967,-1.3351,-1.7153,-1.2949,-1.3927,0.7781,0.2678,0.588,0.6175,-0.5491,-0.2506,0.8441,-0.7165,-3.6769,-2.1581,-1.5105,-1.7179,-1.3371,-2.6761,-2.207,-0.7526,-0.4975,2.5004,1.4897,1.3845,1.836,0.1025,-0.2979,7.5278
-3.503,-0.7251,-0.6376,-0.8764,-0.391,-0.6599,1.3276,0.4581,0.5992,0.8227,-0.5647,-0.1194,1.6894,0.3031,-3.3722,-1.4288,-0.7598,-1.084,-0.4851,-1.8108,-1.1921,0.1693,0.234,3.0761,1.2033,0.8668,1.9479,0.0005,-0.2058,8.0732
-2.7332,0.3233,0.3156,0.2069,0.6707,0.208,1.8213,0.5211,0.4817,0.9347,-0.5736,0.0529,2.5781,1.4613,-2.686,-0.4003,0.2833,-0.2074,0.6063,-0.6649,0.0374,1.2623,1.0894,3.558,0.7621,0.1657,1.9433,-0.1023,-0.1039,8.332
-1.6333,1.5711,1.4586,1.457,1.8101,1.1407,2.2126,0.4232,0.229,0.938,-0.5687,0.2632,3.4486,2.6791,-1.6421,0.8652,1.5451,0.8588,1.8668,0.6911,1.4032,2.4545,2.0118,3.9182,0.2163,-0.6386,1.837,-0.1769,-0.0046,8.2694
-0.2926,2.9055,2.7007,2.765,2.9266,2.0517,2.457,0.1508,-0.1503,0.8239,-0.5495,0.4957,4.2294,3.8596,-0.312,2.2634,2.9111,2.031,3.1927,2.1498,2.7998,3.6495,2.9259,4.1326,-0.3726,-1.4574,1.6479,-0.2056,0.0812,7.8829
1.1715,4.198,3.9403,4.0086,3.9139,2.852,2.5181,-0.2859,-0.6332,0.5907,-0.5235,0.7221,4.8479,4.8999,1.1969,3.6656,4.247,3.209,4.4634,3.5839,4.1099,4.7404,3.7486,4.1816,-0.9424,-2.2096,1.3924,-0.1865,0.1463,7.199
2.6333,5.3264,5.0801,5.0718,4.677,3.4647,2.3742,-0.8539,-1.1861,0.2449,-0.5052,0.9065,5.2403,5.7065,2.7586,4.9408,5.4224,4.292,5.562,4.8678,5.2221,5.6272,4.4031,4.0522,-1.441,-2.8349,1.0809,-0.1348,0.1879,6.2673
3.9761,6.1941,6.0392,5.8638,5.1479,3.8368,2.0239,-1.502,-1.7678,-0.1973,-0.5131,1.0127,5.3631,6.2092,4.2463,5.9779,6.3343,5.1939,6.3946,5.8969,6.0477,6.2324,4.8305,3.7417,-1.8332,-3.3002,0.7188,-0.0784,0.2074,5.1547
5.1061,6.7424,6.761,6.3307,5.2953,3.9462,1.4899,-2.1688,-2.3347,-0.7091,-0.5643,1.0124,5.2001,6.3716,5.5472,6.7011,6.9208,5.8536,6.9038,6.6025,6.5333,6.5124,4.9996,3.2605,-2.1028,-3.5988,0.3097,-0.0492,0.2094,3.9387
5.9586,6.9537,7.216,6.4593,5.1271,3.803,0.818,-2.7916,-2.8441,-1.2527,-0.6679,0.8931,4.7664,6.194,6.5731,7.0771,7.1662,6.24,7.0735,6.9573,6.6643,6.4616,4.9088,2.6345,-2.2508,-3.743,-0.1387,-0.073,0.1998,2.7013
6.4991,6.8461,7.3991,6.2724,4.6853,3.4442,0.072,-3.3153,-3.2584,-1.7821,-0.8207,0.6623,4.1058,5.711,7.2643,7.1135,7.0951,6.3499,6.9249,6.9724,6.4632,6.1086,4.5843,1.9042,-2.2904,-3.7546,-0.6101,-0.1615,0.1846,1.5251
6.7201,6.4637,7.3247,5.82,4.0358,2.9249,-0.6747,-3.6995,-3.5479,-2.2476,-1.0054,0.3473,3.2838,4.9828,7.59,6.8494,6.7595,6.2023,6.5066,6.6891,5.9805,5.5083,4.0726,1.1216,-2.2406,-3.656,-1.0778,-0.3074,0.1688,0.4877
6.636,5.8656,7.021,5.1676,3.2566,2.3083,-1.3502,-3.9221,-3.6934,-2.6024,-1.1942,-0.0101,2.3777,4.085,7.5463,6.345,6.2255,5.8308,5.8824,6.1677,5.2844,4.7299,3.4315,0.3442,-2.1218,-3.4655,-1.5068,-0.4867,0.1566,-0.3445
6.2798,5.1168,6.5249,4.3864,2.4259,1.6567,-1.8938,-3.9801,-3.6876,-2.8102,-1.3547,-0.362,1.4651,3.0979,7.1551,5.6704,5.56,5.2766,5.121,5.4777,4.4509,3.8469,2.7205,-0.3723,-1.9525,-3.1968,-1.8603,-0.6654,0.1512,-0.9255
5.6987,4.2832,5.8786,3.5468,1.6143,1.025,-2.2634,-3.8863,-3.5349,-2.8508,-1.4575,-0.6639,0.6147,2.0974,6.4617,4.8975,4.8231,4.5834,4.2879,4.6903,3.5552,2.9288,1.9941,-0.9807,-1.7487,-2.8622,-2.1064,-0.8092,0.1559,-1.2378
4.9509,3.4273,5.126,2.7135,0.8798,0.457,-2.4384,-3.6639,-3.25,-2.7224,-1.4821,-0.8816,-0.1203,1.1497,5.5325,4.0937,4.0637,3.7942,3.4408,3.8735,2.6664,2.0358,1.2969,-1.4476,-1.5241,-2.4752,-2.2251,-0.8912,0.1732,-1.2982
4.0994,2.6061,4.3111,1.9424,0.2655,-0.0158,-2.4191,-3.3399,-2.8546,-2.4405,-1.4196,-0.996,-0.7048,0.3081,4.4486,3.3181,3.3184,2.9497,2.6281,3.0882,1.8438,1.2167,0.6625,-1.7547,-1.2905,-2.0525,-2.2102,-0.8981,0.2039,-1.155
3.2053,1.8672,3.4757,1.2783,-0.2001,-0.3741,-2.2216,-2.9397,-2.3741,-2.0329,-1.2724,-1.0029,-1.121,-0.3881,3.2974,2.6176,2.6121,2.0879,1.8877,2.3856,1.1347,0.5084,0.114,-1.8979,-1.058,-1.6132,-2.0692,-0.8301,0.2464,-0.8776
2.3199,1.2461,2.6581,0.7527,-0.5026,-0.6098,-1.872,-2.483,-1.8339,-1.5334,-1.0509,-0.9098,-1.3653,-0.9134,2.1614,2.0251,1.9602,1.2438,1.2476,1.8039,0.5733,-0.0632,-0.3342,-1.8836,-0.835,-1.1764,-1.8197,-0.6983,0.2956,-0.5394
1.4801,0.7632,1.8922,0.3823,-0.6403,-0.7246,-1.4009,-1.9839,-1.2569,-0.9755,-0.769,-0.7319,-1.4445,-1.2555,1.1078,1.558,1.3704,0.4489,0.7261,1.3665,0.1797,-0.483,-0.6739,-1.7252,-0.6279,-0.7585,-1.4842,-0.5195,0.3432,-0.1999
0.7061,0.4225,1.2058,0.1683,-0.6224,-0.7283,-0.8394,-1.4529,-0.6634,-0.3883,-0.4411,-0.4871,-1.3726,-1.4139,0.1812,1.2182,0.846,-0.2694,0.3324,1.0813,-0.04,-0.7451,-0.9023,-1.4396,-0.44,-0.3698,-1.0852,-0.3102,0.3795,0.1076
0.0034,0.2127,0.6189,0.0982,-0.4672,-0.6372,-0.217,-0.9004,-0.0711,0.206,-0.0801,-0.1932,-1.1678,-1.3985,-0.5989,0.9944,0.3875,-0.8891,0.0672,0.9412,-0.0924,-0.8523,-1.0206,-1.0451,-0.2707,-0.0128,-0.6417,-0.0826,0.3953,0.3807
-0.6333,0.1098,0.142,0.1484,-0.1999,-0.4721,0.4382,-0.3405,0.5033,0.7905,0.302,0.1339,-0.8517,-1.2276,-1.2359,0.8652,-0.0044,-1.3949,-0.0757,0.9269,0.0054,-0.8145,-1.0333,-0.5601,-0.1145,0.3179,-0.1674,0.1572,0.3839,0.6423
-1.2149,0.082,-0.2249,0.2879,0.1495,-0.2567,1.0995,0.208,1.0435,1.3525,0.6924,0.4798,-0.4476,-0.9249,-1.7492,0.8033,-0.3288,-1.7791,-0.1081,1.0112,0.2285,-0.6472,-0.9483,-0.0025,0.038,0.6332,0.3285,0.4079,0.342,0.9278
-1.7534,0.0946,-0.4917,0.4827,0.5491,-0.0158,1.7407,0.7216,1.533,1.8804,1.0757,0.8306,0.0194,-0.5178,-2.1667,0.7797,-0.5846,-2.0425,-0.0458,1.1622,0.5482,-0.3701,-0.776,0.6093,0.1988,0.9451,0.8394,0.6697,0.27,1.2712
-2.2587,0.1156,-0.6761,0.6993,0.9667,0.2271,2.3368,1.1752,1.9564,2.3624,1.4339,1.172,0.5234,-0.0351,-2.5177,0.7665,-0.7724,-2.1947,0.0919,1.3469,0.9336,-0.0059,-0.5297,1.2557,0.3802,1.2634,1.358,0.9404,0.1717,1.693
-2.7376,0.119,-0.8002,0.9075,1.372,0.4512,2.8645,1.5461,2.3004,2.7861,1.7473,1.4888,1.0376,0.4941,-2.829,0.7392,-0.8975,-2.2545,0.2826,1.5339,1.354,0.4194,-0.2264,1.9158,0.5914,1.5921,1.8747,1.2135,0.0543,2.195
-3.194,0.0875,-0.887,1.0822,1.7384,0.6406,3.3041,1.8178,2.5561,3.139,1.9976,1.7662,1.5362,1.0408,-3.1225,0.6779,-0.9714,-2.2483,0.5015,1.6944,1.7804,0.878,0.1136,2.5665,0.8371,1.9291,2.3764,1.4783,-0.0721,2.7596
-3.6281,0.0124,-0.9577,1.2052,2.0456,0.7855,3.6415,1.9843,2.7202,3.4106,2.1711,1.9915,1.9956,1.5776,-3.4129,0.5678,-1.0114,-2.2071,0.7232,1.8052,2.1866,1.3408,0.4676,3.1844,1.1162,2.267,2.8479,1.7225,-0.1954,3.3522
-4.0364,-0.1072,-1.0297,1.2659,2.2808,0.8828,3.8705,2.0505,2.7969,3.5948,2.262,2.1564,2.3968,2.0798,-3.7073,0.4004,-1.0392,-2.1624,0.9239,1.8497,2.5512,1.7804,0.8127,3.747,1.4215,2.5952,3.2734,1.9355,-0.3028,3.9271
-4.4109,-0.2667,-1.1163,1.2611,2.4393,0.9354,3.9931,2.0332,2.7974,3.6914,2.2739,2.2578,2.7271,2.5276,-4.0045,0.1724,-1.0771,-2.1408,1.084,1.8192,2.8587,2.1733,1.1276,4.2347,1.7409,2.902,3.6384,2.1102,-0.383,4.4332
-4.7414,-0.4598,-1.2264,1.1935,2.5242,0.9501,4.0197,1.9575,2.7398,3.7075,2.2198,2.2987,2.9807,2.9062,-4.2969,-0.1146,-1.1449,-2.1611,1.1891,1.7125,3.0991,2.5017,1.3954,4.6323,2.0585,3.1759,3.9315,2.2439,-0.4285,4.8227
-5.0178,-0.6807,-1.3644,1.0693,2.5441,0.9356,3.9674,1.8536,2.6463,3.6566,2.1198,2.2866,3.159,3.2069,-4.5739,-0.4558,-1.2574,-2.2328,1.2306,1.5348,3.268,2.7542,1.6032,4.9296,2.3561,3.4056,4.1444,2.3361,-0.4369,5.059
-5.2343,-0.9256,-1.5297,0.8974,2.5118,0.9008,3.8584,1.7526,2.5411,3.5578,1.9974,2.2325,3.2692,3.4263,-4.8251,-0.844,-1.4227,-2.3562,1.2051,1.2954,3.3652,2.9251,1.743,5.1213,2.6147,3.5798,4.2723,2.3876,-0.4111,5.1226
-5.3914,-1.1914,-1.7155,0.6882,2.4425,0.8539,3.7179,1.6817,2.4471,3.4338,1.8753,2.1492,3.323,3.5665,-5.0429,-1.2697,-1.6407,-2.5244,1.1146,1.0073,3.3947,3.0144,1.8107,5.2072,2.8153,3.6869,4.3135,2.3989,-0.3584,5.0139
-5.4961,-1.4738,-1.9087,0.4548,2.3529,0.8031,3.5721,1.6615,2.3842,3.3083,1.7715,2.0502,3.3357,3.6354,-5.2227,-1.7196,-1.9025,-2.7245,0.9663,0.6865,3.3649,3.0273,1.807,5.1916,2.9407,3.7154,4.269,2.3707,-0.2886,4.751
-5.5589,-1.7641,-2.0909,0.2132,2.2604,0.7571,3.4461,1.7036,2.367,3.2035,1.698,1.9489,3.3242,3.6463,-5.3617,-2.1754,-2.1904,-2.9388,0.7742,0.3529,3.2896,2.9752,1.7379,5.0834,2.9777,3.6558,4.1436,2.3049,-0.212,4.3633
-5.59,-2.0476,-2.241,-0.0165,2.1838,0.726,3.3626,1.8104,2.4043,3.1385,1.6602,1.8583,3.3069,3.6189,-5.456,-2.6131,-2.4789,-3.1457,0.5593,0.0306,3.1888,2.8759,1.6159,4.8968,2.92,3.5029,3.9462,2.2059,-0.1379,3.8833
-5.5956,-2.3034,-2.3395,-0.2106,2.1422,0.7222,3.3403,1.9767,2.4984,3.1273,1.659,1.7908,3.3029,3.5783,-5.4991,-3.0036,-2.7364,-3.3216,0.3494,-0.2519,3.0891,2.7543,1.4613,4.6521,2.7701,3.2595,3.6917,2.0824,-0.0737,3.3401
-5.5751,-2.5058,-2.371,-0.3427,2.1561,0.7598,3.3934,2.1922,2.6459,3.1785,1.6918,1.757,3.3319,3.5546,-5.4811,-3.314,-2.9294,-3.4427,0.1776,-0.4628,3.0221,2.6414,1.3012,4.3763,2.5406,2.9376,3.4015,1.9467,-0.0239,2.7567
-5.5212,-2.6266,-2.3266,-0.386,2.2461,0.8546,3.5313,2.4446,2.8384,3.2945,1.7549,1.7654,3.4135,3.5803,-5.3909,-3.511,-3.0255,-3.4876,0.0792,-0.5693,3.0222,2.5723,1.1681,4.1023,2.2536,2.5587,3.1023,1.8137,0.0108,2.151
-5.421,-2.6386,-2.2041,-0.3151,2.4322,1.0218,3.7584,2.7226,3.0637,3.4716,1.8433,1.8196,3.5663,3.6874,-5.2197,-3.5639,-2.9974,-3.4401,0.0885,-0.5403,3.1227,2.5823,1.0961,3.8668,1.9381,2.1513,2.8234,1.6973,0.0328,1.5392
-5.2607,-2.5184,-2.0073,-0.1097,2.7313,1.274,4.0736,3.0165,3.307,3.6999,1.9505,1.9171,3.8062,3.9037,-4.9644,-3.4482,-2.8261,-3.2912,0.2339,-0.3502,3.3518,2.7027,1.1165,3.7063,1.6259,1.7465,2.5931,1.6071,0.0472,0.9395
-5.0298,-2.2507,-1.7443,0.2426,3.1543,1.6182,4.4705,3.3183,3.5522,3.9641,2.0682,2.0489,4.1443,4.2486,-4.6313,-3.1491,-2.503,-3.0414,0.5346,0.0178,3.7281,2.956,1.2528,3.6528,1.3475,1.3736,2.4338,1.5462,0.0601,0.3744
-4.7267,-1.831,-1.4264,0.7431,3.7025,2.0527,4.9366,3.6203,3.7832,4.2451,2.1855,2.1995,4.585,4.7309,-4.2371,-2.6644,-2.0317,-2.7002,0.9962,0.5683,4.258,3.3528,1.5172,3.7295,1.1289,1.0568,2.3601,1.5103,0.0768,-0.1304
-4.3613,-1.2678,-1.0674,1.3798,4.365,2.5659,5.4548,3.9142,3.9856,4.5229,2.2895,2.35,5.1245,5.3462,-3.807,-2.0065,-1.4283,-2.2859,1.6095,1.2912,4.9332,3.8893,1.908,3.9474,0.9889,0.8125,2.3768,1.4899,0.0995,-0.5494
-3.9541,-0.5833,-0.6832,2.1278,5.1185,3.1369,6.0035,4.19,4.1482,4.7789,2.3672,2.4814,5.75,6.0774,-3.3704,-1.2021,-0.7198,-1.8224,2.3501,2.1613,5.7315,4.5476,2.4098,4.3042,0.9384,0.6493,2.4799,1.4727,0.1267,-0.8638
-3.5328,0.1897,-0.2914,2.9513,5.9286,3.7375,6.5595,4.4379,4.2651,4.9995,2.4085,2.5787,6.4398,6.8959,-2.9546,-0.29,0.0589,-1.3361,3.1813,3.1405,6.6185,5.2979,2.9955,4.7842,0.9807,0.5683,2.6584,1.4481,0.1525,-1.0675
-3.1256,1.0121,0.0899,3.8086,6.7541,4.3364,7.0997,4.6493,4.3366,5.1783,2.4093,2.6347,7.1657,7.7652,-2.5785,0.6839,0.8694,-0.8528,4.0587,4.1816,7.552,6.102,3.6308,5.3604,1.1128,0.5657,2.8968,1.4095,0.1687,-1.1713
-2.7558,1.8439,0.4439,4.658,7.5532,4.9034,7.6041,4.8189,4.3696,5.3171,2.3745,2.6524,7.8955,8.6446,-2.2499,1.6726,1.675,-0.3943,4.9363,5.2346,8.4873,6.9189,4.2783,5.9976,1.3264,0.634,3.1783,1.3573,0.1673,-1.2011
-2.4381,2.6494,0.7578,5.4636,8.2894,5.4141,8.0571,4.9461,4.376,5.4255,2.3174,2.6445,8.5967,9.4947,-1.9668,2.6339,2.4439,0.0226,5.772,6.2538,9.3831,7.7091,4.903,6.6576,1.6089,0.7642,3.4868,1.2993,0.1435,-1.1915
-2.1773,3.4014,1.0262,6.2,8.9371,5.8524,8.4491,5.0341,4.3696,5.5179,2.2579,2.6308,9.2413,10.2827,-1.7212,3.5358,3.1536,0.3876,6.5331,7.2038,10.2073,8.4404,5.4764,7.3029,1.9431,0.9448,3.8081,1.2488,0.0983,-1.1762
-1.9688,4.0851,1.2528,6.856,9.4851,6.2129,8.7765,5.0898,4.3627,5.6095,2.2173,2.6336,9.8094,10.9865,-1.5036,4.3611,3.7928,0.6973,7.2008,8.0653,10.9417,9.0914,5.9806,7.9011,2.3076,1.1612,4.1295,1.221,0.0382,-1.1805
-1.7975,4.7,1.4522,7.4365,9.9381,6.5012,9.0412,5.1206,4.3624,5.7113,2.2117,2.6707,10.2914,11.5985,-1.3034,5.1101,4.3642,0.9572,7.7735,8.8383,11.5853,9.6554,6.4103,8.4265,2.6766,1.3928,4.4374,1.2291,-0.0253,-1.2216
-1.6371,5.2613,1.6487,7.9617,10.3148,6.7328,9.2476,5.1331,4.3684,5.8258,2.2479,2.7504,10.6884,12.1254,-1.1064,5.8008,4.8852,1.1828,8.2678,9.5422,12.1546,10.1405,6.7738,8.8606,3.0217,1.6122,4.7152,1.2784,-0.0801,-1.3143
-1.4502,5.7975,1.873,8.4632,10.6439,6.9302,9.4016,5.1316,4.3732,5.9452,2.3201,2.868,11.0098,12.5862,-0.8918,6.4659,5.3857,1.3999,8.7153,10.2117,12.6797,10.5677,7.0909,9.1917,3.3151,1.7864,4.9418,1.3637,-0.1159,-1.4784
-1.1923,6.3442,2.1566,8.9769,10.9576,7.1191,9.5077,5.1185,4.3649,6.0519,2.4112,3.0056,11.2697,13.0071,-0.6301,7.1454,5.9015,1.6411,9.1562,10.8888,13.1984,10.9655,7.388,9.4134,3.5331,1.8814,5.093,1.4682,-0.128,-1.744
-0.8201,6.9355,2.5245,9.5343,11.2842,7.3224,9.5683,5.0954,4.3312,6.123,2.4978,3.1363,11.4821,13.4145,-0.2871,7.8765,6.4655,1.9399,9.6298,11.6121,13.7461,11.3627,7.6921,9.5253,3.6607,1.8692,5.1458,1.5662,-0.1178,-2.1485
-0.3036,7.5936,2.9877,10.1535,11.6412,7.5556,9.5837,5.0646,4.2639,6.1363,2.5559,3.2308,11.6574,13.8279,0.1679,8.6834,7.098,2.3219,10.1641,12.4068,14.3469,11.7813,8.0244,9.5334,3.6951,1.7357,5.0841,1.6298,-0.0927,-2.726
0.363,8.3213,3.5388,10.8337,12.0311,7.8224,9.5529,5.03,4.1613,6.076,2.5676,3.2652,11.8003,14.2548,0.7506,9.5689,7.7996,2.7965,10.7689,13.2771,15.0064,12.2306,8.3949,9.4509,3.6466,1.4861,4.9056,1.6373,-0.0635,-3.492
1.1539,9.0986,4.1498,11.5532,12.4405,8.1129,9.4751,4.9964,4.029,5.9382,2.5266,3.2281,11.91,14.6885,1.4513,10.5121,8.5483,3.3522,11.4324,14.2034,15.7092,12.7056,8.8006,9.299,3.537,1.1468,4.6257,1.5803,-0.0423,-4.4305
2.0124,9.8843,4.7763,12.2727,12.8427,8.4061,9.352,4.9686,3.8788,5.7329,2.4398,3.1241,11.9825,15.1097,2.2308,11.4695,9.3026,3.9558,12.1223,15.1448,16.4213,13.1879,9.226,9.1051,3.3968,0.7618,4.2775,1.4677,-0.0387,-5.4867
2.86,10.6241,5.365,12.943,13.2045,8.6749,9.1897,4.9496,3.7255,5.4832,2.3255,2.9735,12.0137,15.4915,3.0238,12.3833,10.0085,4.5583,12.7923,16.0466,17.0963,13.6496,9.6462,8.9002,3.2587,0.3843,3.908,1.3241,-0.0587,-6.5722
3.611,11.2611,5.8641,13.5151,13.495,8.8933,9.0001,4.9406,3.5846,5.2214,2.2092,2.8072,12.0029,15.806,3.7496,13.1917,10.6101,5.1045,13.3908,16.8503,17.6858,14.0593,10.0329,8.7146,3.1528,0.0667,3.5692,1.1835,-0.1025,-7.5791
4.1892,11.7483,6.234,13.951,13.6928,9.0441,8.8009,4.9407,3.4692,4.9832,2.1157,2.6587,11.9546,16.031,4.3288,13.8412,11.0607,5.5449,13.8713,17.5051,18.149,14.3889,10.3594,8.5733,3.1012,-0.1505,3.3086,1.08,-0.1649,-8.4008
4.5431,12.0589,6.4549,14.232,13.7923,9.1232,8.6128,4.9481,3.3876,4.8002,2.0635,2.5555,11.8786,16.155,4.6987,14.297,11.3331,5.8458,14.2016,17.9781,18.4611,14.6188,10.6061,8.492,3.1148,-0.2457,3.1593,1.0382,-0.2363,-8.954
4.6553,12.1914,6.5303,14.3622,13.8042,9.1413,8.4563,4.9611,3.3425,4.6935,2.0593,2.5123,11.7877,16.1793,4.8269,14.5499,11.4252,5.9961,14.3706,18.2611,18.6182,14.7424,10.7637,8.4744,3.1922,-0.2202,3.1331,1.0667,-0.3045,-9.1954
4.5446,12.1704,6.4853,14.3676,13.7534,9.1205,8.3465,4.978,3.3301,4.6688,2.0965,2.5279,11.6946,16.117,4.7172,14.6185,11.3608,6.008,14.3908,18.3719,18.6372,14.767,10.8346,8.5119,3.3207,-0.097,3.2179,1.1553,-0.3567,-9.1305
4.2617,12.0408,6.361,14.29,13.6722,9.0892,8.2901,4.9977,3.3413,4.7155,2.158,2.5859,11.6086,15.9899,4.4101,14.545,11.1851,5.9138,14.2955,18.3514,18.5518,14.7126,10.8316,8.5855,3.4794,0.0852,3.3808,1.278,-0.3823,-8.8126
3.8784,11.8575,6.2051,14.1779,13.5937,9.0753,8.2831,5.0185,3.363,4.8086,2.2203,2.6595,11.5336,15.8241,3.975,14.3871,10.9553,5.7581,14.1319,18.2543,18.406,14.6079,10.7756,8.6697,3.6432,0.2802,3.5747,1.3994,-0.3747,-8.3329
3.4737,11.6748,6.0627,14.0763,13.5449,9.0993,8.312,5.0372,3.3804,4.915,2.2592,2.7181,11.4674,15.6451,3.4978,14.2065,10.729,5.5888,13.9516,18.1382,18.2444,14.4844,10.691,8.7374,3.7874,0.4435,3.7489,1.4831,-0.3322,-7.8034
3.1191,11.5357,5.9679,14.0192,13.542,9.1711,8.3572,5.05,3.3797,4.9999,2.2548,2.734,11.4032,15.4745,3.0652,14.057,10.5531,5.4479,13.8004,18.0518,18.105,14.3705,10.6022,8.765,3.892,0.5399,3.8587,1.4993,-0.2586,-7.3377
2.8659,11.4656,5.9388,14.0239,13.589,9.2882,8.3976,5.0529,3.3511,5.0349,2.1951,2.6883,11.3321,15.3264,2.7494,13.9749,10.4558,5.3643,13.7093,18.0262,18.0126,14.2862,10.5282,8.7368,3.944,0.549,3.8741,1.4315,-0.1618,-7.0311
2.7377,11.4693,5.977,14.0905,13.6787,9.4381,8.4166,5.0436,3.2907,5.0039,2.0786,2.5741,11.2461,15.2075,2.5947,13.9745,10.4423,5.3502,13.6906,18.0708,17.9764,14.2401,10.4807,8.647,3.9392,0.4667,3.7845,1.2787,-0.0519,-6.9439
2.728,11.5327,6.0706,14.2042,13.7961,9.6017,8.4057,5.023,3.2028,4.9062,1.915,2.3992,11.1413,15.1173,2.6102,14.0471,10.4967,5.4009,13.7369,18.1742,17.9904,14.2293,10.4626,8.501,3.8814,0.3048,3.5997,1.0563,0.0604,-7.0905
2.8045,11.6277,6.2,14.3402,13.9224,9.7588,8.3665,4.9966,3.099,4.7577,1.7245,2.1849,11.0199,15.0504,2.7688,14.1663,10.5873,5.4971,13.8255,18.3095,18.0379,14.242,10.4689,8.3137,3.7813,0.0874,3.3475,0.7929,0.166,-7.4357
2.9179,11.7189,6.344,14.4696,14.0386,9.8916,8.3094,4.9728,2.9971,4.5865,1.535,1.9623,10.8894,14.9985,3.0133,14.2943,10.6747,5.6105,13.9243,18.4414,18.096,14.261,10.4897,8.1067,3.6543,-0.1532,3.0676,0.5259,0.2583,-7.9022
3.0139,11.7711,6.4829,14.5644,14.1278,9.9873,8.2498,4.9615,2.9163,4.4265,1.3769,1.7668,10.7613,14.9524,3.2692,14.39,10.72,5.7098,13.9989,18.5342,18.1406,14.2678,10.5121,7.904,3.5171,-0.3825,2.8034,0.2945,0.3333,-8.387
3.0445,11.7551,6.6002,14.6009,14.1763,10.0382,8.2021,4.9698,2.8725,4.309,1.2766,1.6304,10.647,14.9022,3.4611,14.4157,10.6915,5.7667,14.0184,18.5568,18.1493,14.2454,10.5233,7.7268,3.3858,-0.5695,2.5934,0.1326,0.3891,-8.7851
2.9762,11.6506,6.681,14.5609,14.1726,10.0397,8.1743,4.9999,2.8739,4.2545,1.2498,1.574,10.5532,14.8367,3.5291,14.3417,10.5692,5.7604,13.9593,18.4861,18.1034,14.1804,10.5115,7.5888,3.2725,-0.6918,2.4639,0.0618,0.4247,-9.0132
2.7948,11.4474,6.7112,14.432,14.1065,9.9881,8.1638,5.046,2.9174,4.2673,1.2982,1.6028,10.4783,14.7429,3.44,14.1495,10.3464,5.6804,13.8073,18.308,17.9874,14.0625,10.4668,7.4929,3.1837,-0.7392,2.4237,0.0864,0.4388,-9.0266
2.506,11.1443,6.6768,14.2071,13.9686,9.879,8.1564,5.0952,2.9891,4.3337,1.4081,1.7047,10.4106,14.6054,3.192,13.8332,10.0284,5.5277,13.5579,18.0171,17.7888,13.8846,10.3806,7.43,3.119,-0.715,2.463,0.1921,0.4291,-8.8245
2.1323,10.7479,6.566,13.8834,13.75,9.7073,8.1282,5.129,3.0665,4.4255,1.554,1.8524,10.3286,14.4066,2.8121,13.3985,9.6302,5.3133,13.2146,17.615,17.4974,13.6416,10.2449,7.3799,3.0715,-0.6347,2.5559,0.3496,0.393,-8.444
1.7071,10.2707,6.3724,13.4633,13.4439,9.468,8.0506,5.1275,3.1236,4.5066,1.7039,2.0099,10.2046,14.1288,2.3468,12.8612,9.1728,5.0555,12.787,17.1093,17.1059,13.3295,10.0523,7.3151,3.0295,-0.5224,2.6667,0.5211,0.328,-7.9459
1.2677,9.7292,6.0975,12.9539,13.0467,9.1585,7.8974,5.0738,3.1374,4.5412,1.8262,2.1407,10.0104,13.7565,1.8513,12.2432,8.6786,4.7763,12.2883,16.5106,16.61,12.9454,9.7965,7.2067,2.9791,-0.4053,2.7578,0.6694,0.2333,-7.3981
0.8483,9.1421,5.7522,12.3668,12.5599,8.7809,7.6509,4.9591,3.0922,4.5023,1.8963,2.2156,9.7238,13.2804,1.3783,11.5682,8.1677,4.4971,11.7328,15.8313,16.0102,12.488,9.4733,7.0301,2.9069,-0.3081,2.7973,0.7668,0.1112,-6.8614
0.4747,8.5278,5.3557,11.7178,11.9921,8.3433,7.3071,4.7842,2.9838,4.3772,1.9004,2.2182,9.3343,12.7003,0.9691,10.8577,7.6545,4.2344,11.1338,15.084,15.3128,11.959,9.0827,6.7707,2.8031,-0.2489,2.7645,0.7992,-0.0322,-6.3795
0.1611,7.903,4.9332,11.0262,11.3593,7.8604,6.8774,4.5607,2.8194,4.1697,1.8373,2.1466,8.8467,12.0272,0.6489,10.1278,7.1462,3.9972,10.5033,14.2811,14.5314,11.3643,8.6298,6.4264,2.6623,-0.2369,2.6528,0.7678,-0.1869,-5.9771
-0.0894,7.2827,4.5127,10.3144,10.6854,7.3526,6.3876,4.3077,2.6154,3.897,1.7164,2.011,8.2807,11.2838,0.4252,9.39,6.6443,3.7865,9.8521,13.4361,13.6876,10.7151,8.1257,6.0082,2.484,-0.2731,2.4679,0.6846,-0.3403,-5.6608
-0.2814,6.6802,4.1214,9.6076,10.0006,6.8447,5.8733,4.0484,2.3937,3.5854,1.5539,1.83,7.6685,10.5032,0.2905,8.6532,6.1473,3.5966,9.1915,12.5659,12.8106,10.0295,7.5872,5.5377,2.2724,-0.3518,2.2259,0.5677,-0.4791,-5.4246
-0.4223,6.1086,3.7821,8.9323,9.339,6.3631,5.3741,3.8049,2.1767,3.2639,1.3686,1.6254,7.0496,9.7254,0.2267,7.9275,5.6553,3.4183,8.535,11.6922,11.9359,9.3313,7.0357,5.0434,2.0355,-0.4628,1.9485,0.4359,-0.5917,-5.2552
-0.5179,5.5813,3.51,8.3146,8.7341,5.9322,4.9262,3.5943,1.9835,2.9589,1.1794,1.4184,6.4642,8.992,0.2105,7.2265,5.1725,3.2418,7.8992,10.8416,11.1013,8.6484,6.4944,4.5565,1.7844,-0.5934,1.6599,0.3054,-0.6703,-5.1368
-0.5713,5.1108,3.3105,7.7764,8.2137,5.5718,4.5573,3.4258,1.8274,2.6902,1.0025,1.2268,5.9474,8.3405,0.2185,6.5676,4.7087,3.0598,7.3025,10.0432,10.3425,8.0097,5.9856,4.1062,1.5313,-0.7307,1.3827,0.188,-0.7128,-5.054
-0.5829,4.7071,3.1791,7.3318,7.7953,5.2929,4.2822,3.3002,1.7141,2.4696,0.8505,1.0634,5.5235,7.7985,0.2312,5.9688,4.2772,2.8694,6.7628,9.324,9.6875,7.4401,5.5272,3.7156,1.2882,-0.8633,1.1359,0.0904,-0.7234,-4.9929
-0.5533,4.3743,3.1024,6.9834,7.4822,5.0964,4.1009,3.2108,1.6423,2.3002,0.7319,0.9355,5.203,7.379,0.2354,5.445,3.8919,2.6723,6.2936,8.7036,9.1521,6.9567,5.1305,3.3986,1.0649,-0.9834,0.9315,0.0143,-0.7121,-4.9418
-0.486,4.1088,3.0605,6.721,7.2631,4.9717,4.0003,3.1462,1.6049,2.1778,0.6503,0.8443,4.9815,7.0785,0.2254,5.0032,3.5634,2.4748,5.9012,8.1899,8.7371,6.5654,4.7991,3.1585,0.8674,-1.0882,0.7738,-0.044,-0.6941,-4.8909
-0.3894,3.8986,3.0295,6.5226,7.1137,4.8981,3.9565,3.0936,1.5911,2.0928,0.6054,0.7864,4.8414,6.8778,0.202,4.6401,3.2963,2.286,5.5831,7.7772,8.4274,6.2607,4.5292,2.988,0.6978,-1.18,0.6592,-0.0922,-0.688,-4.8329
-0.2759,3.7249,2.9852,6.3582,7.002,4.8478,3.9407,3.0409,1.5886,2.0329,0.5934,0.755,4.7565,6.7458,0.1708,4.3422,3.0884,2.1165,5.3288,7.4475,8.1957,6.0271,4.312,2.8714,0.5551,-1.2643,0.5784,-0.1396,-0.7146,-4.7641
-0.1607,3.5659,2.9051,6.1958,6.8944,4.791,3.9242,2.9794,1.5857,1.9854,0.6079,0.7423,4.6972,6.6458,0.1405,4.0887,2.931,1.9761,5.1219,7.1736,8.0071,5.8428,4.1359,2.7889,0.4362,-1.3469,0.5193,-0.1938,-0.794,-4.6854
-0.0583,3.4015,2.772,6.0073,6.7622,4.7017,3.8835,2.9041,1.5739,1.9391,0.6414,0.7416,4.6361,6.5421,0.1207,3.8561,2.8109,1.8721,4.9435,6.9256,7.8262,5.6844,3.9895,2.7199,0.3374,-1.4313,0.4707,-0.2572,-0.9429,-4.6036
0.0208,3.2164,2.575,5.7741,6.5862,4.5621,3.804,2.8133,1.5483,1.8862,0.6856,0.7483,4.5526,6.4065,0.1204,3.6232,2.7121,1.8079,4.776,6.676,7.6232,5.5307,3.8625,2.6472,0.2555,-1.5162,0.4253,-0.3259,-1.1713,-4.5325
0.0715,3.0031,2.3107,5.4891,6.3593,4.3656,3.6815,2.7084,1.5083,1.823,0.7328,0.7607,4.4357,6.2225,0.1472,3.3747,2.6185,1.7811,4.605,6.4048,7.3792,5.366,3.747,2.5594,0.1873,-1.5959,0.3812,-0.3894,-1.4804,-4.4908
0.0933,2.7614,1.9836,5.1574,6.0859,4.1171,3.5213,2.5926,1.4571,1.7501,0.7768,0.7799,4.284,5.9877,0.2042,3.1029,2.5152,1.7836,4.421,6.1021,7.0882,5.1816,3.6372,2.4524,0.131,-1.6604,0.3416,-0.4331,-1.8612,-4.4972
0.0897,2.4972,1.6054,4.793,5.7791,3.8307,3.3359,2.47,1.4005,1.6726,0.8142,0.809,4.1048,5.7119,0.2891,2.8083,2.3902,1.8017,4.2197,5.7685,6.7574,4.9758,3.529,2.33,0.0857,-1.6972,0.3143,-0.4413,-2.2956,-4.5645
0.0662,2.2211,1.1942,4.4161,5.457,3.5259,3.1422,2.3446,1.3453,1.5989,0.845,0.8524,3.9115,5.4142,0.3937,2.4985,2.2364,1.8191,4.002,5.414,6.4038,4.7536,3.4207,2.2018,0.0523,-1.6937,0.3093,-0.4008,-2.7581,-4.6943
0.0301,1.9469,0.772,4.0489,5.1383,3.2228,2.9576,2.2201,1.2983,1.539,0.8729,0.9148,3.7198,5.118,0.5071,2.1872,2.0534,1.82,3.774,5.0556,6.0502,4.5251,3.3127,2.0816,0.0339,-1.6392,0.3359,-0.3033,-3.2206,-4.8765
-0.01,1.6899,0.3613,3.7118,4.8387,2.9385,2.7966,2.0997,1.2648,1.5021,0.9041,0.9993,3.5443,4.8451,0.6187,1.8922,1.849,1.7935,3.5463,4.7135,5.7202,4.304,3.2082,1.9837,0.0347,-1.5278,0.4002,-0.1485,-3.6568,-5.0922
-0.0448,1.4654,-0.0188,3.4209,4.5686,2.6837,2.6686,1.9854,1.2471,1.4943,0.9447,1.1057,3.3958,4.6109,0.7222,1.6327,1.639,1.7362,3.3321,4.4077,5.4326,4.1045,3.1122,1.9191,0.0593,-1.3614,0.5021,0.0553,-4.0471,-5.3205
-0.0655,1.2861,-0.3559,3.185,4.3314,2.4619,2.5766,1.8778,1.2441,1.5159,0.9984,1.2291,3.2787,4.4216,0.8165,1.4256,1.4446,1.6533,3.1452,4.1536,5.198,3.9382,3.0303,1.8924,0.1096,-1.1509,0.6343,0.2905,-4.381,-5.5446
-0.0647,1.159,-0.6462,3.0049,4.1247,2.2702,2.5172,1.7761,1.2508,1.5611,1.0641,1.3594,3.1915,4.2736,0.9058,1.2823,1.2883,1.5566,2.9969,3.9591,5.0169,3.8116,2.9667,1.8998,0.1837,-0.9165,0.7818,0.5329,-4.6569,-5.7564
-0.0368,1.084,-0.8937,2.8735,3.9408,2.101,2.4814,1.6774,1.259,1.6179,1.1356,1.4824,3.127,4.1549,0.9971,1.2055,1.1879,1.4613,2.8925,3.8229,4.88,3.7244,2.9227,1.9297,0.2739,-0.6854,0.9249,0.7543,-4.88,-5.9571
0.0224,1.0535,-1.1068,2.7779,3.77,1.9458,2.4573,1.5776,1.2589,1.6709,1.2024,1.5815,3.0749,4.0494,1.0979,1.1891,1.1517,1.382,2.8304,3.7357,4.771,3.6692,2.8963,1.9646,0.3684,-0.4879,1.0415,0.9272,-5.0588,-6.1548
0.1165,1.0551,-1.2934,2.7028,3.6032,1.7976,2.4325,1.4723,1.2411,1.7039,1.2526,1.6408,3.0247,3.9407,1.2145,1.2197,1.1764,1.3298,2.8022,3.6822,4.6714,3.6336,2.8824,1.9846,0.4523,-0.3524,1.1117,1.0291,-5.2022,-6.3593
0.2492,1.0755,-1.4563,2.6353,3.4354,1.6539,2.3968,1.3584,1.1983,1.704,1.2755,1.6481,2.9677,3.8175,1.352,1.2809,1.2482,1.3103,2.7947,3.6463,4.5649,3.6036,2.8738,1.9727,0.5118,-0.3005,1.1214,1.0458,-5.3162,-6.578
0.4242,1.1052,-1.5902,2.5687,3.2678,1.5182,2.3449,1.2359,1.1269,1.6637,1.2633,1.5971,2.8999,3.6756,1.5149,1.3582,1.3467,1.3236,2.7941,3.6152,4.4427,3.5671,2.8632,1.9178,0.5366,-0.3427,1.0651,0.9749,-5.4035,-6.8133
0.6438,1.1416,-1.6827,2.5042,3.1079,1.3992,2.277,1.1086,1.0278,1.5829,1.2131,1.4894,2.8224,3.5196,1.7077,1.4423,1.4512,1.3654,2.7892,3.5827,4.3056,3.5165,2.8446,1.8179,0.5227,-0.476,0.947,0.8264,-5.4627,-7.0638
0.9082,1.1897,-1.7194,2.4507,2.9682,1.3084,2.1989,0.9843,0.9066,1.4681,1.1265,1.3338,2.7411,3.3617,1.9354,1.5317,1.5462,1.4285,2.7744,3.5509,4.1641,3.4508,2.8148,1.6801,0.4737,-0.6837,0.7801,0.621,-5.4905,-7.3272
1.2141,1.2599,-1.6897,2.4215,2.8627,1.2564,2.1207,0.8738,0.7728,1.3315,1.0089,1.1453,2.6659,3.2192,2.2029,1.6316,1.6255,1.5055,2.7513,3.5289,4.0356,3.3749,2.7741,1.5195,0.3995,-0.9381,0.5846,0.3872,-5.4836,-7.6046
1.5557,1.365,-1.5924,2.4307,2.8038,1.2501,2.055,0.7879,0.6387,1.1883,0.8691,0.9426,2.6092,3.1111,2.514,1.7527,1.6937,1.5903,2.7285,3.5308,3.9414,3.2989,2.7267,1.3567,0.3148,-1.2044,0.3841,0.1563,-5.4414,-7.9022
1.9261,1.5158,-1.4376,2.4895,2.7999,1.2907,2.0148,0.7353,0.5174,1.055,0.7189,0.7461,2.5842,3.0554,2.8704,1.9074,1.7637,1.6802,2.7192,3.5721,3.9013,3.2362,2.6803,1.2142,0.2364,-1.446,0.2029,-0.0422,-5.3665,-8.2305
2.3191,1.7184,-1.2452,2.6037,2.8536,1.3743,2.0113,0.72,0.4211,0.947,0.5719,0.5751,2.6032,3.066,3.2702,2.1069,1.8526,1.7757,2.738,3.6664,3.9306,3.2,2.6446,1.1133,0.1798,-1.6302,0.0625,-0.1849,-5.2641,-8.6007
2.7303,1.9716,-1.04,2.7727,2.9621,1.4939,2.052,0.7397,0.3587,0.8769,0.4426,0.4454,2.6751,3.1509,3.7079,2.3571,1.9755,1.8792,2.7969,3.8219,4.0364,3.2014,2.63,1.0705,0.1569,-1.7329,-0.021,-0.2582,-5.1397,-9.0198
3.1567,2.2654,-0.8458,2.9889,3.1172,1.641,2.1388,0.7863,0.3343,0.8518,0.344,0.3667,2.8032,3.3105,4.1735,2.6565,2.1401,1.9932,2.9014,4.0393,4.2165,3.2463,2.6445,1.0948,0.1738,-1.7426,-0.0399,-0.2601,-4.9975,-9.4869
3.5949,2.5823,-0.6815,3.2389,3.3065,1.8075,2.2669,0.8475,0.346,0.8722,0.2851,0.3416,2.9833,3.537,4.654,2.9947,2.3432,2.1178,3.0481,4.3103,4.4593,3.3341,2.6918,1.1857,0.23,-1.662,0.0046,-0.2004,-4.8383,-9.9924
4.0394,2.8991,-0.5575,3.5041,3.514,1.9848,2.4249,0.9096,0.3863,0.9316,0.269,0.3651,3.2034,3.8148,5.1346,3.353,2.5715,2.2495,3.2256,4.6181,4.7452,3.4574,2.7705,1.3338,0.3194,-1.5064,0.1026,-0.0973,-4.6611,-10.5188
4.4818,3.1913,-0.4766,3.7637,3.7216,2.1631,2.5962,0.9601,0.4435,1.0174,0.2924,0.4265,3.4449,4.1221,5.6017,3.708,2.8057,2.3825,3.4165,4.9404,5.05,3.604,2.874,1.5216,0.4318,-1.3008,0.2377,0.0272,-4.4652,-11.0448
4.9119,3.4384,-0.4345,3.997,3.9104,2.3306,2.7613,0.9902,0.5036,1.1128,0.346,0.511,3.6845,4.433,6.0449,4.0357,3.0262,2.511,3.6023,5.2528,5.3481,3.7594,2.9927,1.7271,0.5553,-1.0743,0.3898,0.1524,-4.2532,-11.5501
5.3194,3.6284,-0.4223,4.1872,4.0635,2.4743,2.9012,0.9962,0.5532,1.2004,0.4164,0.6025,3.8981,4.7212,6.4605,4.3174,3.2204,2.6317,3.7681,5.5342,5.617,3.91,3.1163,1.9262,0.6787,-0.8552,0.5385,0.2624,-4.0328,-12.0198
5.6976,3.7617,-0.4277,4.3251,4.1684,2.5815,3.0006,0.9802,0.5823,1.2652,0.4884,0.6854,4.0642,4.9625,6.8522,4.5443,3.386,2.7464,3.9069,5.7704,5.8402,4.0459,3.2366,2.0967,0.7929,-0.6672,0.6651,0.3468,-3.8166,-12.4479
6.0461,3.8514,-0.437,4.4114,4.2197,2.6439,3.0503,0.9492,0.5859,1.2965,0.5474,0.7455,4.1672,5.1389,7.2317,4.7196,3.5322,2.8621,4.0203,5.9577,6.0098,4.1623,3.349,2.2206,0.892,-0.5267,0.7545,0.3989,-3.6194,-12.8391
6.3732,3.9209,-0.4368,4.4566,4.2208,2.6604,3.0487,0.9131,0.5648,1.2895,0.5812,0.7714,4.199,5.2403,7.6175,4.8579,3.677,2.9896,4.1182,6.102,6.1268,4.2597,3.4528,2.2861,0.9731,-0.4425,0.7957,0.4139,-3.4549,-13.2083
6.695,3.9974,-0.4155,4.4789,4.1834,2.6387,3.0012,0.8827,0.5241,1.2451,0.5816,0.7553,4.1595,5.2662,8.0322,4.9804,3.8404,3.141,4.2144,6.2171,6.2001,4.3422,3.5505,2.2887,1.0361,-0.4163,0.7828,0.3877,-3.3322,-13.5782
7.0324,4.1054,-0.3642,4.4992,4.1253,2.5945,2.918,0.8665,0.4717,1.1685,0.5454,0.6942,4.0561,5.2246,8.4977,5.1087,4.0384,3.3251,4.3221,6.3193,6.2433,4.4159,3.6457,2.2307,1.0832,-0.4438,0.7147,0.3172,-3.2527,-13.9742
7.4064,4.2601,-0.2774,4.5364,4.0663,2.5487,2.8119,0.8687,0.4156,1.0681,0.474,0.59,3.9017,5.1313,9.0317,5.2586,4.2766,3.5449,4.4499,6.4233,6.2716,4.486,3.7415,2.12,1.1172,-0.5169,0.595,0.2008,-3.2081,-14.4189
7.8335,4.4645,-0.1522,4.603,4.0246,2.5226,2.6957,0.889,0.3624,0.9538,0.3735,0.4501,3.7124,5.0065,9.643,5.4363,4.5487,3.7956,4.5995,6.5384,6.299,4.5562,3.8393,1.9687,1.1407,-0.6261,0.4308,0.0409,-3.1818,-14.9265
8.3229,4.7107,0.0131,4.7041,4.0138,2.5333,2.5809,0.923,0.3157,0.8362,0.2531,0.2858,3.5062,4.8726,10.3294,5.6383,4.8379,4.0658,4.7661,6.6681,6.336,4.6284,3.9389,1.7902,1.155,-0.7613,0.2322,-0.1552,-3.1514,-15.4998
8.8755,4.9837,0.219,4.8374,4.0408,2.591,2.4772,0.9646,0.277,0.7257,0.1246,0.1118,3.3013,4.7516,11.0778,5.8541,5.1228,4.3406,4.9417,6.8108,6.39,4.7031,4.0391,1.5983,1.1598,-0.9138,0.0109,-0.3747,-3.0947,-16.1294
9.4844,5.2673,0.4653,4.9962,4.1066,2.6971,2.393,1.0079,0.2461,0.6325,0.001,-0.0561,3.115,4.6622,11.8655,6.0716,5.384,4.6055,5.1179,6.9633,6.4648,4.7807,4.1389,1.4047,1.1534,-1.0761,-0.2209,-0.6002,-2.9954,-16.7961
10.136,5.5492,0.7504,5.1725,4.2068,2.8456,2.3354,1.0488,0.2226,0.5656,-0.1052,-0.2026,2.9622,4.6177,12.6643,6.2816,5.6101,4.8496,5.2895,7.1227,6.5619,4.8619,4.2379,1.2192,1.1334,-1.2416,-0.4509,-0.8118,-2.8476,-17.4752
10.8125,5.8239,1.0685,5.3589,4.3334,3.0246,2.3104,1.0852,0.2064,0.5321,-0.1838,-0.3157,2.8545,4.6245,13.4448,6.4805,5.8004,5.0684,5.4551,7.2879,6.68,4.9476,4.3361,1.049,1.0982,-1.4039,-0.6676,-0.9908,-2.6573,-18.1414
11.4925,6.0923,1.4082,5.5502,4.476,3.2193,2.3216,1.1161,0.1977,0.5357,-0.2283,-0.3875,2.7983,4.6811,14.1799,6.6703,5.9638,5.263,5.6158,7.4587,6.8155,5.0379,4.4335,0.9,1.0489,-1.5553,-0.86,-1.1218,-2.4413,-18.7722
12.1525,6.358,1.7508,5.7418,4.6229,3.4131,2.3696,1.1405,0.1967,0.5762,-0.2376,-0.416,2.7945,4.7788,14.8479,6.8554,6.1143,5.4386,5.7732,7.6336,6.9615,5.1309,4.5288,0.7777,0.9899,-1.6861,-1.0174,-1.1955,-2.2231,-19.3504
12.7677,6.6225,2.0705,5.9275,4.761,3.5899,2.4502,1.1562,0.2026,0.6491,-0.2151,-0.4041,2.8377,4.9032,15.434,7.0385,6.2645,5.6016,5.926,7.8069,7.108,5.2228,4.6193,0.6876,0.9298,-1.7848,-1.1302,-1.2098,-2.0281,-19.8639
13.3142,6.881,2.3381,6.0981,4.8767,3.7345,2.5549,1.1603,0.2139,0.7462,-0.1686,-0.3592,2.9178,5.0371,15.9302,7.2163,6.4204,5.7565,6.0686,7.9676,7.2425,5.3076,4.7011,0.6356,0.8796,-1.839,-1.1904,-1.1694,-1.8774,-20.3045
13.7723,7.1212,2.5254,6.2406,4.9569,3.8336,2.6718,1.1499,0.2285,0.8568,-0.1073,-0.2914,3.0215,5.1637,16.3348,7.3784,6.5785,5.9033,6.1916,8.0999,7.3522,5.3785,4.7702,0.6272,0.8511,-1.8389,-1.1935,-1.0857,-1.7844,-20.6665
14.13,7.3253,2.6116,6.3404,4.9915,3.8779,2.787,1.1237,0.2441,0.9694,-0.0408,-0.212,3.1349,5.2703,16.6511,7.5095,6.7269,6.037,6.2842,8.1868,7.4263,5.4296,4.8234,0.6652,0.8533,-1.7798,-1.14,-0.9743,-1.7518,-20.9469
14.3865,7.4749,2.5894,6.3851,4.9758,3.8635,2.8876,1.0827,0.2584,1.0731,0.0231,-0.1315,3.246,5.35,16.8861,7.5937,6.8493,6.1487,6.3376,8.2153,7.4589,5.4579,4.8599,0.7483,0.8898,-1.6652,-1.0371,-0.8526,-1.7725,-21.145
14.5516,7.5569,2.4679,6.3691,4.9129,3.7943,2.9638,1.0313,0.2695,1.1588,0.0784,-0.0591,3.3459,5.4028,17.0481,7.6207,6.9306,6.2284,6.3482,8.1813,7.4517,5.4639,4.8812,0.8693,0.9573,-1.5077,-0.8988,-0.7372,-1.8317,-21.2633
14.6439,7.5676,2.2735,6.2966,4.8145,3.6821,3.0098,0.9759,0.2757,1.22,0.1208,-0.0018,3.4288,5.4341,17.1457,7.5896,6.9613,6.2674,6.3199,8.0923,7.4139,5.4524,4.8904,1.0146,1.0454,-1.3284,-0.7447,-0.6411,-1.9108,-21.3066
14.6857,7.5149,2.0465,6.1827,4.6994,3.5463,3.025,0.9242,0.2755,1.2538,0.1473,0.0361,3.4925,5.4528,17.1863,7.5112,6.9411,6.2617,6.2631,7.9675,7.3616,5.431,4.892,1.1657,1.1386,-1.153,-0.5965,-0.5714,-1.9912,-21.2821
14.6981,7.4171,1.8335,6.0508,4.5906,3.4105,3.0135,0.8833,0.2681,1.2607,0.1565,0.0534,3.5374,5.4688,17.1773,7.4062,6.8791,6.2139,6.1941,7.8342,7.3141,5.4095,4.8906,1.3024,1.2202,-1.0073,-0.475,-0.5298,-2.0583,-21.1994
14.6976,7.2998,1.6782,5.9285,4.5107,3.2985,2.9831,0.8579,0.2535,1.2452,0.1491,0.0518,3.5662,5.491,17.1282,7.301,6.7921,6.1345,6.1312,7.723,7.2911,5.3978,4.8908,1.4072,1.2764,-0.9122,-0.3952,-0.5132,-2.1031,-21.0725
14.6959,7.1903,1.6114,5.8414,4.4771,3.2302,2.9446,0.8492,0.2327,1.2152,0.1286,0.036,3.5837,5.5262,17.0519,7.2227,6.7015,6.0403,6.0917,7.661,7.3084,5.4046,4.8967,1.4688,1.3,-0.8799,-0.3636,-0.5162,-2.1235,-20.9199
14.6989,7.1127,1.6448,5.8079,4.4995,3.2178,2.91,0.8554,0.2075,1.1809,0.1008,0.013,3.5967,5.5785,16.9638,7.1928,6.6283,5.9521,6.0887,7.6669,7.3753,5.4353,4.9114,1.4851,1.2918,-0.9115,-0.377,-0.5327,-2.1235,-20.7637
14.7078,7.0828,1.7693,5.8355,4.5777,3.2641,2.8912,0.8726,0.1812,1.154,0.0731,-0.0091,3.6128,5.6498,16.8785,7.2234,6.5884,5.8884,6.1279,7.7468,7.4929,5.4913,4.9363,1.4635,1.2598,-0.9969,-0.4228,-0.5564,-2.1104,-20.6249
14.7171,7.1056,1.9585,5.9205,4.7036,3.3625,2.899,0.8969,0.1588,1.1461,0.0536,-0.0221,3.6402,5.7395,16.8058,7.3148,6.5889,5.8608,6.2069,7.8941,7.6545,5.5692,4.9702,1.4194,1.2171,-1.116,-0.4816,-0.5812,-2.0929,-20.5176
14.7157,7.1757,2.1762,6.0496,4.8629,3.4985,2.9418,0.9267,0.1472,1.1669,0.0502,-0.0184,3.6859,5.8459,16.7475,7.4561,6.6272,5.8696,6.3157,8.0913,7.8469,5.6621,5.0093,1.3729,1.1775,-1.2423,-0.5307,-0.6003,-2.0782,-20.4467
14.6883,7.2792,2.3836,6.204,5.039,3.6539,3.0248,0.9632,0.1547,1.2238,0.0695,0.0079,3.7557,5.9658,16.6964,7.6284,6.6917,5.9038,6.4387,8.3143,8.0538,5.7609,5.0479,1.3448,1.1528,-1.3474,-0.5487,-0.6069,-2.0707,-20.4079
14.6184,7.398,2.5458,6.3637,5.2159,3.8092,3.1493,1.0101,0.1897,1.3196,0.1162,0.0602,3.8527,6.0954,16.638,7.8081,6.7649,5.9427,6.5581,8.5375,8.2584,5.8567,5.0796,1.3522,1.1503,-1.4059,-0.5193,-0.5938,-2.0714,-20.3904
14.4922,7.5126,2.6368,6.5101,5.3801,3.9474,3.3115,1.072,0.2581,1.4526,0.1918,0.1394,3.9767,6.23,16.5508,7.9706,6.8261,5.9606,6.6565,8.737,8.445,5.9421,5.0985,1.406,1.1722,-1.4001,-0.4347,-0.5555,-2.0787,-20.3793
14.2993,7.6037,2.6407,6.6275,5.5205,4.0548,3.503,1.1521,0.3619,1.6165,0.2943,0.2435,4.1246,6.363,16.4092,8.0926,6.854,5.9318,6.7189,8.8928,8.6002,6.0113,5.1,1.5084,1.216,-1.3233,-0.2962,-0.4887,-2.0898,-20.3561
14.0337,7.6524,2.5519,6.702,5.6276,4.1218,3.7109,1.2502,0.4977,1.8013,0.4181,0.3686,4.2902,6.4861,16.185,8.1532,6.8286,5.8349,6.7335,8.9889,8.712,6.0593,5.0808,1.6539,1.2765,-1.1808,-0.1137,-0.3939,-2.1014,-20.2992
13.6921,7.6405,2.373,6.721,5.6925,4.1423,3.92,1.3615,0.6566,1.9952,0.5547,0.5088,4.4648,6.5895,15.853,8.1356,6.7334,5.6571,6.6922,9.0134,8.7701,6.0811,5.0388,1.8306,1.3475,-0.9875,0.0978,-0.2747,-2.1114,-20.1855
13.2739,7.5516,2.1117,6.6729,5.7067,4.1128,4.1146,1.4769,0.8261,2.1865,0.694,0.6577,4.6391,6.6631,15.3957,8.0291,6.5587,5.3961,6.5911,8.9592,8.7667,6.0712,4.9726,2.0232,1.4236,-0.7646,0.3213,-0.1379,-2.1194,-19.9944
12.7807,7.3738,1.7788,6.5491,5.6632,4.0328,4.2812,1.5852,0.9916,2.3659,0.8255,0.8085,4.804,6.6993,14.8097,7.8312,6.3039,5.0611,6.4316,8.8251,8.6981,6.0248,4.8822,2.2172,1.5013,-0.5338,0.5423,0.0087,-2.1265,-19.7124
12.216,7.1034,1.3881,6.3462,5.5581,3.9042,4.4108,1.6756,1.14,2.5275,0.9403,0.9553,4.9533,6.6949,14.1073,7.55,5.9791,4.6709,6.2209,8.6173,8.5668,5.9391,4.7691,2.4018,1.5794,-0.3127,0.7517,0.1575,-2.1352,-19.3357
11.5855,6.7471,0.9569,6.0681,5.3922,3.732,4.5001,1.74,1.2619,2.6693,1.0327,1.0938,5.0844,6.6536,13.3157,7.2037,5.6042,4.251,5.9716,8.3504,8.3827,5.8158,4.637,2.5723,1.6585,-0.1123,0.9466,0.3025,-2.1484,-18.8698
10.8976,6.3228,0.5073,5.7275,5.1719,3.5232,4.5511,1.775,1.3525,2.7927,1.1023,1.222,5.199,6.5855,12.4726,6.8188,5.2052,3.8284,5.7005,8.0462,8.1627,5.6617,4.4915,2.7298,1.7398,0.0633,1.1299,0.4392,-2.1686,-18.3276
10.1659,5.8576,0.0647,5.345,4.9089,3.2872,4.5699,1.7816,1.4119,2.9011,1.1532,1.3402,5.3021,6.5053,11.6205,6.4257,4.8084,3.4266,5.4252,7.7306,7.9277,5.4877,4.3396,2.8793,1.824,0.2153,1.3075,0.5644,-2.1965,-17.7272
9.4102,5.3831,-0.3453,4.9459,4.6189,3.0348,4.5649,1.7644,1.4439,2.9979,1.1937,1.4502,5.4005,6.4281,10.8003,6.0529,4.4354,3.0618,5.1615,7.4295,7.699,5.3069,4.1879,3.0266,1.9097,0.3468,1.4854,0.676,-2.23,-17.091
8.6567,4.9298,-0.702,4.5564,4.3191,2.7775,4.5446,1.7302,1.4543,3.0858,1.2336,1.5548,5.4999,6.3658,10.0456,5.722,4.0981,2.7403,4.919,7.1634,7.4936,5.1311,4.0407,3.175,1.9927,0.4606,1.6667,0.7725,-2.2639,-16.4443
7.9342,4.5208,-0.9934,4.1983,4.0263,2.5261,4.5168,1.6862,1.4501,3.1657,1.282,1.6568,5.6032,6.3232,9.3774,5.4429,3.7973,2.4583,4.6998,6.9432,7.3203,4.9673,3.8986,3.3233,2.0664,0.5578,1.8504,0.8535,-2.2906,-15.8126
7.2686,4.1677,-1.2193,3.8853,3.7543,2.2898,4.4879,1.6386,1.4388,3.238,1.3449,1.7591,5.7095,6.2975,8.8004,5.212,3.5235,2.2039,4.4975,6.7676,7.1784,4.816,3.758,3.4652,2.123,0.638,2.0319,0.9209,-2.3018,-15.2178
6.6765,3.8684,-1.3909,3.6202,3.5125,2.0744,4.4631,1.5923,1.4282,3.3031,1.4247,1.8647,5.8147,6.2797,8.3024,5.0133,3.2604,1.9593,4.2992,6.6239,7.0587,4.6716,3.6119,3.5919,2.1559,0.702,2.2053,0.9812,-2.2906,-14.6739
6.1617,3.6092,-1.5296,3.3957,3.3051,1.8818,4.4467,1.5503,1.4253,3.3629,1.5188,1.9771,5.9132,6.2584,7.8564,4.822,2.9903,1.7055,4.0896,6.4914,6.9466,4.5252,3.4522,3.6955,2.1617,0.7539,2.3666,1.047,-2.2535,-14.1855
5.7138,3.3689,-1.6638,3.1963,3.1314,1.7095,4.4423,1.5134,1.4358,3.4203,1.6193,2.1001,6.0001,6.2236,7.4252,4.6105,2.6984,1.4256,3.8549,6.3468,6.8269,4.3673,3.2725,3.7725,2.1424,0.8035,2.5164,1.1372,-2.1918,-13.7477
5.3117,3.1241,-1.8242,3.0029,2.9868,1.5515,4.4525,1.4809,1.4623,3.4786,1.7141,2.2365,6.0737,6.1704,6.9681,4.3541,2.3768,1.1078,3.5866,6.1694,6.6877,4.1918,3.0698,3.8257,2.1051,0.8649,2.6611,1.2742,-2.1116,-13.3486
4.928,2.8549,-2.0384,2.7972,2.8639,1.4,4.4781,1.45,1.5045,3.5405,1.7888,2.3879,6.1356,6.0995,6.4484,4.0357,2.0241,0.7466,3.2823,5.9457,6.5226,3.9966,2.8452,3.8639,2.0606,0.954,2.8109,1.4791,-2.0219,-12.9717
4.5363,2.5475,-2.3245,2.5652,2.7544,1.2469,4.5183,1.4179,1.5592,3.6076,1.8314,2.5539,6.1903,6.0159,5.8403,3.6484,1.644,0.3425,2.945,5.6708,6.3308,3.7834,2.6026,3.8985,2.0201,1.0838,2.9768,1.7654,-1.9319,-12.5996
4.1162,2.1969,-2.687,2.2999,2.6501,1.0861,4.5707,1.3818,1.622,3.6803,1.8365,2.7327,6.2428,5.9259,5.1347,3.1962,1.2427,-0.0992,2.581,5.348,6.1158,3.5559,2.3471,3.9398,1.9917,1.2594,3.1663,2.134,-1.8487,-12.2171
3.6584,1.8064,-3.115,2.0018,2.5439,0.9144,4.6312,1.3406,1.6887,3.7581,1.8083,2.9214,6.2967,5.8339,4.3418,2.6922,0.8262,-0.5697,2.1978,4.9875,5.883,3.318,2.0831,3.9927,1.978,1.4756,3.3802,2.5704,-1.7748,-11.8144
3.1657,1.387,-3.5841,1.6789,2.431,0.7321,4.6952,1.2951,1.7562,3.8397,1.7601,3.116,6.3534,5.7415,3.4903,2.1568,0.3998,-1.0573,1.8031,4.6037,5.6388,3.073,1.814,4.0559,1.9756,1.7167,3.6113,3.046,-1.7084,-11.3889
