FP1,F3,F7,FC3,C3,C5,P3,P7,PO7,PO3,O1,Oz,Pz,CPz,FP2,Fz,F4,F8,FC4,FCz,Cz,C4,C6,P4,P8,PO8,PO4,O2,(corr) HEOG,(corr) VEOG
-0.143,0.3338,-0.7934,1.1004,1.0721,0.6253,0.629,0.4166,0.2664,0.4068,0.5796,0.5409,1.0451,2.02,-0.0818,0.7161,0.2336,0.6668,0.309,1.9349,2.4696,0.8542,0.8773,0.669,0.2906,0.3606,0.0703,0.3103,1.0722,-1.0591
-0.2049,0.2249,-0.7128,0.8665,0.9191,0.47,0.4477,0.3259,0.2428,0.2226,0.3856,0.5941,0.9634,1.847,-0.1445,0.5979,0.1672,0.4248,0.2579,1.8178,2.3284,0.7388,0.7334,0.6418,0.3739,0.4752,0.2293,0.3057,0.576,-0.8704
-0.2752,0.1044,-0.6536,0.6317,0.7559,0.3062,0.2644,0.2334,0.2132,0.0437,0.1971,0.6279,0.8681,1.6646,-0.2065,0.4688,0.0948,0.1895,0.1998,1.6829,2.1691,0.6153,0.5822,0.6011,0.4532,0.5767,0.3709,0.2926,0.1308,-0.7017
-0.3577,-0.0344,-0.6276,0.3979,0.5779,0.1301,0.0811,0.1387,0.1725,-0.1257,0.019,0.6262,0.7513,1.4684,-0.2688,0.3238,0.0125,-0.0312,0.1299,1.5195,1.9811,0.4807,0.4226,0.5376,0.5225,0.6517,0.4781,0.2647,-0.2258,-0.5633
-0.4521,-0.1904,-0.6373,0.1706,0.3869,-0.056,-0.0984,0.0433,0.1175,-0.2827,-0.1452,0.5793,0.6092,1.2571,-0.3313,0.1646,-0.0804,-0.2293,0.0471,1.3244,1.7607,0.3367,0.2571,0.4464,0.5741,0.6883,0.537,0.2167,-0.4719,-0.4614
-0.5524,-0.354,-0.6752,-0.0406,0.1918,-0.2431,-0.2676,-0.0487,0.0482,-0.425,-0.2932,0.487,0.4437,1.0346,-0.3924,0.0006,-0.1804,-0.396,-0.0448,1.1045,1.5138,0.1909,0.0921,0.3284,0.5998,0.6784,0.5401,0.1465,-0.6036,-0.3982
-0.6481,-0.5075,-0.7261,-0.2229,0.0085,-0.4153,-0.4169,-0.1315,-0.0322,-0.5494,-0.4229,0.3582,0.2639,0.8107,-0.4482,-0.1517,-0.2792,-0.5221,-0.1367,0.8756,1.2552,0.0558,-0.0619,0.1917,0.5929,0.6191,0.4883,0.0557,-0.6321,-0.3723
-0.7253,-0.6291,-0.7709,-0.3617,-0.1432,-0.5534,-0.5342,-0.1987,-0.1175,-0.6514,-0.5319,0.2103,0.085,0.6008,-0.4927,-0.2721,-0.3645,-0.5993,-0.2156,0.6604,1.0076,-0.0526,-0.1913,0.0506,0.5504,0.5147,0.3913,-0.0486,-0.5794,-0.3798
-0.7697,-0.6982,-0.7915,-0.4447,-0.2439,-0.6386,-0.6059,-0.2447,-0.1995,-0.7243,-0.6165,0.0655,-0.073,0.4234,-0.5186,-0.3406,-0.422,-0.6225,-0.2667,0.4834,0.7965,-0.1186,-0.2823,-0.0764,0.4751,0.377,0.2668,-0.1548,-0.4731,-0.4138
-0.7698,-0.7004,-0.7751,-0.4639,-0.2787,-0.6575,-0.6198,-0.2655,-0.2685,-0.76,-0.6719,-0.0531,-0.1892,0.2972,-0.519,-0.3424,-0.4381,-0.5921,-0.2771,0.3658,0.6456,-0.13,-0.3232,-0.1696,0.3765,0.2244,0.1374,-0.2472,-0.3421,-0.4651
-0.7199,-0.6314,-0.7168,-0.4182,-0.2412,-0.6048,-0.5671,-0.259,-0.3149,-0.7496,-0.6924,-0.1253,-0.2453,0.2369,-0.4885,-0.2712,-0.403,-0.515,-0.2383,0.321,0.5715,-0.0808,-0.3067,-0.2115,0.2691,0.0794,0.0273,-0.3094,-0.2131,-0.5229
-0.6221,-0.4978,-0.62,-0.3136,-0.1348,-0.4854,-0.4451,-0.2254,-0.3308,-0.6863,-0.6727,-0.1374,-0.2299,0.2493,-0.4244,-0.1316,-0.3138,-0.4043,-0.1496,0.3514,0.5799,0.0267,-0.2322,-0.1906,0.1706,-0.0352,-0.0417,-0.3265,-0.1069,-0.5766
-0.4861,-0.316,-0.4954,-0.163,0.027,-0.3134,-0.2593,-0.1667,-0.3109,-0.5667,-0.6092,-0.0852,-0.1418,0.3314,-0.327,0.0616,-0.1755,-0.277,-0.0184,0.4474,0.6635,0.1819,-0.1064,-0.1039,0.0973,-0.1007,-0.0542,-0.2892,-0.037,-0.6178
-0.3285,-0.1094,-0.3584,0.0157,0.2231,-0.1096,-0.024,-0.087,-0.2545,-0.3936,-0.5022,0.0249,0.0088,0.4687,-0.2004,0.2849,-0.0017,-0.1504,0.1403,0.5886,0.8025,0.3662,0.0565,0.0414,0.0607,-0.1069,-0.0036,-0.1965,-0.0082,-0.6423
-0.1693,0.0956,-0.2262,0.2015,0.4274,0.1017,0.2378,0.0073,-0.1662,-0.1775,-0.3575,0.1764,0.2005,0.6371,-0.0529,0.5099,0.1881,-0.0387,0.3063,0.747,0.9678,0.5562,0.2361,0.2282,0.0642,-0.0552,0.1058,-0.057,-0.0166,-0.6502
-0.0289,0.2739,-0.1141,0.3732,0.613,0.2966,0.4979,0.1075,-0.0562,0.0633,-0.1867,0.3447,0.4046,0.8066,0.1036,0.7075,0.371,0.0503,0.4579,0.8915,1.1254,0.7266,0.4091,0.4315,0.1025,0.0415,0.2595,0.111,-0.052,-0.6452
0.0764,0.4055,-0.0316,0.5119,0.7565,0.4551,0.7265,0.2029,0.0611,0.3049,-0.0066,0.5013,0.5897,0.9461,0.2553,0.8528,0.5259,0.116,0.576,0.9935,1.2429,0.8553,0.5533,0.6225,0.1622,0.1606,0.435,0.283,-0.1004,-0.6313
0.1378,0.4787,0.0196,0.6045,0.8422,0.5643,0.8981,0.283,0.1696,0.5214,0.164,0.6199,0.7281,1.0303,0.388,0.9289,0.6373,0.1638,0.6479,1.0324,1.2954,0.927,0.6516,0.7737,0.2249,0.2746,0.6059,0.4321,-0.1469,-0.611
0.1554,0.4921,0.0469,0.6457,0.8647,0.6206,0.9965,0.3388,0.2556,0.6907,0.3081,0.6819,0.8016,1.0441,0.4909,0.9305,0.6982,0.202,0.6699,0.9993,1.2702,0.9365,0.6964,0.8642,0.2715,0.3567,0.747,0.535,-0.178,-0.5836
0.1385,0.455,0.0649,0.6392,0.8298,0.6295,1.019,0.3663,0.3108,0.7997,0.4143,0.6803,0.8049,0.986,0.5577,0.8638,0.712,0.2381,0.648,0.8987,1.1687,0.8904,0.6906,0.8838,0.2859,0.3867,0.8393,0.5769,-0.1839,-0.5457
0.1028,0.3843,0.0912,0.5961,0.7533,0.6044,0.9767,0.367,0.3351,0.8472,0.4796,0.6219,0.747,0.8688,0.588,0.7459,0.6902,0.277,0.5963,0.7474,1.0058,0.8048,0.647,0.835,0.259,0.3552,0.8732,0.5545,-0.1586,-0.4934
0.0664,0.3014,0.1417,0.5325,0.6572,0.563,0.8918,0.3487,0.3366,0.845,0.51,0.5245,0.6485,0.7159,0.5864,0.6007,0.6495,0.3199,0.5335,0.5703,0.806,0.7019,0.5845,0.7324,0.1898,0.2651,0.8505,0.4771,-0.1014,-0.4244
0.0455,0.2266,0.225,0.4652,0.5644,0.5231,0.793,0.3234,0.3294,0.8137,0.5189,0.4123,0.5371,0.5565,0.5609,0.4542,0.6068,0.3646,0.4773,0.3949,0.5977,0.6046,0.5229,0.5995,0.0865,0.1316,0.7832,0.364,-0.0166,-0.34
0.0507,0.1752,0.3393,0.4071,0.4937,0.4984,0.708,0.3041,0.3302,0.7778,0.523,0.3101,0.4414,0.419,0.5209,0.3293,0.5746,0.4069,0.4404,0.2444,0.407,0.5305,0.4775,0.4641,-0.0353,-0.0213,0.6906,0.2406,0.086,-0.2449
0.0845,0.1538,0.4727,0.3643,0.4555,0.4957,0.6583,0.3014,0.3529,0.759,0.538,0.2372,0.3849,0.3254,0.4746,0.2413,0.5582,0.4408,0.4272,0.1332,0.2527,0.489,0.456,0.3526,-0.1552,-0.1646,0.5954,0.1326,0.1922,-0.1461
0.1412,0.1599,0.6058,0.335,0.4507,0.5137,0.6546,0.3206,0.4054,0.7705,0.5743,0.2036,0.3811,0.2864,0.4287,0.1958,0.5552,0.4604,0.4332,0.064,0.1432,0.4795,0.4581,0.2856,-0.2514,-0.2699,0.5181,0.061,0.2859,-0.0517
0.208,0.1832,0.7168,0.3105,0.471,0.5446,0.6948,0.36,0.4864,0.8138,0.6333,0.2075,0.431,0.3002,0.3868,0.1876,0.5568,0.4606,0.4476,0.0284,0.0754,0.4929,0.4759,0.2732,-0.3048,-0.3147,0.4735,0.0374,0.3524,0.0311
0.2687,0.2088,0.7859,0.2791,0.5017,0.5765,0.7655,0.4116,0.5856,0.878,0.7071,0.2369,0.5223,0.3524,0.3501,0.2029,0.551,0.4382,0.4557,0.0098,0.037,0.5135,0.497,0.3135,-0.3036,-0.2872,0.4672,0.0619,0.382,0.0967
0.3072,0.2208,0.8001,0.2296,0.5252,0.596,0.8444,0.4625,0.6853,0.9423,0.7793,0.2722,0.6317,0.4194,0.3168,0.2224,0.5258,0.3925,0.4431,-0.0122,0.0091,0.5234,0.5068,0.3922,-0.2457,-0.1895,0.4943,0.1232,0.3723,0.1425
0.3116,0.2065,0.7554,0.1551,0.5246,0.5914,0.9049,0.4978,0.7641,0.9805,0.8286,0.2908,0.7294,0.4728,0.2835,0.2261,0.4723,0.3251,0.3991,-0.0568,-0.0292,0.5058,0.4921,0.485,-0.1402,-0.0374,0.5408,0.2011,0.3288,0.1695
0.2777,0.1594,0.6567,0.055,0.4867,0.5548,0.9212,0.5039,0.8009,0.9674,0.834,0.2725,0.7848,0.4852,0.2461,0.1975,0.3871,0.2405,0.3195,-0.1369,-0.0958,0.4493,0.4433,0.5628,-0.0048,0.1422,0.5868,0.2717,0.2636,0.1826
0.2099,0.0804,0.5172,-0.0649,0.4045,0.4825,0.8734,0.4708,0.7793,0.8847,0.7793,0.2039,0.7734,0.4357,0.2016,0.1277,0.2734,0.1457,0.2079,-0.2566,-0.2022,0.3497,0.3575,0.5977,0.1377,0.3178,0.6114,0.3128,0.1923,0.1899
0.1208,-0.0223,0.3557,-0.1939,0.2776,0.3762,0.7513,0.3949,0.6917,0.7264,0.6582,0.0815,0.6821,0.3144,0.1488,0.0168,0.1395,0.0504,0.0748,-0.4101,-0.3508,0.2115,0.2389,0.5697,0.2646,0.4595,0.5974,0.3094,0.13,0.2014
0.0277,-0.135,0.1931,-0.3194,0.1125,0.2421,0.5562,0.2792,0.5406,0.5003,0.476,-0.0873,0.5117,0.1236,0.0895,-0.1261,-0.0031,-0.0335,-0.0654,-0.5841,-0.5354,0.0458,0.0972,0.4702,0.3576,0.5446,0.5353,0.2571,0.0875,0.2274
-0.0506,-0.2418,0.0497,-0.43,-0.079,0.0898,0.3018,0.1333,0.3389,0.2275,0.249,-0.2854,0.2762,-0.123,0.0281,-0.2855,-0.1419,-0.0945,-0.1977,-0.761,-0.7432,-0.1327,-0.0547,0.3038,0.4051,0.5615,0.4245,0.1618,0.0695,0.2759
-0.0989,-0.3278,-0.0584,-0.517,-0.2818,-0.0689,0.0107,-0.0285,0.1078,-0.062,0.0022,-0.4894,-0.0001,-0.4039,-0.0296,-0.4432,-0.2664,-0.1242,-0.31,-0.9237,-0.9581,-0.3089,-0.2042,0.0871,0.4033,0.5101,0.2732,0.0386,0.0743,0.3503
-0.1075,-0.3812,-0.1206,-0.5755,-0.4798,-0.2212,-0.2884,-0.1892,-0.1273,-0.3352,-0.236,-0.674,-0.2883,-0.6942,-0.0773,-0.5815,-0.369,-0.1207,-0.395,-1.0587,-1.1647,-0.4706,-0.3413,-0.1557,0.3551,0.4006,0.096,-0.093,0.0954,0.4485
-0.0748,-0.3957,-0.1334,-0.6045,-0.6581,-0.3553,-0.5663,-0.3324,-0.341,-0.5624,-0.4387,-0.8169,-0.5605,-0.9702,-0.1103,-0.687,-0.4457,-0.0894,-0.4513,-1.1588,-1.3505,-0.6102,-0.4602,-0.3978,0.2684,0.2501,-0.0898,-0.2131,0.1233,0.5627
-0.0061,-0.3709,-0.1004,-0.6058,-0.8056,-0.462,-0.7979,-0.4452,-0.5123,-0.7227,-0.5849,-0.9029,-0.7944,-1.2134,-0.1267,-0.7525,-0.4961,-0.0425,-0.4821,-1.2234,-1.5081,-0.7254,-0.5588,-0.6152,0.1534,0.0786,-0.2689,-0.306,0.1482,0.6816
0.0872,-0.3119,-0.0316,-0.5839,-0.9163,-0.5359,-0.9668,-0.5196,-0.6283,-0.8071,-0.6633,-0.9262,-0.9772,-1.4129,-0.1288,-0.7779,-0.5232,0.0052,-0.4946,-1.2579,-1.6353,-0.8182,-0.6387,-0.7916,0.0206,-0.0959,-0.431,-0.3636,0.1616,0.7928
0.1905,-0.2288,0.0581,-0.5447,-0.9902,-0.5769,-1.0671,-0.5545,-0.6856,-0.8198,-0.673,-0.8914,-1.1067,-1.5659,-0.1224,-0.7697,-0.5334,0.04,-0.4982,-1.2717,-1.7343,-0.8942,-0.7035,-0.9204,-0.1217,-0.2599,-0.5738,-0.3861,0.1588,0.8847
0.2886,-0.1345,0.1507,-0.4953,-1.0324,-0.5898,-1.1046,-0.5548,-0.6907,-0.7759,-0.6235,-0.8124,-1.1896,-1.6769,-0.1157,-0.7394,-0.5347,0.0529,-0.5027,-1.2756,-1.8105,-0.9604,-0.7577,-1.0053,-0.2672,-0.407,-0.7028,-0.3819,0.1395,0.9486
0.3687,-0.0418,0.2287,-0.4434,-1.0515,-0.583,-1.0939,-0.5303,-0.6577,-0.6975,-0.5325,-0.7096,-1.2387,-1.7544,-0.1163,-0.6993,-0.5351,0.041,-0.5162,-1.2786,-1.8693,-1.0231,-0.8045,-1.0571,-0.4121,-0.5367,-0.8288,-0.3642,0.1076,0.9793
0.4233,0.0386,0.2787,-0.3956,-1.057,-0.567,-1.0551,-0.4933,-0.6049,-0.609,-0.4216,-0.6056,-1.2678,-1.8075,-0.1288,-0.6598,-0.54,0.0078,-0.5421,-1.2855,-1.9147,-1.0853,-0.8445,-1.0896,-0.5523,-0.6521,-0.9645,-0.3474,0.0702,0.9754
0.4514,0.101,0.2944,-0.3569,-1.056,-0.551,-1.0082,-0.4556,-0.5508,-0.5315,-0.3128,-0.5208,-1.2873,-1.8423,-0.1521,-0.6258,-0.5493,-0.038,-0.5779,-1.2949,-1.9466,-1.145,-0.8743,-1.1141,-0.683,-0.7564,-1.1194,-0.3421,0.0362,0.9387
0.4588,0.1451,0.278,-0.3297,-1.0522,-0.5411,-0.9686,-0.4263,-0.5097,-0.4785,-0.2233,-0.4688,-1.3012,-1.8608,-0.1792,-0.5958,-0.5571,-0.0843,-0.6147,-1.3002,-1.9621,-1.1954,-0.8881,-1.1362,-0.7969,-0.8503,-1.2969,-0.3531,0.0143,0.8738
0.4556,0.1754,0.2391,-0.3136,-1.045,-0.5387,-0.9432,-0.4096,-0.489,-0.4535,-0.1632,-0.4538,-1.3064,-1.8604,-0.1988,-0.5632,-0.5534,-0.1182,-0.6409,-1.2922,-1.9562,-1.2271,-0.8806,-1.1546,-0.8859,-0.9304,-1.4917,-0.3772,0.0116,0.788
0.4532,0.1992,0.1919,-0.3064,-1.0309,-0.5404,-0.9296,-0.4046,-0.4879,-0.4501,-0.1334,-0.4705,-1.294,-1.8366,-0.1992,-0.5201,-0.5287,-0.1288,-0.6462,-1.2633,-1.9255,-1.2319,-0.8512,-1.1625,-0.9431,-0.9901,-1.6907,-0.4054,0.0309,0.6905
0.4607,0.2238,0.1517,-0.305,-1.0057,-0.5399,-0.9177,-0.406,-0.4978,-0.4543,-0.1269,-0.5061,-1.2531,-1.7852,-0.172,-0.4607,-0.4775,-0.1101,-0.6259,-1.2104,-1.8699,-1.2065,-0.806,-1.151,-0.9646,-1.0218,-1.8758,-0.4254,0.0709,0.5927
0.4826,0.2545,0.1309,-0.3063,-0.966,-0.5293,-0.8926,-0.4057,-0.5056,-0.4482,-0.1313,-0.5435,-1.1745,-1.7048,-0.1147,-0.3842,-0.4016,-0.0619,-0.5832,-1.1374,-1.7944,-1.1541,-0.7574,-1.1124,-0.9512,-1.0197,-2.0271,-0.4254,0.1257,0.5061
0.5184,0.2935,0.1365,-0.3077,-0.9108,-0.502,-0.8396,-0.3954,-0.497,-0.4149,-0.1319,-0.5658,-1.0531,-1.5985,-0.0319,-0.2952,-0.3096,0.0098,-0.5273,-1.0538,-1.708,-1.0835,-0.7192,-1.0429,-0.9087,-0.9813,-2.1275,-0.397,0.1868,0.4409
0.5635,0.3399,0.1694,-0.3076,-0.8418,-0.4544,-0.7489,-0.369,-0.4609,-0.3432,-0.1163,-0.5601,-0.8909,-1.4732,0.0659,-0.2029,-0.2146,0.095,-0.4711,-0.9726,-1.6221,-1.0065,-0.7025,-0.9434,-0.8459,-0.9086,-2.1662,-0.3373,0.2443,0.4041
0.6114,0.3908,0.2253,-0.3055,-0.7634,-0.3873,-0.6183,-0.3242,-0.3928,-0.2301,-0.077,-0.5206,-0.6969,-1.3394,0.1655,-0.118,-0.1304,0.1818,-0.4264,-0.9064,-1.5484,-0.9348,-0.7107,-0.8197,-0.7734,-0.8075,-2.1404,-0.2496,0.2885,0.3987
0.6555,0.442,0.2963,-0.3021,-0.682,-0.3065,-0.4552,-0.2633,-0.2965,-0.0826,-0.0135,-0.4492,-0.4861,-1.2089,0.254,-0.05,-0.068,0.2586,-0.4012,-0.8645,-1.4964,-0.8768,-0.7394,-0.6816,-0.7006,-0.6872,-2.0558,-0.1424,0.311,0.4234
0.6909,0.4893,0.3734,-0.3,-0.6051,-0.2212,-0.275,-0.1926,-0.1835,0.0838,0.0678,-0.3556,-0.2782,-1.0934,0.3226,-0.0052,-0.0325,0.3168,-0.3975,-0.851,-1.4718,-0.8363,-0.7779,-0.5408,-0.6347,-0.5582,-1.9249,-0.0276,0.3056,0.4734
0.7157,0.5298,0.449,-0.3027,-0.5398,-0.1419,-0.0977,-0.1215,-0.0705,0.2479,0.1548,-0.2548,-0.0936,-1.0023,0.3677,0.0151,-0.0217,0.3509,-0.4105,-0.8633,-1.4754,-0.8123,-0.8128,-0.4099,-0.5796,-0.431,-1.765,0.0818,0.2703,0.5409
0.732,0.5629,0.5181,-0.3135,-0.4916,-0.0777,0.0564,-0.0599,0.0239,0.3875,0.2324,-0.1642,0.0493,-0.941,0.3922,0.0153,-0.0271,0.3589,-0.4304,-0.8928,-1.5028,-0.7995,-0.8322,-0.2994,-0.5362,-0.3151,-1.5948,0.1748,0.2074,0.6168
0.7451,0.5906,0.5785,-0.3347,-0.4627,-0.034,0.1704,-0.0163,0.084,0.4834,0.2861,-0.0998,0.137,-0.9107,0.4033,0.0039,-0.0352,0.3416,-0.4448,-0.9269,-1.5454,-0.7912,-0.8289,-0.2174,-0.5033,-0.2182,-1.4328,0.2437,0.1239,0.692
0.7624,0.6174,0.6304,-0.3664,-0.4525,-0.0116,0.234,0.0039,0.0993,0.5232,0.3049,-0.0735,0.1627,-0.9088,0.4103,-0.008,-0.0321,0.3031,-0.4429,-0.9519,-1.5928,-0.7809,-0.8025,-0.1686,-0.4789,-0.1459,-1.2948,0.2848,0.0306,0.7587
0.7912,0.648,0.6751,-0.4073,-0.4577,-0.0078,0.2442,-0.0011,0.067,0.503,0.2837,-0.0909,0.1267,-0.9307,0.4222,-0.0103,-0.0067,0.2508,-0.418,-0.9575,-1.6349,-0.7654,-0.759,-0.1545,-0.4611,-0.1014,-1.1936,0.2989,-0.0597,0.8114
0.8362,0.6862,0.7139,-0.4548,-0.4746,-0.0177,0.2046,-0.0288,-0.0077,0.4281,0.2252,-0.1502,0.0353,-0.9717,0.445,0.0037,0.0454,0.1944,-0.3703,-0.9393,-1.6657,-0.7454,-0.7094,-0.1737,-0.4481,-0.0846,-1.1365,0.29,-0.1343,0.8468
0.8966,0.732,0.7472,-0.5071,-0.5007,-0.0369,0.1241,-0.0737,-0.1124,0.3126,0.1401,-0.2424,-0.1007,-1.0296,0.4799,0.0345,0.1206,0.1449,-0.3073,-0.9009,-1.6851,-0.7259,-0.6661,-0.2227,-0.4385,-0.0912,-1.1248,0.2657,-0.1836,0.8641
0.9655,0.7802,0.7735,-0.5641,-0.5367,-0.0634,0.0141,-0.1278,-0.2291,0.1771,0.0466,-0.3519,-0.269,-1.1058,0.5229,0.0753,0.2071,0.1104,-0.2425,-0.8546,-1.7004,-0.7154,-0.64,-0.2963,-0.43,-0.1119,-1.1522,0.2358,-0.2022,0.8638
1.0298,0.8196,0.7885,-0.6291,-0.588,-0.0991,-0.1129,-0.1828,-0.3359,0.0458,-0.0316,-0.4595,-0.4583,-1.2057,0.5641,0.1126,0.2869,0.0935,-0.1927,-0.8194,-1.7263,-0.7244,-0.6382,-0.3879,-0.4179,-0.1317,-1.2048,0.212,-0.1902,0.8478
1.0715,0.8334,0.7849,-0.7094,-0.6642,-0.1504,-0.2463,-0.231,-0.4102,-0.0563,-0.0678,-0.5442,-0.6601,-1.3382,0.5893,0.1275,0.3385,0.0878,-0.1755,-0.8181,-1.7821,-0.7633,-0.6624,-0.4898,-0.3951,-0.1296,-1.261,0.2073,-0.1526,0.8188
1.0709,0.8016,0.7524,-0.8162,-0.778,-0.2266,-0.3781,-0.2666,-0.4306,-0.1071,-0.0368,-0.5869,-0.8695,-1.513,0.5815,0.0985,0.3407,0.0788,-0.2052,-0.8738,-1.8885,-0.8409,-0.7105,-0.5931,-0.3508,-0.0806,-1.2947,0.2354,-0.097,0.781
1.0096,0.7038,0.6787,-0.9628,-0.9419,-0.3389,-0.5035,-0.2867,-0.3806,-0.0906,0.0819,-0.5725,-1.0846,-1.7374,0.5236,0.0048,0.2756,0.046,-0.2917,-1.0049,-2.0628,-0.9621,-0.7771,-0.6872,-0.2716,0.043,-1.2782,0.3096,-0.0325,0.7395
0.8735,0.5239,0.551,-1.1618,-1.1644,-0.4969,-0.6199,-0.2906,-0.2508,0.0016,0.2998,-0.4931,-1.3045,-2.0128,0.4017,-0.1698,0.131,-0.0319,-0.4379,-1.2216,-2.3134,-1.1264,-0.8566,-0.7604,-0.143,0.2677,-1.1859,0.4411,0.0321,0.7008
0.6562,0.2543,0.359,-1.4207,-1.4462,-0.7052,-0.7253,-0.2795,-0.0407,0.169,0.6156,-0.3498,-1.5263,-2.331,0.2076,-0.433,-0.0967,-0.1707,-0.6396,-1.5222,-2.6357,-1.3268,-0.9435,-0.7992,0.0478,0.6138,-0.9975,0.6375,0.0894,0.6717
0.361,-0.1001,0.0988,-1.7377,-1.7763,-0.9602,-0.8155,-0.2553,0.2401,0.4021,1.0131,-0.1538,-1.7421,-2.6733,-0.0585,-0.7804,-0.401,-0.376,-0.885,-1.8917,-3.0104,-1.549,-1.0334,-0.7896,0.3091,1.0904,-0.7005,0.8988,0.1338,0.6586
0.0032,-0.519,-0.223,-2.0982,-2.1312,-1.2478,-0.8829,-0.2196,0.5726,0.6835,1.4604,0.073,-1.9377,-3.0105,-0.3854,-1.1932,-0.7638,-0.6401,-1.1549,-2.3011,-3.4041,-1.7719,-1.1214,-0.7183,0.641,1.6896,-0.2929,1.2149,0.1632,0.6655
-0.3897,-0.9665,-0.5862,-2.4732,-2.4756,-1.5423,-0.9163,-0.1731,0.9299,0.9893,1.9112,0.2992,-2.0927,-3.3064,-0.7507,-1.6375,-1.1552,-0.9416,-1.4234,-2.7099,-3.7729,-1.9696,-1.2004,-0.5751,1.0337,2.3824,0.2148,1.5622,0.1788,0.6931
-0.7789,-1.3934,-0.9567,-2.8211,-2.7666,-1.8087,-0.9022,-0.1164,1.2793,1.2905,2.3096,0.4861,-2.1827,-3.5224,-1.1209,-2.0661,-1.5352,-1.2476,-1.6596,-3.07,-4.0686,-2.1135,-1.2597,-0.356,1.4658,3.1178,0.7966,1.9033,0.1858,0.7375
-1.118,-1.7427,-1.2891,-3.0924,-2.9591,-2.0073,-0.8284,-0.0502,1.5855,1.5561,2.597,0.5927,-2.1837,-3.6232,-1.4541,-2.4237,-1.8573,-1.517,-1.8299,-3.3314,-4.246,-2.176,-1.2838,-0.0648,1.9059,3.8258,1.4115,2.1901,0.1924,0.7903
-1.3583,-1.9575,-1.5332,-3.2371,-3.0135,-2.0997,-0.6869,0.0229,1.8137,1.7556,2.7215,0.5828,-2.0762,-3.5821,-1.7055,-2.6541,-2.074,-1.7062,-1.9014,-3.4489,-4.269,-2.1335,-1.2539,0.2854,2.3154,4.4254,2.0056,2.3705,0.2081,0.8407
-1.4559,-1.9905,-1.6418,-3.2136,-2.9019,-2.0559,-0.4773,0.0971,1.9337,1.8632,2.6468,0.4317,-1.8502,-3.3847,-1.8339,-2.7093,-2.1439,-1.7753,-1.8465,-3.389,-4.1164,-1.9701,-1.1504,0.6735,2.6533,4.8359,2.5183,2.3979,0.2415,0.8784
-1.3785,-1.8118,-1.5796,-2.9968,-2.6138,-1.8606,-0.2084,0.163,1.9223,1.8599,2.359,0.133,-1.5072,-3.0319,-1.8087,-2.558,-2.039,-1.6939,-1.6482,-3.1353,-3.7844,-1.6809,-0.9581,1.0723,2.8811,4.9892,2.8907,2.2406,0.2982,0.8967
-1.1116,-1.4149,-1.3288,-2.583,-2.158,-1.5155,0.1015,0.207,1.766,1.7363,1.8684,-0.2989,-1.0623,-2.5393,-1.6156,-2.1917,-1.7504,-1.4466,-1.3041,-2.6913,-3.2872,-1.2737,-0.6709,1.4512,2.9684,4.8403,3.0744,1.8887,0.3794,0.8947
-0.6602,-0.8177,-0.8924,-1.9914,-1.5612,-1.0397,0.4264,0.2133,1.4621,1.4925,1.2078,-0.8304,-0.5421,-1.9351,-1.2587,-1.6261,-1.2898,-1.0356,-0.8279,-2.079,-2.6534,-0.7689,-0.2951,1.7802,2.8959,4.374,3.0395,1.3567,0.4818,0.8773
-0.0487,-0.0586,-0.2931,-1.2608,-0.8636,-0.4663,0.7363,0.1658,1.0187,1.1382,0.426,-1.4136,0.0189,-1.2552,-0.759,-0.8981,-0.6883,-0.4812,-0.2475,-1.3352,-1.9209,-0.1963,0.1499,2.0332,2.6576,3.6065,2.7781,0.6805,0.5993,0.8537
0.6842,0.8105,0.431,-0.4422,-0.1116,0.1633,1.0021,0.0522,0.4547,0.6917,-0.4188,-1.9945,0.5838,-0.538,-0.1501,-0.0585,0.0102,0.1812,0.3994,-0.5038,-1.1304,0.409,0.6342,2.1911,2.2615,2.582,2.3054,-0.0884,0.7243,0.8329
1.4911,1.7332,1.2324,0.4091,0.6485,0.8056,1.2002,-0.1327,-0.2005,0.1787,-1.2663,-2.5216,1.1182,0.1807,0.5276,0.8364,0.7566,0.9063,1.072,0.3704,-0.3193,1.0122,1.1221,2.2441,1.728,1.3665,1.6561,-0.8918,0.8498,0.8217
2.3231,2.656,2.0613,1.2407,1.376,1.4206,1.317,-0.3838,-0.9089,-0.3691,-2.0602,-2.9531,1.5946,0.871,1.2322,1.7333,1.504,1.6455,1.7319,1.2477,0.4813,1.5832,1.5783,2.1926,1.088,0.0392,0.8787,-1.6734,0.97,0.8219
3.1349,3.5335,2.8719,2.0093,2.0391,1.9755,1.3512,-0.6846,-1.6251,-0.9159,-2.7524,-3.2627,1.9943,1.5097,1.9247,2.5869,2.2141,2.3536,2.3478,2.0951,1.2473,2.0989,1.973,2.0462,0.3791,-1.3169,0.0287,-2.386,1.0804,0.8307
3.8886,4.3312,3.6254,2.6822,2.6159,2.4479,1.3132,-1.0082,-2.2998,-1.4238,-3.3059,-3.4412,2.3075,2.0797,2.5712,3.3626,2.8597,2.9938,2.8966,2.8867,1.9596,2.5434,2.286,1.8222,-0.3577,-2.6225,-0.8374,-2.9954,1.177,0.8421
4.5543,5.0243,4.2915,3.2385,3.094,2.8253,1.224,-1.3201,-2.884,-1.8556,-3.6956,-3.4947,2.5318,2.5687,3.1442,4.0364,3.4235,3.5396,3.3634,3.6011,2.6022,2.9065,2.5076,1.5429,-1.0814,-3.8086,-1.6674,-3.4816,1.2563,0.8486
5.1104,5.5963,4.8478,3.6678,3.4691,3.1053,1.1111,-1.5838,-3.333,-2.1774,-3.9089,-3.4411,2.6706,2.9683,3.6227,4.5925,3.8965,3.9746,3.7391,4.2197,3.1604,3.1825,2.6374,1.2333,-1.7544,-4.8205,-2.417,-3.8372,1.315,0.8435
5.5421,6.0367,5.2782,3.969,3.7431,3.2932,1.0049,-1.766,-3.6112,-2.3614,-3.9441,-3.3041,2.7317,3.2731,3.9917,5.0213,4.2734,4.2907,4.018,4.7251,3.6202,3.3682,2.6825,0.9183,-2.3443,-5.6201,-3.0515,-4.0639,1.3521,0.8218
5.8399,6.339,5.5723,4.1481,3.923,3.3999,0.9338,-1.8422,-3.6948,-2.3882,-3.8093,-3.1077,2.7256,3.4814,4.2424,5.3174,4.5505,4.4858,4.1968,5.1019,3.9693,3.4629,2.6545,0.6214,-2.8255,-6.1853,-3.5469,-4.1697,1.3692,0.7807
5.9991,6.5009,5.7253,4.2171,4.0186,3.4393,0.9214,-1.7997,-3.5745,-2.248,-3.52,-2.8722,2.6656,3.5946,4.3708,5.4787,4.7242,4.5625,4.2738,5.3383,4.199,3.469,2.5681,0.3632,-3.1796,-6.5088,-3.8887,-4.1651,1.3708,0.72
6.0196,6.5244,5.7391,4.1921,4.042,3.4261,0.9835,-1.6385,-3.2542,-1.9407,-3.0961,-2.6108,2.5669,3.6184,4.3785,5.5064,4.79,4.5268,4.249,5.4288,4.3059,3.3925,2.4386,0.1609,-3.3951,-6.5947,-4.0701,-4.0608,1.3633,0.6417
5.9065,6.4166,5.6236,4.092,4.0062,3.3746,1.1279,-1.3688,-2.7494,-1.4751,-2.56,-2.3291,2.4464,3.562,4.2721,5.4058,4.7445,4.3874,4.1243,5.3757,4.2928,3.2423,2.2798,0.0278,-3.4674,-6.456,-4.0903,-3.8658,1.3522,0.5507
5.6701,6.1903,5.3962,3.9359,3.9243,3.2971,1.354,-1.0077,-2.0836,-0.867,-1.9333,-2.0266,2.3217,3.4379,4.063,5.1869,4.5861,4.1548,3.9039,5.1898,4.1697,3.0298,2.102,-0.0271,-3.398,-6.1115,-3.9529,-3.5877,1.3407,0.4536
5.326,5.8632,5.0808,3.742,3.8091,3.204,1.6545,-0.5748,-1.2849,-0.1382,-1.2364,-1.6995,2.2096,3.261,3.7667,4.8645,4.3182,3.842,3.5953,4.8904,3.9523,2.7674,1.9116,0.0007,-3.1941,-5.5841,-3.6653,-3.2328,1.3289,0.358
4.8944,5.4567,4.7047,3.5254,3.6722,3.1035,2.0167,-0.0878,-0.3835,0.6858,-0.4878,-1.3432,2.1247,3.0476,3.4019,4.458,3.9507,3.4635,3.2107,4.5027,3.6612,2.4685,1.7123,0.1108,-2.8686,-4.9004,-3.2394,-2.8078,1.3135,0.2705
4.3974,4.9934,4.2935,3.297,3.5242,3.002,2.4241,0.4387,0.5906,1.5758,0.2952,-0.956,2.0778,2.8139,2.9887,3.9893,3.501,3.0351,2.7675,4.0552,3.3199,2.1473,1.5069,0.2981,-2.4395,-4.0906,-2.6924,-2.3215,1.2903,0.1956
3.8576,4.4947,3.8673,3.0627,3.3734,2.9032,2.858,0.9942,1.6079,2.5006,1.0952,-0.5405,2.0749,2.5748,2.5455,3.4803,2.9916,2.5719,2.2868,3.5754,2.9515,1.8181,1.2988,0.5531,-1.9296,-3.1889,-2.0481,-1.7862,1.2552,0.1341
3.295,3.9784,3.4381,2.8236,3.2259,2.8089,3.2989,1.5708,2.6403,3.4274,1.8943,-0.1049,2.1161,2.3416,2.0872,2.9505,2.4472,2.0871,1.7914,3.0857,2.5762,1.4938,1.092,0.8619,-1.366,-2.2336,-1.3364,-1.2184,1.2064,0.0841
2.7254,3.458,3.0092,2.5766,3.0845,2.7178,3.7281,2.1611,3.6604,4.3236,2.6735,0.3373,2.1958,2.1213,1.6226,2.4141,1.8896,1.5918,1.301,2.6007,2.2079,1.1846,0.8902,1.2074,-0.7783,-1.2662,-0.5921,-0.6388,1.145,0.0419
2.1597,2.9419,2.5782,2.3161,2.9484,2.6265,4.1291,2.7554,4.6419,5.1577,3.4133,0.7686,2.3037,1.916,1.155,1.8795,1.3347,1.0956,0.8298,2.1264,1.8531,0.8962,0.6956,1.5708,-0.1972,-0.3289,0.1485,-0.0701,1.075,0.004
1.6049,2.4358,2.1408,2.0366,2.8141,2.5296,4.4885,3.3409,5.5598,5.9019,4.0943,1.169,2.4263,1.7236,0.6836,1.3502,0.791,0.6087,0.3853,1.6622,1.5116,0.6302,0.5104,1.9335,0.3493,0.5384,0.8521,0.4646,1.0025,-0.0314
1.0658,1.9439,1.6952,1.7352,2.6768,2.422,4.7974,3.9013,6.3912,6.5342,4.6993,1.5192,2.5498,1.5404,0.2069,0.828,0.2615,0.1431,-0.0306,1.2052,1.1792,0.3858,0.3375,2.2798,0.8382,1.3031,1.4925,0.9448,0.9335,-0.0637
0.5472,1.4717,1.2452,1.4142,2.533,2.3005,5.0517,4.4182,7.1165,7.0399,5.2146,1.8033,2.6625,1.3638,-0.2742,0.3167,-0.2524,-0.2874,-0.4181,0.7555,0.8527,0.1621,0.1828,2.5989,1.2546,1.9424,2.0546,1.3547,0.8718,-0.0909
0.0563,1.0273,0.801,1.0821,2.3823,2.1656,5.2519,4.8735,7.7207,7.4134,5.6302,2.0113,2.7564,1.1948,-0.7527,-0.1755,-0.7472,-0.6685,-0.7768,0.3193,0.5328,-0.0395,0.0552,2.8862,1.5929,2.4456,2.5345,1.684,0.8188,-0.1104
-0.3972,0.6209,0.3784,0.753,2.2287,2.0225,5.4022,5.2516,8.1945,7.6574,5.941,2.14,2.8279,1.0387,-1.2155,-0.6348,-1.2147,-0.9876,-1.1029,-0.0896,0.2267,-0.2155,-0.0359,3.142,1.8562,2.8143,2.9379,1.9287,0.7734,-0.1204
-0.8015,0.264,-0.0041,0.4446,2.08,1.88,5.5087,5.5418,8.535,7.7818,6.1453,2.1936,2.8769,0.9038,-1.6441,-1.0444,-1.6426,-1.2355,-1.3904,-0.453,-0.053,-0.3607,-0.0831,3.3702,2.0546,3.0613,3.2752,2.0898,0.7334,-0.1199
-1.1445,-0.0329,-0.3281,0.174,1.9454,1.7487,5.5776,5.7394,8.7454,7.8013,6.2452,2.182,2.9053,0.799,-2.0186,-1.3873,-2.0167,-1.4091,-1.6321,-0.7523,-0.2913,-0.471,-0.0844,3.5753,2.2025,3.207,3.5576,2.1728,0.698,-0.1087
-1.4164,-0.262,-0.5782,-0.0446,1.8337,1.6387,5.6136,5.8461,8.8349,7.7324,6.2456,2.1193,2.9156,0.7313,-2.3214,-1.6512,-2.3245,-1.5118,-1.8224,-0.9737,-0.4741,-0.5445,-0.0437,3.7609,2.3159,3.2768,3.7928,2.1867,0.6683,-0.0863
-1.6106,-0.4193,-0.7442,-0.2029,1.7512,1.5573,5.6191,5.8694,8.8172,7.5916,6.1546,2.0217,2.9103,0.704,-2.5412,-1.8305,-2.558,-1.554,-1.9595,-1.1111,-0.5918,-0.5828,0.0293,3.9282,2.4094,3.2969,3.9837,2.1431,0.6477,-0.0518
-1.7256,-0.5048,-0.8219,-0.2991,1.7001,1.5079,5.5944,5.8211,8.7092,7.3936,5.9833,1.9051,2.8913,0.7164,-2.6745,-1.9275,-2.7147,-1.5504,-2.0453,-1.1671,-0.6403,-0.5905,0.1223,4.0762,2.4949,3.2905,4.1292,2.0554,0.641,-0.0036
-1.7645,-0.5224,-0.8145,-0.337,1.6794,1.4892,5.5381,5.7153,8.5289,7.15,5.7448,1.783,2.8607,0.765,-2.7266,-1.951,-2.7979,-1.517,-2.0855,-1.1509,-0.6209,-0.5733,0.2226,4.2028,2.5799,3.2754,4.2258,1.9374,0.6524,0.0589
-1.7344,-0.4784,-0.7319,-0.3242,1.6852,1.4963,5.4487,5.5663,8.2932,6.8699,5.4539,1.6641,2.8225,0.8453,-2.7087,-1.9128,-2.814,-1.4684,-2.087,-1.0747,-0.5378,-0.5358,0.3207,4.3067,2.6681,3.2616,4.2704,1.8028,0.6832,0.1348
-1.645,-0.38,-0.5902,-0.2692,1.714,1.5224,5.3263,5.3863,8.0165,6.56,5.1253,1.5522,2.7836,0.9552,-2.6349,-1.8239,-2.7701,-1.4153,-2.0556,-0.9485,-0.395,-0.479,0.4123,4.3892,2.7591,3.2518,4.263,1.6639,0.7301,0.2196
-1.5059,-0.2332,-0.4093,-0.1782,1.7643,1.561,5.175,5.1844,7.7096,6.2266,4.7734,1.4466,2.7555,1.0975,-2.5177,-1.6903,-2.6704,-1.3624,-1.9922,-0.7759,-0.1926,-0.3984,0.4995,4.456,2.8501,3.242,4.2091,1.5314,0.7846,0.3053
-1.3243,-0.0408,-0.2096,-0.053,1.8391,1.6091,5.0041,4.9671,7.3801,5.8772,4.4115,1.3441,2.7542,1.2811,-2.3643,-1.5103,-2.5147,-1.3068,-1.8911,-0.5517,0.0749,-0.2837,0.5913,4.5179,2.9369,3.2248,4.1201,1.4141,0.8338,0.3803
-1.1042,0.198,-0.0088,0.1096,1.9468,1.6678,4.8285,4.7388,7.0327,5.521,4.0512,1.2423,2.7989,1.5204,-2.1749,-1.2746,-2.298,-1.2375,-1.7404,-0.2621,0.419,-0.1199,0.7022,4.5895,3.0154,3.1915,4.0133,1.3185,0.8628,0.432
-0.8462,0.4871,0.1807,0.3169,2.0995,1.7428,4.6669,4.5028,6.6704,5.1693,3.7015,1.1409,2.9089,1.8326,-1.9432,-0.9696,-2.0133,-1.1376,-1.5239,0.1114,0.8536,0.1096,0.8494,4.6876,3.0827,3.1349,3.9093,1.2488,0.8585,0.4482
-0.55,0.8303,0.353,0.5767,2.3101,1.8422,4.538,4.2618,6.2949,4.8329,3.3685,1.0427,3.0995,2.2324,-1.6606,-0.5825,-1.6553,-0.988,-1.2267,0.586,1.3905,0.4193,1.0503,4.8273,3.1377,3.0512,3.8287,1.2061,0.8128,0.4202
-0.2172,1.2283,0.5079,0.8942,2.5879,1.9736,4.4568,4.0187,5.9079,4.5208,3.0544,0.9534,3.3777,2.7275,-1.3209,-0.1077,-1.2251,-0.7744,-0.84,1.1706,2.0337,0.8169,1.3181,5.0189,3.1812,2.9413,3.7888,1.1892,0.7254,0.3436
0.1456,1.6761,0.6492,1.2687,2.9354,2.1413,4.4313,3.7769,5.512,4.2382,2.7597,0.8803,3.7396,3.314,-0.9251,0.4488,-0.7326,-0.4927,-0.3653,1.8611,2.7748,1.3011,1.6586,5.2653,3.2158,2.8111,3.8006,1.1958,0.6048,0.2181
0.5257,2.1614,0.783,1.6925,3.3463,2.3443,4.4613,3.5408,5.1129,3.9878,2.4854,0.8326,4.171,3.9756,-0.4843,1.0681,-0.1972,-0.1516,0.1832,2.6379,3.5922,1.8597,2.0673,5.5618,3.2453,2.6717,3.8679,1.2243,0.4676,0.0473
0.9049,2.6653,0.9147,2.1514,3.8062,2.5764,4.5408,3.3167,4.721,3.7716,2.2368,0.8212,4.6501,4.6855,-0.0195,1.7197,0.3543,0.2274,0.7802,3.4683,4.4528,2.4709,2.5289,5.897,3.2741,2.5389,3.9874,1.2762,0.3359,-0.1635
1.262,3.1651,1.0484,2.6277,4.2957,2.8278,4.661,3.114,4.3527,3.5948,2.0253,0.8582,5.1526,5.4106,0.4408,2.3673,0.8918,0.6149,1.3926,4.3117,5.3175,3.1065,3.0194,6.2568,3.3071,2.4311,4.1507,1.3564,0.2335,-0.4075
1.5771,3.6378,1.1854,3.1031,4.7946,3.0881,4.814,2.9447,4.0289,3.467,1.8678,0.9546,5.6571,6.1187,0.8658,2.9753,1.3873,0.9789,1.9857,5.1264,6.1487,3.7376,3.5111,6.6273,3.3496,2.3675,4.3457,1.4715,0.1807,-0.6772
1.8352,4.0647,1.3248,3.5626,5.2857,3.3485,4.9956,2.822,3.7709,3.4008,1.7808,1.1158,6.1489,6.7847,1.2286,3.5155,1.8197,1.2909,2.5299,5.8774,6.917,4.3397,3.9786,6.9989,3.4069,2.3636,4.5587,1.6254,0.1889,-0.9642
2.029,4.4346,1.4636,3.9969,5.7584,3.6041,5.2045,2.7575,3.5947,3.4072,1.7735,1.3357,6.622,7.3948,1.5112,3.9726,2.1783,1.532,3.0058,6.5425,7.6065,4.8974,4.4032,7.3667,3.4831,2.4265,4.7752,1.814,0.2575,-1.2595
2.1604,4.746,1.598,4.4041,6.2099,3.8547,5.4414,2.7571,3.5043,3.4889,1.8402,1.5932,7.078,7.9486,1.7085,4.3459,2.4648,1.6956,3.4077,7.1149,8.2168,5.4061,4.777,7.7301,3.5795,2.5508,4.9805,2.0212,0.3729,-1.5553
2.2396,5.0072,1.7244,4.7885,6.6443,4.1044,5.7058,2.8183,3.4883,3.6357,1.9575,1.8521,7.5239,8.4573,1.8283,4.6487,2.6913,1.7891,3.7427,7.603,8.7615,5.8712,5.1019,8.09,3.6936,2.717,5.1604,2.2182,0.5109,-1.8458
2.2825,5.2341,1.8405,5.1594,7.0704,4.3591,5.9939,2.9292,3.5202,3.8228,2.0867,2.067,7.9679,8.9394,1.8885,4.9035,2.877,1.8315,4.0277,8.0268,9.2633,6.3046,5.3877,8.4467,3.8184,2.8937,5.3027,2.3677,0.6413,-2.1281
2.3073,5.4459,1.9464,5.5269,7.4972,4.625,6.2978,3.07,3.5631,4.0148,2.1817,2.1924,8.4162,9.415,1.9116,5.1362,3.0429,1.8485,4.2831,8.4104,9.7469,6.7195,5.6481,8.7968,3.9432,3.043,5.399,2.432,0.7343,-2.4017
2.3313,5.6607,2.0447,5.8988,7.9298,4.9051,6.605,3.2162,3.5778,4.1722,2.1998,2.1935,8.8695,9.8996,1.9195,5.3688,3.2065,1.8663,4.5272,8.7758,10.2321,7.1265,5.8969,9.1329,4.0557,3.1282,5.4454,2.3815,0.7666,-2.6663
2.3672,5.8905,2.1398,6.2771,8.3665,5.1977,6.9002,3.3436,3.5317,4.2599,2.112,2.0549,9.322,10.3994,1.929,5.6148,3.3793,1.9062,4.7728,9.1368,10.7288,7.5303,6.145,9.4437,4.1445,3.1214,5.4426,2.2028,0.7256,-2.9216
2.4215,6.1396,2.2366,6.6573,8.7975,5.4959,7.1671,3.4328,3.4059,4.255,1.9095,1.7846,9.7607,10.9098,1.9503,5.8775,3.5668,1.9822,5.0266,9.4974,11.235,7.9306,6.3999,9.7156,4.2016,3.0096,5.3946,1.902,0.6122,-3.1667
2.4951,6.4043,2.3387,7.0294,9.2078,5.7884,7.391,3.4728,3.1992,4.1508,1.6063,1.4125,10.168,11.4163,1.9882,6.152,3.7709,2.1013,5.2916,9.854,11.7396,8.3239,6.6657,9.9352,4.2244,2.7973,5.306,1.5045,0.44,-3.4018
2.5849,6.6753,2.4467,7.3805,9.5802,6.0623,7.5615,3.4633,2.9276,3.9581,1.2351,0.9838,10.5234,11.8985,2.0442,6.4295,3.9929,2.2663,5.5701,10.1993,12.2267,8.7065,6.9436,10.0914,4.2156,2.5057,5.1801,1.0502,0.2322,-3.6288
2.6848,6.9405,2.5566,7.6976,9.8999,6.3053,7.6734,3.4137,2.6207,3.7016,0.84,0.5502,10.8075,12.3336,2.1183,6.7005,4.2351,2.477,5.8644,10.5258,12.6803,9.0758,7.2325,10.1772,4.1829,2.1677,5.0171,0.5859,0.0161,-3.8514
2.7872,7.1858,2.6595,7.9689,10.1564,6.5071,7.7273,3.3407,2.3146,3.414,0.4677,0.1598,11.0038,12.7007,2.2093,6.9571,4.4992,2.7299,6.1755,10.8278,13.0866,9.4296,7.528,10.1903,4.1371,1.8225,4.8157,0.1569,-0.1835,-4.0736
2.8828,7.3962,2.7422,8.1837,10.3439,6.6598,7.7275,3.2635,2.0445,3.1292,0.1577,-0.1502,11.1006,12.9823,2.313,7.1918,4.7827,3.0163,6.4998,11.0988,13.434,9.7638,7.8216,10.133,4.0892,1.5082,4.5749,-0.1994,-0.3491,-4.2979
2.9595,7.5552,2.7899,8.3317,10.4594,6.7578,7.68,3.1989,1.8381,2.876,-0.0633,-0.3577,11.0924,13.1654,2.4202,7.3951,5.0756,3.3196,6.8255,11.3299,13.7119,10.0697,8.0998,10.012,4.0494,1.2574,4.2984,-0.4579,-0.4737,-4.523
3.003,7.6456,2.7885,8.4034,10.5013,6.7965,7.5906,3.1577,1.7117,2.6744,-0.1837,-0.4564,10.9803,13.2428,2.5156,7.5543,5.3577,3.6152,7.1322,11.5072,13.9088,10.3332,8.3454,9.8378,4.0255,1.0932,3.998,-0.6069,-0.5607,-4.7429
2.9979,7.6513,2.7272,8.3917,10.4693,6.7735,7.4647,3.1433,1.6692,2.5346,-0.2061,-0.4527,10.773,13.2135,2.5796,7.6537,5.6008,3.8735,7.3934,11.6141,14.0135,10.5369,8.5406,9.625,4.0224,1.0278,3.6952,-0.6464,-0.6215,-4.9487
2.9315,7.5619,2.6009,8.2948,10.3656,6.6892,7.3079,3.1531,1.7043,2.459,-0.1416,-0.3611,10.487,13.0847,2.5927,7.6791,5.7743,4.0651,7.5829,11.6358,14.0186,10.6648,8.6709,9.3922,4.0424,1.0632,3.4212,-0.5853,-0.6716,-5.1307
2.7974,7.3763,2.4125,8.1194,10.1975,6.5489,7.1279,3.1806,1.8041,2.445,-0.0053,-0.1981,10.1466,12.8732,2.5407,7.6231,5.8537,4.1675,7.6823,11.5662,13.9249,10.7078,8.7294,9.1618,4.0857,1.1929,3.2129,-0.4366,-0.7264,-5.2824
2.5992,7.1072,2.173,7.883,9.9798,6.3641,6.936,3.2185,1.9527,2.4878,0.1892,0.0222,9.7829,12.6057,2.4209,7.4908,5.8281,4.1708,7.6885,11.4139,13.7467,10.6691,8.7191,8.9583,4.1513,1.404,3.107,-0.2143,-0.7974,-5.4029
2.3526,6.781,1.9016,7.6132,9.7351,6.1522,6.7466,3.2603,2.1335,2.5817,0.4312,0.2895,9.4303,12.3163,2.244,7.3019,5.7061,4.0807,7.6161,11.2052,13.5122,10.5655,8.6533,8.8058,4.2371,1.6794,3.132,0.0684,-0.8909,-5.497
2.0842,6.4358,1.6234,7.3439,9.492,5.9346,6.5762,3.3007,2.3302,2.72,0.7123,0.5971,9.1226,12.0425,2.0339,7.089,5.5156,3.9179,7.4963,10.9811,13.2616,10.426,8.5538,8.7233,4.3394,1.9987,3.3001,0.3997,-1.0069,-5.5742
1.8274,6.1145,1.365,7.1095,9.2803,5.7334,6.4397,3.3359,2.5268,2.8942,1.0241,0.939,8.8875,11.8189,1.8234,6.8922,5.2991,3.714,7.3701,10.79,13.04,10.2853,8.4458,8.7206,4.4531,2.3396,3.6017,0.7674,-1.1393,-5.646
1.6156,5.8574,1.1503,6.9377,9.1248,5.5674,6.3475,3.363,2.7076,3.0928,1.355,1.307,8.742,11.6711,1.6472,6.75,5.1048,3.5043,7.2786,10.6766,12.8882,10.1764,8.3532,8.7947,4.5702,2.6784,4.0036,1.157,-1.2783,-5.7228
1.4754,5.694,0.9966,6.8438,9.0403,5.449,6.3025,3.3791,2.8574,3.3005,1.6893,1.6884,8.6896,11.6109,1.5353,6.6914,4.9759,3.3211,7.2539,10.6724,12.8344,10.1233,8.2938,8.9291,4.6806,2.9912,4.4526,1.5513,-1.4119,-5.8124
1.4213,5.6375,0.9123,6.828,9.0283,5.3824,6.299,3.3817,2.9626,3.4988,2.0071,2.0657,8.7196,11.6346,1.5068,6.7298,4.9421,3.1875,7.3126,10.7876,12.8883,10.1362,8.276,9.0956,4.7725,3.2562,4.883,1.93,-1.5297,-5.9186
1.4533,5.6836,0.897,6.8762,9.0771,5.3638,6.323,3.3677,3.0127,3.6669,2.2862,2.4181,8.8085,11.7242,1.5676,6.8616,5.0143,3.1151,7.4534,11.0109,13.0398,10.2107,8.2987,9.2582,4.8339,3.4552,5.228,2.2716,-1.6249,-6.041
1.5589,5.8127,0.9425,6.965,9.1655,5.3833,6.3542,3.3338,3.0012,3.7837,2.5053,2.7227,8.9242,11.8518,1.7112,7.069,5.1844,3.1051,7.6601,11.3126,13.2621,10.3307,8.3526,9.3799,4.8546,3.5753,5.4312,2.5551,-1.6954,-6.1752
1.7181,5.9966,1.0363,7.0681,9.2682,5.4278,6.369,3.2763,2.9258,3.8294,2.6466,2.9577,9.0309,11.9858,1.922,7.3261,5.4299,3.1533,7.9082,11.6544,13.52,10.4742,8.4245,9.4283,4.8278,3.6099,5.4565,2.7628,-1.7429,-6.3139
1.9089,6.2051,1.1637,7.1636,9.362,5.4846,6.3451,3.1914,2.7887,3.7886,2.6986,3.1044,9.0946,12.0976,2.1801,7.6061,5.7215,3.2544,8.172,11.9985,13.7778,10.6196,8.5008,9.3818,4.7517,3.5589,5.2938,2.8816,-1.7719,-6.448
2.113,6.4127,1.3109,7.2384,9.4308,5.5433,6.2645,3.0762,2.5949,3.6514,2.6568,3.1496,9.089,12.1669,2.4654,7.887,6.0301,3.4044,8.4312,12.3166,14.0079,10.7514,8.5716,9.2328,4.6299,3.428,4.9597,2.9047,-1.7875,-6.5678
2.3182,6.6025,1.4665,7.2901,9.468,5.5971,6.1167,2.9295,2.3516,3.4155,2.5245,3.0868,8.9983,12.1845,2.7605,8.1555,6.333,3.6011,8.6738,12.5936,14.195,10.8623,8.6323,8.9881,4.4705,3.228,4.4934,2.8318,-1.7949,-6.6646
2.5193,6.7672,1.6229,7.3254,9.4759,5.643,5.9004,2.7526,2.0672,3.0868,2.3116,2.9169,8.8192,12.1519,3.0521,8.4059,6.616,3.8422,8.8958,12.8282,14.3366,10.9532,8.6837,8.6668,4.2856,2.9728,3.9484,2.6687,-1.7997,-6.7316
2.7159,6.9077,1.7763,7.3557,9.463,5.6802,5.6232,2.5503,1.7512,2.6794,2.0336,2.6483,8.5598,12.0789,3.3302,8.6384,6.8727,4.1221,9.0986,13.0286,14.4399,11.0302,8.7304,8.2958,4.0885,2.6781,3.3823,2.4267,-1.8074,-6.7641
2.9089,7.0294,1.9254,7.3922,9.44,5.7087,5.3005,2.331,1.4151,2.2142,1.7095,2.2961,8.2365,11.9788,3.5873,8.8545,7.1014,4.4306,9.2845,13.2062,14.5157,11.1,8.7775,7.904,3.8921,2.3598,2.8468,2.1219,-1.824,-6.7612
3.0968,7.138,2.0693,7.4407,9.4149,5.7276,4.952,2.1056,1.0715,1.7165,1.3596,1.8814,7.8704,11.8633,3.8172,9.0525,7.3011,4.751,9.4536,13.3688,14.5725,11.1658,8.8271,7.5167,3.7059,2.0314,2.3786,1.7726,-1.8539,-6.7258
3.2733,7.236,2.2055,7.4988,9.3902,5.7341,4.5984,1.8861,0.7342,1.2134,1.0035,1.4289,7.4821,11.739,4.0135,9.2251,7.4689,5.0628,9.6011,13.516,14.6115,11.2247,8.876,7.1516,3.5346,1.7036,1.9952,1.3978,-1.8988,-6.6654
3.4268,7.3201,2.3281,7.5559,9.361,5.7233,4.2574,1.6835,0.4157,0.7301,0.6572,0.9651,7.0888,11.6052,4.1703,9.3587,7.5992,5.3438,9.7188,13.6369,14.6245,11.2674,8.9153,6.817,3.3783,1.3837,1.6942,1.0154,-1.9566,-6.5908
3.5423,7.3819,2.4286,7.5954,9.3168,5.6892,3.9415,1.5052,0.1258,0.2872,0.3324,0.5158,6.7016,11.4543,4.2826,9.4363,7.6848,5.5751,9.797,13.7124,14.596,11.2812,8.9332,6.5125,3.2331,1.0768,1.4575,0.6404,-2.0212,-6.5145
3.6047,7.4095,2.4965,7.5994,9.2438,5.6262,3.6561,1.3536,-0.1302,-0.1018,0.035,0.1032,6.326,11.275,4.3471,9.4411,7.7194,5.7438,9.8277,13.7194,14.507,11.2532,8.9194,6.2323,3.0936,0.7863,1.2592,0.2843,-2.0839,-6.4477
3.6031,7.3907,2.5226,7.5529,9.1292,5.5311,3.4006,1.2265,-0.352,-0.4311,-0.2338,-0.2558,5.9621,11.0553,4.3631,9.3605,7.6998,5.8443,9.8071,13.6368,14.3405,11.1748,8.8687,5.9677,2.9553,0.5159,1.0728,-0.0451,-2.1349,-6.3971
3.5329,7.3157,2.5012,7.4471,8.9641,5.4035,3.1688,1.1168,-0.5443,-0.7033,-0.4767,-0.5513,5.6068,10.7854,4.3322,9.1893,7.6262,5.8775,9.7352,13.4498,14.0853,11.0421,8.7823,5.7107,2.8157,0.2694,0.8781,-0.3432,-2.1656,-6.3628
3.3976,7.1787,2.4324,7.2809,8.7452,5.2463,2.951,1.0153,-0.7147,-0.9283,-0.6982,-0.781,5.2553,10.4597,4.257,8.9302,7.5011,5.8486,9.6136,13.1531,13.7386,10.8559,8.6652,5.4547,2.6753,0.0505,0.664,-0.609,-2.1697,-6.337
3.2073,6.9796,2.3233,7.0599,8.4755,5.0641,2.7357,0.9121,-0.8723,-1.1209,-0.9035,-0.95,4.9019,10.0773,4.1403,8.5923,7.327,5.7658,9.4427,12.7511,13.3059,10.6188,8.5223,5.1949,2.5363,-0.1382,0.4282,-0.844,-2.1447,-6.305
2.9776,6.7233,2.1869,6.7951,8.1634,4.8628,2.5116,0.7991,-1.0252,-1.2981,-1.0961,-1.0685,4.5422,9.642,3.9846,8.1899,7.1059,5.6386,9.2202,12.2567,12.8001,10.3335,8.3548,4.9281,2.4023,-0.2952,0.1744,-1.052,-2.0921,-6.2473
2.7266,6.4201,2.0408,6.5003,7.8214,4.6488,2.27,0.6712,-1.1789,-1.4752,-1.2772,-1.1491,4.1742,9.1629,3.7938,7.7406,6.8396,5.4778,8.9432,11.6896,12.2395,10.0033,8.1599,4.653,2.2763,-0.4211,-0.0905,-1.2375,-2.0166,-6.1442
2.4734,6.0856,1.9035,6.1914,7.4652,4.4292,2.0076,0.528,-1.3346,-1.6627,-1.4454,-1.204,3.8001,8.6547,3.5753,7.2646,6.5321,5.2952,8.6115,11.075,11.6474,9.6334,7.9345,4.3704,2.1604,-0.5183,-0.3593,-1.4046,-1.9254,-5.9814
2.2357,5.7388,1.7912,5.8845,7.1125,4.2118,1.7278,0.3729,-1.4901,-1.8643,-1.5976,-1.2427,3.4277,8.1375,3.3411,6.7844,6.1927,5.1028,8.233,10.4416,11.0499,9.2341,7.6793,4.0848,2.0549,-0.5908,-0.6253,-1.556,-1.8258,-5.7553
2.0275,5.4011,1.7145,5.5948,6.7806,4.0049,1.4407,0.2122,-1.6405,-2.0768,-1.7303,-1.272,3.0702,7.6366,3.1072,6.323,5.8362,4.9117,7.8245,9.8202,10.4748,8.8217,7.4023,3.8036,1.9586,-0.6444,-0.883,-1.6926,-1.7237,-5.4758
1.8578,5.0923,1.6769,5.3354,6.4848,3.817,1.1609,0.0531,-1.7814,-2.2925,-1.8424,-1.2962,2.7445,7.1787,2.8905,5.9023,5.4811,4.7309,7.4112,9.24,9.9488,8.4171,7.1189,3.5361,1.8687,-0.6858,-1.1278,-1.8137,-1.6231,-5.1654
1.7294,4.8283,1.6746,5.1151,6.2356,3.6551,0.9038,-0.0986,-1.9103,-2.5019,-1.9359,-1.3184,2.4677,6.7888,2.7044,5.5394,5.1464,4.567,7.0215,8.7258,9.4943,8.0429,6.8487,3.292,1.7819,-0.7217,-1.3554,-1.9176,-1.5269,-4.8544
1.6393,4.6183,1.6987,4.9381,6.0378,3.5238,0.682,-0.2399,-2.0286,-2.6967,-2.0168,-1.3414,2.2528,6.4852,2.556,5.2446,4.8474,4.425,6.6809,8.2942,9.1263,7.7185,6.6109,3.0791,1.6948,-0.7581,-1.562,-2.0022,-1.4381,-4.5729
1.5806,4.4644,1.738,4.8039,5.89,3.4246,0.5025,-0.37,-2.1399,-2.8721,-2.0929,-1.3679,2.1059,6.2762,2.4445,5.0197,4.5929,4.3082,6.4069,7.9521,8.8507,7.4567,6.42,2.9014,1.6053,-0.7984,-1.7437,-2.0667,-1.3615,-4.3438
1.5443,4.3621,1.7829,4.7084,5.7856,3.3563,0.3654,-0.489,-2.248,-3.0263,-2.1711,-1.3989,2.0238,6.1589,2.363,4.8587,4.3849,4.2188,6.206,7.6969,8.6633,7.2613,6.2828,2.7591,1.5135,-0.8427,-1.8973,-2.111,-1.303,-4.177
1.5223,4.3024,1.8269,4.6454,5.7149,3.315,0.2654,-0.5958,-2.3533,-3.1593,-2.2542,-1.4332,1.9946,6.1189,2.3009,4.7494,4.2197,4.1575,6.073,7.5177,8.5512,7.1271,6.1977,2.6484,1.4216,-0.8876,-2.021,-2.1367,-1.2694,-4.0683
1.5077,4.2732,1.8675,4.6066,5.6665,3.2948,0.1938,-0.6868,-2.4512,-3.2718,-2.3396,-1.466,1.9993,6.1334,2.2478,4.6758,4.0902,4.1224,5.9937,7.3976,8.4947,7.041,6.1551,2.5627,1.3344,-0.9263,-2.1151,-2.146,-1.2666,-4.0019
1.4952,4.2602,1.9043,4.5823,5.6291,3.2878,0.1407,-0.7562,-2.5321,-3.3637,-2.4188,-1.4905,2.0151,6.1747,2.1949,4.6201,3.988,4.1084,5.9477,7.3154,8.4696,6.9845,6.1387,2.493,1.2578,-0.9506,-2.1835,-2.1423,-1.2975,-3.9553
1.4797,4.2478,1.9365,4.5604,5.5916,3.2842,0.0966,-0.7976,-2.5839,-3.4347,-2.4804,-1.4994,2.0179,6.2132,2.1354,4.5644,3.9036,4.107,5.9114,7.2479,8.4498,6.9354,6.1279,2.4286,1.1974,-0.9525,-2.2343,-2.1294,-1.3611,-3.9053
1.4551,4.219,1.9603,4.5259,5.5428,3.2726,0.0533,-0.8068,-2.5957,-3.4848,-2.5136,-1.4876,1.9856,6.2216,2.0636,4.4914,3.8263,4.1081,5.8613,7.1709,8.41,6.8712,6.1003,2.3574,1.1566,-0.9275,-2.2796,-2.1121,-1.4511,-3.834
1.4133,4.1569,1.9682,4.4626,5.4719,3.2408,0.0039,-0.7842,-2.5619,-3.5162,-2.5117,-1.4542,1.9005,6.1775,1.9732,4.3848,3.7434,4.1023,5.7764,7.0614,8.3278,6.7712,6.0357,2.2667,1.1355,-0.876,-2.3352,-2.0963,-1.5565,-3.7312
1.3456,4.0463,1.9506,4.3543,5.3691,3.178,-0.0575,-0.7353,-2.4843,-3.5332,-2.4747,-1.4044,1.7511,6.0656,1.8572,4.2316,3.641,4.082,5.6408,6.9002,8.1865,6.6201,5.9196,2.1446,1.1304,-0.8038,-2.418,-2.0887,-1.6626,-3.5958
1.244,3.8773,1.8989,4.1889,5.2276,3.0768,-0.1353,-0.6703,-2.3722,-3.5424,-2.4103,-1.3487,1.5333,5.8795,1.709,4.0234,3.5053,4.0431,5.4456,6.6747,7.9771,6.41,5.7463,1.9819,1.135,-0.7213,-2.5434,-2.0964,-1.7547,-3.4336
1.1046,3.648,1.8098,3.9612,5.0451,2.9358,-0.2324,-0.6013,-2.2406,-3.5515,-2.3318,-1.3011,1.2511,5.6222,1.5244,3.7589,3.3259,3.9847,5.1899,6.3814,7.6999,6.1416,5.5197,1.7742,1.1413,-0.6413,-2.7206,-2.1255,-1.8208,-3.2555
0.9294,3.3663,1.6869,3.6759,4.8257,2.7609,-0.3493,-0.5396,-2.1073,-3.5678,-2.2556,-1.2759,0.9167,5.3058,1.3048,3.4455,3.0995,3.9089,4.8822,6.028,7.3649,5.8252,5.2531,1.5244,1.1425,-0.5754,-2.95,-2.1797,-1.8543,-3.0742
0.7274,3.0504,1.5417,3.3486,4.5802,2.5647,-0.4836,-0.493,-1.9889,-3.5965,-2.1973,-1.2841,0.5499,4.9508,1.059,3.1,2.833,3.8207,4.5401,5.6331,6.9914,5.4796,4.967,1.2437,1.134,-0.5312,-3.221,-2.2578,-1.8555,-2.9021
0.5139,2.7261,1.3913,3.0035,4.3253,2.3649,-0.6288,-0.4644,-1.8977,-3.6391,-2.1678,-1.3298,0.1767,4.5839,0.804,2.7472,2.5446,3.727,4.189,5.2245,6.606,5.1305,4.6868,0.9515,1.115,-0.5098,-3.5125,-2.3529,-1.8306,-2.7504
0.3076,2.4226,1.2547,2.6703,4.0812,2.1812,-0.7752,-0.452,-1.8404,-3.693,-2.1717,-1.408,-0.1734,4.235,0.5625,2.4161,2.2615,3.6352,3.8595,4.8351,6.2388,4.807,4.439,0.6735,1.0878,-0.5057,-3.7964,-2.4524,-1.7902,-2.6279
0.1269,2.1672,1.149,2.3778,3.868,2.0315,-0.9109,-0.4501,-1.8174,-3.7522,-2.2062,-1.5055,-0.4709,3.9334,0.3579,2.1353,2.0149,3.5509,3.5822,4.4978,5.9198,4.5371,4.2474,0.4369,1.0572,-0.5086,-4.0417,-2.5398,-1.7459,-2.5411
-0.0145,1.9791,1.0852,2.1487,3.7024,1.9283,-1.0241,-0.4514,-1.824,-3.8083,-2.2629,-1.6022,-0.6907,3.7031,0.2089,1.9265,1.8326,3.4757,3.3821,4.2391,5.673,4.3426,4.1292,0.266,1.0281,-0.5061,-4.221,-2.5983,-1.7077,-2.4937
-0.1102,1.8658,1.0655,1.9948,3.5938,1.8764,-1.1051,-0.4494,-1.8528,-3.8529,-2.33,-1.6752,-0.8162,3.5591,0.1245,1.8003,1.7323,3.4061,3.273,4.0745,5.513,4.2346,4.091,0.1766,1.0048,-0.4879,-4.314,-2.6137,-1.6815,-2.4861
-0.1623,1.8215,1.0823,1.9153,3.543,1.8727,-1.1485,-0.4395,-1.8952,-3.8787,-2.3948,-1.7029,-0.8422,3.5049,0.1016,1.7532,1.7175,3.3355,3.2546,4.0053,5.4424,4.2104,4.1277,0.173,0.9895,-0.4483,-4.3115,-2.5776,-1.6686,-2.5151
-0.1804,1.8293,1.1192,1.8974,3.5419,1.9066,-1.1542,-0.4201,-1.9427,-3.8808,-2.446,-1.6697,-0.7752,3.532,0.1262,1.7694,1.7761,3.2563,3.3119,4.019,5.4518,4.2542,4.222,0.2469,0.9825,-0.3875,-4.2161,-2.4891,-1.6665,-2.5741
-0.1786,1.8644,1.154,1.92,3.5756,1.9625,-1.1267,-0.3923,-1.9879,-3.8571,-2.4752,-1.5692,-0.6328,3.6216,0.1764,1.8239,1.8832,3.1643,3.4183,4.0922,5.5219,4.3395,4.3477,0.3784,0.982,-0.3119,-4.0424,-2.3544,-1.6706,-2.6525
-0.1717,1.901,1.1639,1.9587,3.6253,2.0233,-1.0748,-0.3597,-2.025,-3.8089,-2.4777,-1.4067,-0.441,3.748,0.228,1.889,2.0071,3.06,3.5406,4.196,5.6283,4.4342,4.4747,0.5398,0.9852,-0.232,-3.8152,-2.1862,-1.6768,-2.7374
-0.1714,1.9171,1.1304,1.9905,3.6717,2.0733,-1.0097,-0.3264,-2.0495,-3.7403,-2.453,-1.199,-0.2305,3.8829,0.2603,1.9406,2.1155,2.95,3.646,4.3023,5.7456,4.5078,4.5745,0.7002,0.9885,-0.1602,-3.5672,-2.0019,-1.6829,-2.8143
-0.1836,1.8997,1.0449,1.9988,3.6993,2.1009,-0.9433,-0.2967,-2.0588,-3.6582,-2.4049,-0.9723,-0.0324,4.0006,0.2609,1.9638,2.184,2.8459,3.7089,4.3897,5.8528,4.5366,4.6257,0.8305,0.9883,-0.1088,-3.3359,-1.8216,-1.6885,-2.8704
-0.2074,1.8467,0.9113,1.9765,3.698,2.1007,-0.8873,-0.2734,-2.0523,-3.5723,-2.3416,-0.7579,0.1252,4.0819,0.2282,1.956,2.2006,2.7626,3.7154,4.448,5.9363,4.5083,4.6178,0.9072,0.9814,-0.0877,-3.1587,-1.666,-1.6951,-2.8974
-0.2353,1.7668,0.7462,1.9266,3.6657,2.0738,-0.8517,-0.2584,-2.0322,-3.4942,-2.2753,-0.5866,0.2204,4.1164,0.1715,1.9271,2.1689,2.7142,3.6665,4.4795,5.9913,4.4238,4.5515,0.9157,0.965,-0.103,-3.0691,-1.5543,-1.7048,-2.8939
-0.2553,1.6774,0.576,1.8609,3.6073,2.0267,-0.844,-0.2519,-2.003,-3.4368,-2.2202,-0.4836,0.2399,4.1034,0.108,1.8965,2.1063,2.7103,3.5758,4.4971,6.0213,4.2952,4.4375,0.8507,0.9372,-0.1569,-3.092,-1.5019,-1.7189,-2.8653
-0.2537,1.5996,0.431,1.7965,3.5332,1.9701,-0.8685,-0.2534,-1.9717,-3.4127,-2.1909,-0.4642,0.18,4.0498,0.0581,1.8876,2.0393,2.7519,3.466,4.5205,6.0355,4.1426,4.2924,0.7162,0.897,-0.2477,-3.2399,-1.5192,-1.7372,-2.8229
-0.2186,1.5529,0.3387,1.7507,3.4565,1.9153,-0.9268,-0.2617,-1.9465,-3.4324,-2.1995,-0.5318,0.0456,3.9677,0.0402,1.922,1.9954,2.8297,3.3616,4.5696,6.0449,3.9882,4.1353,0.5229,0.8444,-0.3707,-3.5114,-1.6098,-1.7574,-2.7804
-0.1434,1.5508,0.3164,1.7366,3.3892,1.8719,-1.017,-0.2753,-1.9358,-3.5026,-2.2535,-0.679,-0.1506,3.8704,0.0656,2.0131,1.9963,2.9247,3.2827,4.6593,6.0592,3.8515,3.9839,0.2865,0.7806,-0.5187,-3.8908,-1.7697,-1.7755,-2.7511
-0.0289,1.5975,0.367,1.7594,3.3388,1.8452,-1.1352,-0.2929,-1.9468,-3.6254,-2.3543,-0.8899,-0.3906,3.7698,0.1365,2.1629,2.052,3.0127,3.2403,4.7948,6.0837,3.745,3.8516,0.0252,0.7087,-0.6827,-4.3505,-1.9871,-1.7871,-2.7442
0.1163,1.6873,0.4775,1.8166,3.3076,1.8357,-1.2751,-0.3135,-1.9841,-3.7974,-2.4972,-1.1438,-0.6537,3.6747,0.246,2.3609,2.1587,3.0709,3.2349,4.9712,6.1185,3.6731,3.7466,-0.2429,0.6329,-0.8526,-4.8548,-2.2439,-1.7893,-2.7638
0.2778,1.8067,0.623,1.8983,3.2925,1.8396,-1.4292,-0.3366,-2.0489,-4.0107,-2.6724,-1.4189,-0.9189,3.5905,0.3801,2.5873,2.3012,3.0847,3.2585,5.1744,6.16,3.6322,3.6716,-0.5005,0.5588,-1.0176,-5.3647,-2.5179,-1.7816,-2.8079
0.4382,1.9379,0.7725,1.9915,3.287,1.8503,-1.589,-0.3624,-2.1383,-4.2534,-2.867,-1.6953,-1.1664,3.5202,0.522,2.8173,2.4572,3.0521,3.2985,5.3853,6.2025,3.6141,3.6251,-0.733,0.4923,-1.1676,-5.8425,-2.7861,-1.7666,-2.8699
0.5812,2.0633,0.8971,2.0827,3.284,1.861,-1.7458,-0.3915,-2.2458,-4.5111,-3.0669,-1.9563,-1.3795,3.466,0.6555,3.0267,2.6041,2.985,3.342,5.5839,6.241,3.6092,3.6032,-0.9284,0.4385,-1.2946,-6.2559,-3.0281,-1.7481,-2.9397
0.6952,2.1685,0.9766,2.1611,3.2784,1.8662,-1.8909,-0.4245,-2.3621,-4.7676,-3.2588,-2.1892,-1.5454,3.4303,0.7685,3.1975,2.7239,2.9057,3.3801,5.7539,6.2733,3.6098,3.6014,-1.0781,0.4012,-1.3933,-6.5811,-3.2284,-1.7302,-3.0065
0.7748,2.2452,1.0034,2.2208,3.2682,1.8631,-2.0163,-0.4616,-2.4759,-5.0059,-3.4306,-2.3844,-1.6561,3.4156,0.8544,3.3206,2.8074,2.8412,3.4095,5.8851,6.3003,3.6119,3.6161,-1.177,0.3811,-1.4627,-6.8041,-3.3781,-1.7159,-3.0614
0.8213,2.2915,0.9819,2.2605,3.255,1.8518,-2.1155,-0.5019,-2.5761,-5.2094,-3.5723,-2.5356,-1.7082,3.4247,0.9123,3.3969,2.8548,2.8154,3.4328,5.9745,6.3256,3.6157,3.6445,-1.224,0.3765,-1.5059,-6.9218,-3.4753,-1.7071,-3.0986
0.8412,2.3105,0.9253,2.2832,3.2423,1.8339,-2.1832,-0.5431,-2.6528,-5.3628,-3.676,-2.6388,-1.7039,3.4585,0.9458,3.435,2.8737,2.8429,3.4559,6.0255,6.3539,3.6237,3.6839,-1.2218,0.3824,-1.5302,-6.9412,-3.5238,-1.7059,-3.1169
0.843,2.3077,0.8504,2.2936,3.234,1.8117,-2.2168,-0.5815,-2.6992,-5.4546,-3.7363,-2.6938,-1.6497,3.5157,0.9604,3.4478,2.8755,2.9244,3.4851,6.0451,6.3887,3.6386,3.7307,-1.1776,0.3912,-1.5455,-6.8776,-3.5324,-1.7147,-3.1184
0.8344,2.288,0.7721,2.2957,3.2319,1.7869,-2.2162,-0.6133,-2.7126,-5.4787,-3.7511,-2.7048,-1.5562,3.5913,0.9616,3.4478,2.871,3.046,3.5233,6.0412,6.4301,3.6601,3.7788,-1.1014,0.3944,-1.5626,-6.7522,-3.5128,-1.7367,-3.1077
0.8197,2.2537,0.7003,2.2909,3.2348,1.7594,-2.1844,-0.636,-2.6957,-5.4363,-3.7224,-2.6805,-1.4358,3.6771,0.9522,3.4434,2.8671,3.1825,3.568,6.0198,6.4741,3.684,3.8198,-1.0049,0.3844,-1.59,-6.5886,-3.4772,-1.774,-3.0898
0.7983,2.2026,0.6373,2.2768,3.2373,1.7274,-2.1275,-0.6499,-2.6564,-5.3365,-3.6576,-2.6343,-1.3013,3.7622,0.9319,3.4362,2.864,3.3028,3.6109,5.9826,6.512,3.7018,3.8441,-0.8997,0.3566,-1.632,-6.4088,-3.4367,-1.826,-3.069
0.7654,2.129,0.5788,2.2468,3.2315,1.687,-2.0542,-0.6586,-2.607,-5.1955,-3.5687,-2.5814,-1.1631,3.8351,0.8975,3.4208,2.856,3.3789,3.6395,5.9271,6.5321,3.7022,3.8429,-0.7949,0.3113,-1.6863,-6.2307,-3.3993,-1.8879,-3.048
0.7132,2.0252,0.5166,2.1921,3.2077,1.6335,-1.9745,-0.6682,-2.5616,-5.0342,-3.4712,-2.5356,-1.0281,3.8858,0.8446,3.3868,2.833,3.3931,3.6396,5.8469,6.5223,3.674,3.8098,-0.6962,0.2546,-1.7441,-6.065,-3.3685,-1.951,-3.027
0.6345,1.8851,0.4419,2.1039,3.1578,1.5629,-1.898,-0.6853,-2.5331,-4.874,-3.3811,-2.505,-0.8986,3.9079,0.7699,3.3221,2.7838,3.3429,3.5994,5.7346,6.472,3.6089,3.7429,-0.6053,0.1977,-1.791,-5.9145,-3.3424,-2.0039,-3.0042
0.5246,1.7065,0.3485,1.976,3.076,1.4727,-1.8335,-0.7151,-2.5304,-4.7343,-3.3125,-2.49,-0.7735,3.8987,0.6729,3.2169,2.6994,3.2414,3.5126,5.5839,6.3755,3.5037,3.6451,-0.5203,0.1546,-1.8098,-5.775,-3.3143,-2.0365,-2.9758
0.3843,1.4929,0.2357,1.8067,2.9605,1.3629,-1.7876,-0.7602,-2.5573,-4.6298,-3.2755,-2.4831,-0.6509,3.8598,0.5567,3.0668,2.5757,3.1125,3.3798,5.3917,6.2324,3.361,3.5239,-0.4385,0.1384,-1.7854,-5.638,-3.2747,-2.0437,-2.9357
0.2205,1.2534,0.1083,1.6003,2.8127,1.2361,-1.7662,-0.8207,-2.6134,-4.5708,-3.2755,-2.4727,-0.5313,3.7944,0.427,2.8742,2.4153,2.9834,3.2089,5.1595,6.0474,3.1888,3.3901,-0.3584,0.1579,-1.7091,-5.4959,-3.215,-2.0276,-2.8765
0.0451,1.0011,-0.0241,1.3654,2.6365,1.0967,-1.775,-0.8954,-2.6955,-4.564,-3.3144,-2.4473,-0.4202,3.7065,0.2914,2.6478,2.2265,2.8756,3.0137,4.8932,5.8295,2.9977,3.2555,-0.2829,0.2141,-1.583,-5.3467,-3.1317,-1.9975,-2.7904
-0.1266,0.7505,-0.1497,1.114,2.4369,0.9497,-1.8204,-0.9828,-2.7999,-4.614,-3.3911,-2.4015,-0.3287,3.5987,0.1575,2.4011,2.0222,2.8006,2.8107,4.6026,5.5897,2.7995,3.13,-0.2204,0.2991,-1.422,-5.1979,-3.0293,-1.9671,-2.6707
-0.2789,0.515,-0.2576,0.8594,2.2198,0.8004,-1.9082,-1.0818,-2.9229,-4.7236,-3.5024,-2.3379,-0.272,3.473,0.0315,2.1494,1.8169,2.7582,2.6159,4.3007,5.3397,2.604,3.0198,-0.1841,0.3966,-1.2521,-5.0669,-2.9209,-1.9499,-2.5146
-0.3986,0.3055,-0.3403,0.6142,1.9922,0.654,-2.0428,-1.1913,-3.0609,-4.893,-3.6427,-2.2677,-0.2646,3.3311,-0.0821,1.9077,1.6242,2.7394,2.4416,4.0019,5.0911,2.4181,2.9261,-0.1893,0.485,-1.1063,-4.9784,-2.8261,-1.9543,-2.3252
-0.4774,0.1297,-0.3951,0.3897,1.7626,0.5166,-2.2235,-1.3086,-3.2091,-5.1174,-3.8043,-2.2076,-0.3168,3.1768,-0.1814,1.6887,1.4545,2.7309,2.2949,3.7214,4.8544,2.2456,2.8454,-0.2497,0.5411,-1.0182,-4.9585,-2.7664,-1.9806,-2.1126
-0.5132,-0.0081,-0.4239,0.1953,1.5419,0.3948,-2.4431,-1.4287,-3.3598,-5.3854,-3.9762,-2.1745,-0.4301,3.0164,-0.2663,1.501,1.3135,2.7192,2.1768,3.473,4.6389,2.0877,2.7713,-0.3729,0.5453,-1.0148,-5.0271,-2.7598,-2.0208,-1.8931
-0.51,-0.1071,-0.4323,0.0381,1.3419,0.2964,-2.6864,-1.5436,-3.5024,-5.6777,-4.1444,-2.1803,-0.5962,2.8596,-0.3379,1.3487,1.2024,2.693,2.0837,3.268,4.4526,1.9443,2.6968,-0.5582,0.4853,-1.1106,-5.191,-2.8161,-2.0609,-1.6867
-0.4773,-0.1692,-0.4277,-0.0775,1.1747,0.2283,-2.9319,-1.6433,-3.6241,-5.9689,-4.2939,-2.2287,-0.7976,2.7171,-0.3981,1.2312,1.118,2.6451,2.0087,3.1133,4.3007,1.8147,2.6169,-0.795,0.3593,-1.3033,-5.4404,-2.9335,-2.086,-1.5128
-0.4279,-0.1992,-0.4172,-0.1501,1.0499,0.1954,-3.1547,-1.7176,-3.7127,-6.2309,-4.4106,-2.3136,-1.012,2.5987,-0.4486,1.1441,1.0544,2.5717,1.9437,3.0101,4.185,1.6983,2.5297,-1.0638,0.1776,-1.5733,-5.748,-3.0988,-2.0855,-1.3859
-0.3753,-0.2033,-0.406,-0.1815,0.9733,0.1991,-3.3317,-1.7581,-3.759,-6.4378,-4.4841,-2.4208,-1.2163,2.5103,-0.4901,1.081,1.0042,2.4735,1.8816,2.9541,4.1033,1.5949,2.4368,-1.3396,-0.0392,-1.8859,-6.0734,-3.2887,-2.0569,-1.3126
-0.3304,-0.1878,-0.3959,-0.1761,0.9455,0.237,-3.4456,-1.7605,-3.759,-6.571,-4.5098,-2.531,-1.3922,2.4526,-0.5216,1.0361,0.9611,2.3567,1.8182,2.9372,4.0501,1.5051,2.3425,-1.5956,-0.2625,-2.1977,-6.3704,-3.4749,-2.0057,-1.2903
-0.2992,-0.1579,-0.3848,-0.1402,0.9624,0.3031,-3.4886,-1.7257,-3.7153,-6.6226,-4.4895,-2.6247,-1.5288,2.4207,-0.5401,1.0056,0.9214,2.2341,1.7526,2.9494,4.0175,1.4297,2.2523,-1.8077,-0.4618,-2.4636,-6.5952,-3.629,-1.9436,-1.309
-0.2821,-0.1161,-0.3676,-0.0809,1.0162,0.3894,-3.463,-1.6595,-3.6358,-6.5964,-4.4306,-2.6858,-1.6237,2.4057,-0.5414,0.9898,0.8849,2.1258,1.6879,2.9813,3.9977,1.3704,2.1715,-1.9579,-0.6096,-2.6458,-6.7155,-3.728,-1.8835,-1.3543
-0.2739,-0.0627,-0.338,-0.0055,1.0968,0.4876,-3.3803,-1.5719,-3.5326,-6.5067,-4.3447,-2.7052,-1.6816,2.3977,-0.522,0.9919,0.8544,2.0556,1.6297,3.0257,3.9839,1.3288,2.1036,-2.0371,-0.6869,-2.7206,-6.7156,-3.7587,-1.835,-1.4115
-0.2668,0.0027,-0.2905,0.0793,1.1935,0.5898,-3.2578,-1.4751,-3.419,-6.3744,-4.2455,-2.6818,-1.711,2.3878,-0.4815,1.0163,0.8341,2.0455,1.5845,3.0778,3.9721,1.3063,2.0506,-2.0456,-0.6868,-2.6826,-6.5994,-3.72,-1.8019,-1.4678
-0.253,0.0797,-0.2227,0.1664,1.296,0.6897,-3.1146,-1.3811,-3.3077,-6.2225,-4.1461,-2.6229,-1.721,2.3705,-0.4244,1.0652,0.8265,2.1077,1.5571,3.1334,3.9601,1.3033,2.0126,-1.9921,-0.616,-2.5455,-6.3891,-3.6222,-1.7813,-1.5137
-0.2284,0.1644,-0.1364,0.2484,1.3946,0.782,-2.9679,-1.2998,-3.2083,-6.0713,-4.0571,-2.5414,-1.7188,2.3442,-0.3613,1.1351,0.8306,2.2388,1.5486,3.187,3.9469,1.3182,1.9884,-1.8917,-0.4936,-2.339,-6.1201,-3.4842,-1.7664,-1.542
-0.1948,0.2483,-0.0387,0.3167,1.4797,0.8616,-2.8305,-1.2369,-3.1262,-5.9351,-3.9844,-2.4527,-1.7084,2.31,-0.3074,1.2145,0.8397,2.4175,1.5551,3.2294,3.9304,1.3468,1.9761,-1.7638,-0.3469,-2.1026,-5.8335,-3.3288,-1.7496,-1.5465
-0.1605,0.3175,0.0593,0.3608,1.5421,0.9226,-2.7101,-1.1934,-3.0618,-5.8208,-3.9282,-2.371,-1.6911,2.27,-0.2804,1.2842,0.8417,2.6076,1.5672,3.247,3.9058,1.3813,1.9729,-1.6283,-0.2069,-1.8778,-5.5684,-3.1778,-1.7255,-1.5208
-0.1394,0.3546,0.1431,0.3694,1.5721,0.9582,-2.6096,-1.1662,-3.0113,-5.7279,-3.8832,-2.3057,-1.6667,2.2249,-0.2968,1.3198,0.8211,2.7657,1.5707,3.2233,3.8649,1.4109,1.9746,-1.5037,-0.1013,-1.6997,-5.3543,-3.0469,-1.6924,-1.4593
-0.1474,0.3413,0.1976,0.3316,1.5613,0.9612,-2.5284,-1.149,-2.9679,-5.6502,-3.8395,-2.259,-1.6346,2.1736,-0.3683,1.2975,0.7623,2.8507,1.5496,3.1425,3.7976,1.4226,1.9751,-1.4042,-0.0496,-1.5903,-5.2056,-2.9436,-1.6517,-1.3587
-0.1987,0.2636,0.2083,0.2399,1.5044,0.9256,-2.4635,-1.1348,-2.924,-5.578,-3.7847,-2.2251,-1.5943,2.1137,-0.4991,1.2005,0.6544,2.8334,1.4903,2.9959,3.6951,1.4048,1.9668,-1.3374,-0.059,-1.5538,-5.1186,-2.8656,-1.607,-1.2223
-0.3009,0.1159,0.1643,0.0928,1.4018,0.8494,-2.41,-1.117,-2.8728,-5.4998,-3.706,-2.191,-1.545,2.0436,-0.684,1.0252,0.4952,2.7039,1.3848,2.7863,3.5545,1.3494,1.9414,-1.3024,-0.1222,-1.5762,-5.0727,-2.8017,-1.5623,-1.0617
-0.4538,-0.0964,0.0592,-0.1043,1.2611,0.736,-2.3613,-1.0912,-2.8094,-5.404,-3.5923,-2.138,-1.4848,1.9651,-0.9095,0.7831,0.2928,2.4728,1.2338,2.5309,3.3814,1.2549,1.891,-1.2904,-0.2197,-1.6282,-5.0336,-2.7343,-1.5216,-0.8981
-0.6488,-0.3578,-0.1086,-0.3394,1.097,0.5947,-2.3097,-1.0554,-2.7312,-5.2801,-3.4355,-2.0456,-1.4106,1.8843,-1.1571,0.4992,0.0642,2.1685,1.046,2.2589,3.1911,1.1261,1.8086,-1.2856,-0.3235,-1.6714,-4.9609,-2.643,-1.4878,-0.7598
-0.8724,-0.6467,-0.3362,-0.5971,0.9279,0.4389,-2.2472,-1.0099,-2.6379,-5.1205,-3.2319,-1.8947,-1.3182,1.8111,-1.4079,0.2061,-0.1692,1.8296,0.8354,2.0061,3.0049,0.9733,1.6891,-1.2697,-0.4039,-1.6667,-4.8157,-2.5082,-1.4624,-0.6767
-1.1096,-0.941,-0.6178,-0.8622,0.7717,0.2822,-2.1676,-0.9571,-2.5308,-4.9208,-2.9815,-1.6712,-1.2033,1.756,-1.6469,-0.0644,-0.387,1.4954,0.6177,1.8052,2.8451,0.8091,1.5299,-1.2252,-0.4356,-1.5825,-4.5692,-2.3153,-1.4456,-0.6739
-1.3482,-1.2234,-0.9454,-1.1236,0.641,0.1355,-2.0671,-0.8997,-2.4122,-4.6808,-2.6886,-1.3695,-1.0633,1.7272,-1.8659,-0.2891,-0.5753,1.1969,0.4058,1.6783,2.7282,0.6451,1.3323,-1.1405,-0.4038,-1.4015,-4.2082,-2.0573,-1.4362,-0.7647
-1.5802,-1.4852,-1.3093,-1.3753,0.5405,0.0044,-1.9456,-0.8405,-2.2851,-4.4052,-2.3605,-0.9947,-0.8987,1.7271,-2.064,-0.4588,-0.7295,0.9501,0.2073,1.6302,2.6602,0.4893,1.1015,-1.012,-0.3069,-1.1242,-3.7379,-1.737,-1.432,-0.946
-1.8031,-1.7259,-1.6974,-1.6169,0.4665,-0.1114,-1.8069,-0.7815,-2.1523,-4.1028,-2.0076,-0.5631,-0.7141,1.7514,-2.2458,-0.5796,-0.854,0.754,0.0235,1.6479,2.6344,0.3443,0.8466,-0.8459,-0.1561,-0.7688,-3.1818,-1.3671,-1.4302,-1.1987
-2.0178,-1.9513,-2.0954,-1.851,0.409,-0.2166,-1.6579,-0.7236,-2.0173,-3.7863,-1.6429,-0.1002,-0.5182,1.7896,-2.418,-0.669,-0.96,0.5938,-0.1491,1.7045,2.6341,0.2083,0.5798,-0.656,0.027,-0.3673,-2.5765,-0.9688,-1.4286,-1.4904
