FP1,F3,F7,FC3,C3,C5,P3,P7,PO7,PO3,O1,Oz,Pz,CPz,FP2,Fz,F4,F8,FC4,FCz,Cz,C4,C6,P4,P8,PO8,PO4,O2,(corr) HEOG,(corr) VEOG
0.2914,0.6077,0.4736,0.3284,-0.1994,-0.143,-0.5926,-0.145,0.2459,-0.023,-0.1141,-0.1936,-0.4822,-0.3126,0.3527,0.4702,0.3129,0.1517,-0.0269,0.3069,0.0182,-0.796,-0.9138,-1.1604,-0.9944,-1.0838,-0.9651,-0.7391,0.3881,-0.3945
0.4484,0.725,0.6368,0.4934,0.0076,-0.0253,-0.5462,-0.0503,0.2428,-0.0056,-0.1675,-0.2721,-0.4774,-0.2473,0.5252,0.6551,0.4905,0.333,0.1732,0.4763,0.1368,-0.6063,-0.7454,-1.078,-0.9351,-1.0724,-0.9656,-0.7492,0.2657,-0.4053
0.5832,0.8379,0.8322,0.6657,0.2332,0.14,-0.4815,0.0485,0.2065,0.0135,-0.2312,-0.3422,-0.419,-0.146,0.6877,0.7996,0.6446,0.514,0.3532,0.5878,0.2442,-0.38,-0.536,-0.9207,-0.8284,-1.0181,-0.9075,-0.7305,0.2086,-0.418
0.6784,0.9272,1.0438,0.8212,0.4475,0.3329,-0.4144,0.1337,0.132,0.0248,-0.3096,-0.4018,-0.3168,-0.0207,0.8172,0.8823,0.7558,0.6753,0.4897,0.6247,0.326,-0.1488,-0.3107,-0.7034,-0.6817,-0.9195,-0.7943,-0.6804,0.2221,-0.4307
0.723,0.9812,1.2496,0.9412,0.6256,0.5282,-0.3593,0.1866,0.0198,0.0225,-0.4032,-0.4477,-0.181,0.1188,0.8971,0.8962,0.8138,0.8018,0.5696,0.587,0.3762,0.0586,-0.0954,-0.4457,-0.5058,-0.7794,-0.634,-0.5979,0.2958,-0.4437
0.7144,0.9975,1.4246,1.016,0.7524,0.7003,-0.325,0.193,-0.1215,0.0076,-0.5052,-0.4747,-0.0197,0.267,0.9201,0.85,0.8182,0.8833,0.5914,0.491,0.3982,0.2213,0.0871,-0.169,-0.3147,-0.6059,-0.4381,-0.4847,0.4061,-0.4599
0.6581,0.984,1.5454,1.0467,0.8253,0.8276,-0.3114,0.1469,-0.2757,-0.0097,-0.6006,-0.4748,0.1641,0.4239,0.8894,0.7661,0.7785,0.9157,0.5655,0.3667,0.4054,0.3306,0.2208,0.1069,-0.1241,-0.4123,-0.2192,-0.3448,0.5235,-0.4844
0.5668,0.9563,1.5954,1.045,0.8549,0.8984,-0.3086,0.0538,-0.4203,-0.0103,-0.6673,-0.4374,0.3731,0.5956,0.8178,0.676,0.7122,0.9017,0.512,0.252,0.4194,0.3913,0.2994,0.3672,0.0501,-0.2154,0.0106,-0.1839,0.6191,-0.5235
0.4583,0.9342,1.5691,1.03,0.8622,0.9122,-0.2978,-0.0702,-0.5306,0.0301,-0.6799,-0.3521,0.6145,0.7918,0.7257,0.6137,0.6413,0.8499,0.4572,0.1858,0.4658,0.4201,0.3266,0.6039,0.1948,-0.0328,0.2424,-0.0087,0.672,-0.5822
0.3528,0.9363,1.473,1.0228,0.8728,0.8801,-0.2559,-0.201,-0.5847,0.1344,-0.6165,-0.2111,0.8962,1.0224,0.6355,0.6075,0.5881,0.7741,0.4271,0.1996,0.5676,0.4405,0.3151,0.816,0.3017,0.1207,0.4706,0.1737,0.6732,-0.6622
0.2683,0.9742,1.3251,1.0402,0.909,0.8201,-0.1628,-0.312,-0.5687,0.3168,-0.4645,-0.0139,1.2213,1.2918,0.5671,0.6729,0.5696,0.69,0.4413,0.309,0.7381,0.4757,0.2827,1.0077,0.369,0.2359,0.6933,0.3564,0.6269,-0.7601
0.2173,1.0491,1.1501,1.0889,0.9826,0.752,-0.0085,-0.3801,-0.4803,0.5758,-0.2257,0.2309,1.5835,1.5941,0.5328,0.8077,0.5938,0.6122,0.5076,0.5088,0.9741,0.5413,0.2475,1.185,0.4011,0.3113,0.9108,0.5332,0.5482,-0.8676
0.2041,1.1507,0.9751,1.1631,1.0901,0.6916,0.2026,-0.3905,-0.3294,0.8924,0.0822,0.5053,1.9645,1.9112,0.535,0.9914,0.6573,0.5515,0.6192,0.7715,1.2536,0.64,0.2232,1.353,0.4081,0.3546,1.1245,0.6996,0.4585,-0.9724
0.2236,1.2597,0.8238,1.2453,1.2129,0.6465,0.4502,-0.3395,-0.1353,1.232,0.4285,0.7846,2.335,2.2137,0.5666,1.1904,0.7471,0.5128,0.7561,1.0527,1.5379,0.7604,0.2163,1.513,0.404,0.3816,1.3365,0.8538,0.3797,-1.0622
0.2631,1.3525,0.7124,1.3111,1.3214,0.6143,0.703,-0.2341,0.0781,1.5528,0.7761,1.0426,2.6594,2.4662,0.6136,1.3651,0.8431,0.4941,0.8899,1.3002,1.7798,0.8794,0.2244,1.6621,0.4041,0.4144,1.5487,0.9976,0.3291,-1.1274
0.3044,1.4067,0.6462,1.335,1.3827,0.5846,0.9261,-0.0883,0.2895,1.816,1.0896,1.2579,2.9028,2.6343,0.6591,1.4793,0.9231,0.4871,0.9897,1.4657,1.9339,0.9678,0.2371,1.7935,0.4223,0.4776,1.7624,1.1367,0.316,-1.1637
0.3267,1.4054,0.6186,1.2969,1.3689,0.5413,1.0907,0.0813,0.4867,1.9971,1.3442,1.4195,3.0376,2.6925,0.686,1.5073,0.9664,0.4778,1.0283,1.5147,1.9667,0.9967,0.2381,1.8984,0.4676,0.5935,1.9779,1.281,0.3403,-1.1732
0.3099,1.3389,0.6117,1.1854,1.2632,0.4677,1.1819,0.2616,0.6698,2.0942,1.5328,1.5308,3.0495,2.6291,0.6786,1.4366,0.9557,0.4482,0.9864,1.4328,1.864,0.9437,0.2083,1.9674,0.5428,0.7772,2.1942,1.4428,0.3938,-1.1627
0.2363,1.2043,0.5998,1,1.0642,0.3504,1.2033,0.4461,0.8517,2.1297,1.6678,1.61,2.9402,2.4475,0.6231,1.2675,0.8776,0.3776,0.8542,1.2256,1.6318,0.7967,0.1289,1.993,0.6434,1.0329,2.4088,1.6353,0.4631,-1.1405
0.0922,1.0038,0.5536,0.7482,0.7851,0.1825,1.1755,0.6353,1.0529,2.1459,1.7779,1.6871,2.7264,2.1636,0.507,1.0087,0.7218,0.2455,0.6305,0.9135,1.2924,0.5553,-0.0144,1.9709,0.7594,1.3539,2.6181,1.8706,0.5335,-1.1135
-0.1307,0.7418,0.4456,0.4435,0.45,-0.035,1.1312,0.8343,1.2926,2.194,1.9006,1.7982,2.4361,1.801,0.3187,0.6723,0.4804,0.0346,0.3211,0.5242,0.8766,0.2299,-0.2287,1.9013,0.879,1.7237,2.8182,2.1569,0.5921,-1.0835
-0.4337,0.4244,0.2564,0.1013,0.0887,-0.2936,1.1067,1.047,1.5802,2.321,2.0716,1.9776,2.1043,1.3857,0.0494,0.2698,0.1489,-0.2656,-0.0634,0.0842,0.4154,-0.1595,-0.5106,1.7904,0.9931,2.1207,3.0067,2.4973,0.6311,-1.0467
-0.8087,0.0599,-0.0209,-0.2624,-0.268,-0.5781,1.1329,1.2707,1.9075,2.5571,2.3151,2.25,1.7681,0.9431,-0.3035,-0.188,-0.2712,-0.6548,-0.5072,-0.3849,-0.065,-0.5859,-0.8446,1.6512,1.098,2.5223,3.1836,2.888,0.6483,-0.9946
-1.2358,-0.3377,-0.3762,-0.6299,-0.5914,-0.8676,1.2289,1.4916,2.2466,2.9082,2.6364,2.6248,1.4646,0.4986,-0.7317,-0.6877,-0.7675,-1.1178,-0.9882,-0.866,-0.5425,-1.0162,-1.2029,1.5035,1.198,2.9088,3.352,3.3178,0.6466,-0.9165
-1.6813,-0.7442,-0.7813,-0.9793,-0.855,-1.1372,1.3984,1.683,2.5518,3.3531,3.0192,3.0927,1.2292,0.0812,-1.2109,-1.2072,-1.3119,-1.6223,-1.4748,-1.3402,-0.9947,-1.4117,-1.5466,1.3738,1.3034,3.2647,3.5182,3.7672,0.6323,-0.8039
-2.0971,-1.122,-1.19,-1.2808,-1.0336,-1.3589,1.6304,1.8073,2.7669,3.8473,3.4267,3.6253,1.0959,-0.2723,-1.6977,-1.7086,-1.8567,-2.118,-1.9232,-1.778,-1.391,-1.7289,-1.8287,1.2935,1.4279,3.5771,3.6896,4.2097,0.6118,-0.6545
-2.4227,-1.4193,-1.543,-1.4954,-1.1016,-1.5029,1.9027,1.8216,2.8348,4.3319,3.8082,4.1791,1.0973,-0.5144,-2.1308,-2.1351,-2.3344,-2.5391,-2.276,-2.1333,-1.6866,-1.9202,-1.9985,1.2957,1.5837,3.8336,3.8728,4.6132,0.5895,-0.4748
-2.5911,-1.5737,-1.7742,-1.576,-1.0328,-1.5404,2.1879,1.6861,2.7093,4.7438,4.108,4.7019,1.2632,-0.5885,-2.4359,-2.4122,-2.6633,-2.8103,-2.4662,-2.3405,-1.8219,-1.9373,-2.0076,1.411,1.7768,4.0192,4.071,4.9425,0.5666,-0.2805
-2.5376,-1.5205,-1.8204,-1.4727,-0.8027,-1.4465,2.4585,1.3734,2.3646,5.0279,4.2765,5.1405,1.6171,-0.436,-2.5361,-2.4563,-2.7575,-2.857,-2.4241,-2.3215,-1.7278,-1.7368,-1.8165,1.6627,2.0037,4.1145,4.2818,5.1645,0.5407,-0.0949
-2.211,-1.204,-1.6309,-1.1418,-0.3922,-1.2037,2.692,0.8757,1.8017,5.1464,4.2789,5.4493,2.1714,-0.0075,-2.3648,-2.1893,-2.5415,-2.617,-2.0891,-1.999,-1.339,-1.287,-1.4013,2.0617,2.2507,4.0966,4.4972,5.2515,0.5078,0.0548
-1.5849,-0.5902,-1.1772,-0.5564,0.2057,-0.8062,2.8731,0.2099,1.0501,5.0837,4.1025,5.5969,2.9217,0.7241,-1.8799,-1.5563,-1.9663,-2.054,-1.4229,-1.3148,-0.61,-0.5759,-0.7588,2.6029,2.4943,3.9424,4.7038,5.1869,0.4636,0.1426
-0.6663,0.3234,-0.4592,0.285,0.9818,-0.2622,2.9958,-0.5825,0.1642,4.8494,3.7587,5.5709,3.8433,1.7529,-1.0743,-0.5417,-1.0223,-1.1671,-0.4216,-0.2481,0.4697,0.3828,0.0901,3.2644,2.7056,3.6334,4.8859,4.9679,0.4065,0.1488
0.5017,1.5024,0.4923,1.3533,1.9076,0.4054,3.064,-1.44,-0.7838,4.4756,3.2824,5.3797,4.8912,3.0352,0.0184,0.8204,0.2534,0.0043,0.8781,1.1721,1.8655,1.5476,1.1009,4.0093,2.8543,3.1619,5.029,4.6078,0.3389,0.0641
1.8433,2.8777,1.6188,2.5899,2.9373,1.1613,3.0911,-2.2883,-1.7124,4.0137,2.7277,5.0524,6.0045,4.4928,1.326,2.447,1.7788,1.3835,2.4,2.8656,3.4981,2.8524,2.2101,4.791,2.9151,2.5353,5.1239,4.1362,0.2687,-0.1083
3.2601,4.3547,2.8413,3.9145,4.0133,1.9632,3.0996,-3.0512,-2.5409,3.528,2.1608,4.6354,7.1149,6.0245,2.7474,4.2167,3.4385,2.8656,4.0383,4.7109,5.2541,4.2149,3.3433,5.5604,2.8726,1.7797,5.1697,3.5959,0.2087,-0.3537
4.6464,5.8277,4.0708,5.2381,5.0758,2.7676,3.1186,-3.6604,-3.1978,3.0882,1.6522,4.1862,8.1574,7.5225,4.1681,5.9898,5.101,4.3337,5.6737,6.5658,7.0042,5.5489,4.4254,6.2737,2.7252,0.9391,5.1762,3.0396,0.1745,-0.649
5.9039,7.196,5.2197,6.4767,6.071,3.5362,3.1796,-4.0644,-3.6282,2.7613,1.267,3.7664,9.0797,8.8899,5.4776,7.6324,6.6402,5.6761,7.1922,8.2929,8.6256,6.7761,5.3906,6.8982,2.4863,0.0716,5.1623,2.523,0.1804,-0.9676
6.9549,8.3781,6.212,7.5633,6.9595,4.2394,3.3111,-4.2342,-3.7988,2.6028,1.0573,3.4323,9.8488,10.0547,6.5852,9.0372,7.9534,6.8018,8.5018,9.7825,10.0216,7.8368,6.1898,7.4159,2.1825,-0.757,5.1528,2.0984,0.2347,-1.2846
7.7499,9.321,6.9907,8.4558,7.7187,4.8571,3.5332,-4.165,-3.7003,2.6486,1.0545,3.2273,10.452,10.9772,7.4305,10.1381,8.9742,7.6517,9.5431,10.9678,11.1342,8.6948,6.7944,7.8226,1.849,-1.4822,5.1733,1.8075,0.3367,-1.5812
8.2692,10.0015,7.5216,9.137,8.3421,5.3771,3.8517,-3.8744,-3.3472,2.909,1.2656,3.1749,10.8945,11.6489,7.987,10.9132,9.6755,8.202,10.2924,11.8297,11.9471,9.3371,7.1964,8.1249,1.5246,-2.0483,5.2445,1.6762,0.4742,-1.8462
8.5177,10.4225,7.7931,9.6107,8.8343,5.7913,4.2557,-3.3979,-2.7758,3.3659,1.6714,3.276,11.1922,12.0861,8.2591,11.3788,10.0657,8.4614,10.757,12.389,12.478,9.7699,7.4048,8.3354,1.2446,-2.4149,5.378,1.7125,0.6259,-2.0759
8.5182,10.6036,7.8133,9.8932,9.2047,6.0928,4.717,-2.7827,-2.0397,3.9751,2.2296,3.5097,11.3652,12.3186,8.2731,11.5756,10.1777,8.4623,10.9652,12.6911,12.7664,10.0111,7.4403,8.4681,1.0371,-2.5598,5.5745,1.9065,0.7658,-2.2724
8.3013,10.5719,7.6052,10.0043,9.4611,6.274,5.1937,-2.081,-1.2028,4.6732,2.8811,3.8379,11.4315,12.3799,8.067,11.5525,10.0561,8.2491,10.9549,12.7882,12.8574,10.0833,7.3288,8.5351,0.9194,-2.4795,5.8247,2.2339,0.8698,-2.4403
7.8989,10.3531,7.2011,9.961,9.6063,6.3282,5.6373,-1.3428,-0.3308,5.3892,3.5602,4.2137,11.4044,12.299,7.6812,11.3528,9.7455,7.8676,10.7631,12.7235,12.7901,10.0085,7.0969,8.5456,0.8979,-2.1863,6.1128,2.662,0.9217,-2.5844
7.3399,9.9681,6.638,9.7749,9.6386,6.2522,6.0019,-0.611,0.5169,6.0569,4.2051,4.5906,11.2928,12.0987,7.1519,11.0067,9.2829,7.3571,10.4201,12.5233,12.5903,9.8059,6.7685,8.5069,0.9699,-1.7046,6.4215,3.1553,0.9184,-2.7075
6.6503,9.4331,5.954,9.4536,9.5544,6.0509,6.2539,0.0827,1.2949,6.6269,4.7685,4.9316,11.1042,11.796,6.5094,10.5308,8.6961,6.7473,9.9491,12.1967,12.2715,9.4922,6.3642,8.4266,1.126,-1.0657,6.7364,3.6814,0.8694,-2.8103
5.8558,8.7644,5.187,9.0051,9.353,5.7398,6.3788,0.7187,1.975,7.0735,5.2234,5.215,10.8484,11.4063,5.7803,9.9342,8.0067,6.06,9.3687,11.7427,11.8398,9.0845,5.9029,8.3154,1.3542,-0.3039,7.0501,4.2153,0.7945,-2.8917
4.9848,7.9831,4.3731,8.4437,9.0404,5.3452,6.3836,1.2877,2.5464,7.3966,5.5652,5.4372,10.5402,10.9475,4.9904,9.2266,7.2347,5.313,8.6988,11.161,11.3022,8.603,5.4033,8.1883,1.6426,0.5466,7.3627,4.7406,0.7171,-2.9503
4.0708,7.1194,3.5472,7.7932,8.6326,4.9028,6.2952,1.7881,3.0125,7.6184,5.8094,5.6115,10.2005,10.4418,4.1682,8.4261,6.4041,4.5255,7.964,10.4612,10.6733,8.0723,4.8867,8.065,1.9811,1.4542,7.6816,5.2502,0.6575,-2.9851
3.1518,6.2129,2.7425,7.0878,8.1546,4.4521,6.1533,2.2223,3.3872,7.776,5.9866,5.7637,9.8554,9.916,3.3456,7.5627,5.5451,3.7209,7.1954,9.669,9.9795,7.5215,4.3767,7.9679,2.3621,2.3899,8.0182,5.7438,0.628,-2.997
2.2685,5.3107,1.9901,6.3694,7.6386,4.0312,6.003,2.5947,3.6902,7.9127,6.135,5.9255,9.5323,9.3993,2.5563,6.6776,4.6933,2.928,6.4295,8.8252,9.2577,6.9811,3.8985,7.9182,2.7792,3.3272,8.3841,6.2252,0.63,-2.9879
1.4604,4.4611,1.3182,5.6824,7.1201,3.6713,5.8862,2.9104,3.9436,8.0689,6.2934,6.1269,9.257,8.9195,1.8327,5.8178,3.8868,2.1791,5.7034,7.9812,8.5511,6.4796,3.476,7.9329,3.225,4.2412,8.7866,6.6985,0.6557,-2.9601
0.7609,3.7068,0.7494,5.0665,6.6328,3.3928,5.8356,3.1754,4.1691,8.2754,6.4931,6.3897,9.0494,8.4992,1.2023,5.0289,3.1604,1.5063,5.0495,7.1897,7.9021,6.0396,3.1286,8.0209,3.6896,5.1076,9.2262,7.1648,0.6911,-2.9144
0.1939,3.0787,0.2987,4.5505,6.2042,3.2036,5.8704,3.3972,4.3852,8.5487,6.7531,6.7224,8.9213,8.154,0.6846,4.3468,2.5407,0.9363,4.4911,6.4954,7.3452,5.6744,2.8682,8.1815,4.1594,5.9033,9.6942,7.6208,0.7209,-2.8496
-0.2302,2.5903,-0.0297,4.1481,5.8518,3.0999,5.996,3.5857,4.6059,8.8904,7.077,7.1182,8.8759,7.8909,0.2874,3.7917,2.0409,0.4848,4.0381,5.9266,6.9013,5.3872,2.6971,8.404,4.6167,6.6062,10.1741,8.0571,0.7329,-2.7621
-0.5157,2.2368,-0.2428,3.8565,5.5828,3.0685,6.2057,3.7528,4.8399,9.2889,7.4536,7.5566,8.9089,7.71,0.0069,3.3651,1.659,0.154,3.6867,5.4906,6.5757,5.172,2.6081,8.6699,5.0416,7.1977,10.6437,8.4604,0.7207,-2.6469
-0.6809,1.9969,-0.3582,3.6589,5.3945,3.0919,6.4839,3.9117,5.0899,9.7239,7.8611,8.0073,9.0112,7.6062,-0.1725,3.0503,1.3788,-0.069,3.421,5.1744,6.3587,5.0167,2.5863,8.9567,5.414,7.664,11.0788,8.8151,0.6849,-2.4994
-0.7545,1.839,-0.4004,3.5303,5.2796,3.1528,6.8113,4.0748,5.3527,10.1713,8.2715,8.4368,9.1725,7.5733,-0.2747,2.8171,1.1734,-0.2086,3.218,4.9495,6.2309,4.9078,2.613,9.2424,5.7173,7.9983,11.4579,9.1067,0.6327,-2.3172
-0.7695,1.7286,-0.396,3.4449,5.23,3.2394,7.168,4.251,5.6199,10.6081,8.657,8.8137,9.3838,7.6062,-0.3272,2.6299,1.0124,-0.295,3.0537,4.7806,6.1696,4.8354,2.6703,9.5105,5.9418,8.2031,11.7663,9.3256,0.5744,-2.1018
-0.7572,1.6366,-0.3683,3.3824,5.2412,3.3467,7.5381,4.4444,5.8779,11.0151,8.9935,9.115,9.6406,7.7032,-0.3562,2.4558,0.8683,-0.3572,2.9097,4.6346,6.1555,4.7967,2.7456,9.7534,6.0872,8.2912,11.9999,9.4698,0.5211,-1.8587
-0.742,1.5439,-0.3336,3.3323,5.3133,3.477,7.9102,4.6526,6.1103,11.3785,9.2642,9.3293,9.9424,7.866,-0.3822,2.2713,0.7225,-0.4169,2.7766,4.4882,6.177,4.7971,2.834,9.9746,6.1646,8.286,12.1664,9.5464,0.4807,-1.5976
-0.7387,1.4436,-0.2993,3.2936,5.4492,3.6358,8.2782,4.8671,6.2997,11.6895,9.4604,9.4575,10.2914,8.0981,-0.4175,2.0664,0.5676,-0.4842,2.6554,4.3314,6.2311,4.8477,2.9385,10.1869,6.1947,8.2198,12.2848,9.5717,0.457,-1.331
-0.7518,1.3401,-0.2656,3.2727,5.6504,3.8281,8.6389,5.075,6.4315,11.943,9.5818,9.5124,10.6897,8.4013,-0.4659,1.8451,0.4079,-0.5579,2.5554,4.168,6.3215,4.9612,3.0675,10.4096,6.2052,8.13,12.382,9.569,0.4489,-1.0733
-0.7782,1.2449,-0.2276,3.2787,5.9123,4.0535,8.9897,5.2613,6.4967,12.1363,9.6358,9.515,11.1352,8.7721,-0.524,1.6223,0.2561,-0.6274,2.4901,4.0118,6.4542,5.1464,3.2308,10.6621,6.2255,8.0547,12.4882,9.5644,0.4515,-0.8388
-0.8093,1.1719,-0.1789,3.3179,6.2209,4.3037,9.3253,5.4119,6.4942,12.2679,9.6361,9.4904,11.6179,9.1987,-0.5838,1.4188,0.1292,-0.6772,2.4723,3.8813,6.6322,5.4035,3.4351,10.9587,6.2816,8.0262,12.6299,9.5824,0.4577,-0.6403
-0.8359,1.1327,-0.1159,3.3902,6.5518,4.5621,9.6368,5.5164,6.4323,12.338,9.6006,9.4634,12.1184,9.6592,-0.6366,1.2548,0.0426,-0.6927,2.5089,3.7925,6.8508,5.7219,3.6801,11.3036,6.3908,8.0661,12.8246,9.6414,0.4602,-0.4875
-0.8516,1.1316,-0.0399,3.4869,6.8723,4.8059,9.9116,5.57,6.3269,12.3481,9.5482,9.4544,12.6079,10.1227,-0.6768,1.1433,0.005,-0.6653,2.5978,3.7529,7.0954,6.0797,3.957,11.6887,6.5586,8.1816,13.0761,9.7504,0.4532,-0.3859
-0.857,1.1635,0.0415,3.5907,7.1466,5.0096,10.1363,5.575,6.1989,12.3026,9.4967,9.4773,13.0515,10.5524,-0.7055,1.0858,0.0148,-0.5968,2.7259,3.7574,7.3417,6.4469,4.2483,12.0933,6.7777,8.3644,13.3737,9.9071,0.4339,-0.3364
-0.8602,1.2138,0.1149,3.6791,7.343,5.1506,10.3012,5.5413,6.0708,12.2098,9.4599,9.5378,13.4136,10.911,-0.7319,1.0702,0.0589,-0.5006,2.871,3.7882,7.5591,6.7894,4.5304,12.4878,7.0295,8.5929,13.6932,10.0991,0.4027,-0.3359
-0.8768,1.2615,0.164,3.7298,7.4406,5.2137,10.4048,5.4856,5.9634,12.0834,9.4475,9.6349,13.6649,11.1673,-0.772,1.0733,0.1148,-0.3996,3.0049,3.818,7.7165,7.0751,4.7777,12.8389,7.2883,8.8371,14.0028,10.3064,0.3631,-0.3788
-0.9258,1.284,0.1729,3.726,7.435,5.1949,10.4574,5.4287,5.8929,11.9435,9.4645,9.7625,13.7891,11.3022,-0.8453,1.0666,0.1552,-0.322,3.0992,3.8168,7.7892,7.2788,4.9667,13.1166,7.5264,9.0652,14.2699,10.5066,0.3206,-0.4573
-1.0244,1.2639,0.1298,3.662,7.3412,5.1033,10.4814,5.393,5.87,11.8155,9.5124,9.9115,13.7879,11.3142,-0.9696,1.0234,0.1549,-0.2946,3.1312,3.7605,7.7649,7.3872,5.0809,13.3001,7.7204,9.251,14.4691,10.6797,0.281,-0.5634
-1.1828,1.1939,0.0297,3.5457,7.1917,4.9606,10.5086,5.3982,5.8987,11.7275,9.5895,10.0719,13.6829,11.2207,-1.155,0.9275,0.0973,-0.3352,3.0901,3.6376,7.6483,7.4016,5.114,13.3833,7.8552,9.3787,14.5879,10.8128,0.2483,-0.6898
-1.399,1.0806,-0.123,3.399,7.0322,4.7988,10.5737,5.4581,5.9761,11.7056,9.6921,10.234,13.5136,11.0572,-1.3997,0.7782,-0.0204,-0.4475,2.9805,3.4548,7.4622,7.3379,5.0721,13.3759,7.9274,9.4454,14.6293,10.9023,0.2233,-0.8311
-1.6577,0.945,-0.314,3.2547,6.9148,4.6556,10.7076,5.5783,6.0932,11.7683,9.8131,10.3882,13.3317,10.8723,-1.6877,0.5933,-0.1842,-0.6186,2.8233,3.2372,7.2449,7.2248,4.9732,13.3019,7.9444,9.4599,14.6096,10.9533,0.2033,-0.9845
-1.9305,0.8202,-0.5201,3.1519,6.8893,4.5704,10.9293,5.755,6.2351,11.9211,9.9419,10.5243,13.192,10.7202,-1.9905,0.4067,-0.3642,-0.8197,2.6538,3.0243,7.0444,7.0991,4.845,13.1937,7.9217,9.4375,14.5523,10.9754,0.1827,-1.1505
-2.1804,0.7455,-0.711,3.1295,6.9949,4.5776,11.2414,5.9758,6.3826,12.1532,10.0635,10.6308,13.142,10.6509,-2.2709,0.2623,-0.5196,-1.0112,2.5154,2.863,6.9097,6.9995,4.72,13.0844,7.8773,9.3936,14.4796,10.9771,0.1556,-1.3324
-2.3683,0.7593,-0.8538,3.2193,7.2542,4.7028,11.6288,6.2217,6.5136,12.437,10.158,10.6943,13.2125,10.702,-2.4896,0.2054,-0.6056,-1.1496,2.4523,2.7979,6.8821,6.9601,4.6304,13.0002,7.8267,9.3375,14.4038,10.9607,0.1177,-1.5354
-2.4598,0.8919,-0.9175,3.4409,7.6688,4.9577,12.0614,6.4699,6.6059,12.7321,10.2028,10.6999,13.412,10.8914,-2.6126,0.2738,-0.5818,-1.1962,2.5015,2.8634,6.9883,7.0046,4.6024,12.9542,7.7784,9.2684,14.3225,10.9186,0.0686,-1.7654
-2.4324,1.1599,-0.8787,3.7981,8.2206,5.3394,12.5001,6.6979,6.6404,12.9918,10.1754,10.6332,13.7251,11.2158,-2.6167,0.4915,-0.4196,-1.1233,2.6862,3.0781,7.2366,7.1439,4.6526,12.9447,7.7329,9.1763,14.2183,10.8336,0.0129,-2.0277
-2.2794,1.5623,-0.7255,4.2792,8.8756,5.8308,12.9056,6.8868,6.6037,13.1725,10.0574,10.4823,14.1175,11.6531,-2.4936,0.8647,-0.1071,-0.9193,3.0125,3.4436,7.6183,7.376,4.7867,12.9583,7.6842,9.0454,14.0641,10.6831,-0.0407,-2.3259
-2.0108,2.0826,-0.4602,4.86,9.5912,6.4041,13.2457,7.0247,6.4911,13.2417,9.8387,10.2402,14.5443,12.1692,-2.2492,1.3831,0.3504,-0.5886,3.4706,3.9466,8.1118,7.6894,5.0011,12.9757,7.6246,8.8612,13.8321,10.4457,-0.082,-2.6616
-1.65,2.6924,-0.0985,5.509,10.3247,7.0255,13.502,7.1073,6.3072,13.1842,9.5194,9.9062,14.9603,12.7267,-1.9007,2.0242,0.9336,-0.1481,4.0392,4.5649,8.6902,8.0689,5.287,12.9801,7.5504,8.6175,13.5043,10.1086,-0.102,-3.0337
-1.2277,3.3588,0.3337,6.1942,11.0404,7.6617,13.6723,7.138,6.0641,13.0043,9.1098,9.486,15.3298,13.2942,-1.4706,2.7606,1.6155,0.379,4.6923,5.2744,9.3285,8.5016,5.635,12.9642,7.4655,8.3217,13.0807,9.6726,-0.0969,-3.44
-0.7745,4.0517,0.8051,6.8889,11.715,8.2842,13.7696,7.1255,5.779,12.7238,8.6281,8.9913,15.6327,13.8515,-0.9805,3.5668,2.3689,0.9695,5.4065,6.0553,10.0094,8.9812,6.0386,12.9336,7.3839,7.9959,12.5829,9.155,-0.0697,-3.8772
-0.3149,4.749,1.2851,7.5749,12.3386,8.8728,13.8176,7.0815,5.4705,12.377,8.0977,8.4387,15.8665,14.3921,-0.4467,4.4243,3.1716,1.6055,6.1654,6.895,10.7248,9.5087,6.4955,12.9065,7.3269,7.673,12.0522,8.5874,-0.031,-4.3414
0.1361,5.4389,1.7483,8.243,12.9124,9.4167,13.8444,7.0183,5.1564,12.0042,7.5454,7.8502,16.0429,14.9208,0.1207,5.3223,4.0085,2.2753,6.9597,7.7875,11.4743,10.0897,7.0056,12.9082,7.318,7.3901,11.5414,8.0115,0.0035,-4.8288
0.572,6.1174,2.1774,8.8901,13.4445,9.9132,13.8766,6.9473,4.8528,11.6451,6.9995,7.2526,16.1826,15.4476,0.7158,6.2545,4.8692,2.9709,7.784,8.7286,12.2597,10.7278,7.5663,12.9633,7.3757,7.1789,11.1044,7.4717,0.0172,-5.3341
0.9911,6.7837,2.5636,9.5145,13.9435,10.3638,13.9329,6.879,4.5739,11.333,6.4896,6.6772,16.3069,15.9802,1.3328,7.2129,5.743,3.6829,8.6302,9.7097,13.0782,11.4181,8.1681,13.087,7.5068,7.058,10.7835,7.0075,-0.0038,-5.8503
1.3921,7.4345,2.9044,10.1115,14.414,10.7716,14.0219,6.8223,4.3331,11.0922,6.0448,6.1572,16.432,16.518,1.9604,8.1825,6.6139,4.3962,9.4818,10.7125,13.9173,12.1413,8.7905,13.2797,7.7026,7.0275,10.6008,6.6469,-0.0663,-6.3664
1.7698,8.0599,3.2007,10.671,14.8534,11.1374,14.1413,6.7855,4.1427,10.9372,5.6923,5.7245,16.5651,17.0488,2.5797,9.1376,7.4573,5.0876,10.3112,11.7069,14.7521,12.8635,9.4022,13.5245,7.9391,7.0697,10.554,6.4027,-0.1688,-6.8679
2.114,8.6417,3.4541,11.1777,15.252,11.4586,14.2801,6.7757,4.0148,10.8733,5.455,5.4059,16.7039,17.5499,3.1639,10.0423,8.2404,5.7262,11.0809,12.6529,15.5471,13.5395,9.9646,13.7912,8.1824,7.1537,10.6194,6.2716,-0.3015,-7.3366
2.4105,9.1558,3.6639,11.6129,15.5944,11.7285,14.4224,6.7981,3.9594,10.8988,5.3492,5.2187,16.8391,17.9917,3.6808,10.855,8.9258,6.2782,11.7487,13.5053,16.2604,14.1207,10.4375,14.043,8.3959,7.2444,10.7589,6.238,-0.4483,-7.753
2.6434,9.5751,3.8267,11.9578,15.8625,11.9366,14.5504,6.8538,3.982,11.0049,5.3805,5.1679,16.9574,18.3432,4.0979,11.534,9.478,6.7119,12.2754,14.2206,16.8492,14.5634,10.7868,14.2448,8.5489,7.3113,10.9303,6.2785,-0.5911,-8.099
2.7985,9.8746,3.936,12.1961,16.0378,12.0694,14.646,6.9378,4.0797,11.175,5.5405,5.244,17.0438,18.5765,4.3874,12.0445,9.8684,7.0035,12.6311,14.7621,17.2759,14.837,10.9897,14.37,8.6228,7.3358,11.0961,6.3672,-0.7132,-8.361
2.8652,10.0346,3.9824,12.3155,16.1027,12.1117,14.6915,7.0366,4.2371,11.3827,5.8034,5.4227,17.0833,18.6709,4.5309,12.3634,10.081,7.1407,12.8007,15.1049,17.5121,14.929,11.0391,14.4043,8.6141,7.3137,11.2292,6.4801,-0.8029,-8.5318
2.8384,10.0437,3.9556,12.3084,16.0426,12.0485,14.6691,7.1284,4.425,11.5914,6.126,5.6671,17.061,18.6144,4.5221,12.4823,10.1139,7.1248,12.7858,15.2384,17.5421,14.8462,10.9443,14.3468,8.5327,7.2533,11.3142,6.5962,-0.8563,-8.6118
2.7192,9.9006,3.8458,12.1726,15.8475,11.8675,14.5619,7.1858,4.6025,11.7566,6.4519,5.9315,16.9634,18.4057,4.3685,12.4092,9.9802,6.9701,12.6041,15.1678,17.3668,14.6133,10.7293,14.2073,8.3984,7.1701,11.3457,6.6981,-0.8775,-8.6084
2.5152,9.6146,3.6469,11.9125,15.5151,11.5637,14.356,7.1808,4.7237,11.8315,6.719,6.168,16.7804,18.0558,4.0909,12.1672,9.7064,6.7022,12.2875,14.9143,17.0049,14.2697,10.4297,14.0036,8.2353,7.0813,11.3248,6.7712,-0.8781,-8.5353
2.2401,9.2065,3.36,11.5409,15.0542,11.1425,14.044,7.0914,4.7469,11.7764,6.871,6.3334,16.5077,17.5884,3.7215,11.7929,9.3293,6.3547,11.8786,14.5149,16.4948,13.8643,10.0883,13.7577,8.0667,6.9994,11.2558,6.8032,-0.8744,-8.4098
1.9134,8.7072,2.9956,11.0809,14.4873,10.6226,13.6291,6.9084,4.6447,11.5671,6.8686,6.3954,16.1498,17.0399,3.2997,11.3322,8.8918,5.9657,11.4261,14.0198,15.892,13.4494,9.7493,13.4921,7.9103,6.93,11.1431,6.7842,-0.8836,-8.2516
1.5588,8.1563,2.5751,10.5652,13.8506,10.0366,13.1278,6.6393,4.4121,11.2022,6.6976,6.3377,15.7216,16.4563,2.8677,10.835,8.4385,5.5736,10.9796,13.4874,15.2632,13.0744,9.4529,13.2269,7.7761,6.8698,10.9903,6.7076,-0.9197,-8.0798
1.2023,7.598,2.13,10.0348,13.192,9.4285,12.5703,6.3084,4.0689,10.7045,6.3723,6.1615,15.2472,15.8877,2.4648,10.3492,8.0103,5.2132,10.5833,12.9767,14.6774,12.7787,9.2294,12.9767,7.6648,6.8087,10.7995,6.5708,-0.9894,-7.9112
0.871,7.0766,1.6985,9.5335,12.5643,8.848,11.9973,5.9531,3.6572,10.1186,5.9325,5.8842,14.7562,15.3804,2.1231,9.9143,7.6401,4.9115,10.2704,12.5381,14.1932,12.5854,9.0946,12.7482,7.5686,6.7309,10.5715,6.376,-1.0903,-7.7583
0.59,6.6303,1.3208,9.1018,12.0173,8.343,11.4535,5.6174,3.233,9.5024,5.4352,5.5352,14.2784,14.9687,1.8638,9.5569,7.3492,4.685,10.058,12.2048,13.8483,12.4973,9.0468,12.5388,7.4721,6.6183,10.3057,6.1294,-1.2105,-7.6278
0.3803,6.2866,1.033,8.77,11.5889,7.9519,10.9804,5.3437,2.8556,8.9166,4.9436,5.1504,13.8383,14.6679,1.6961,9.2875,7.146,4.5383,9.9452,11.987,13.6516,12.4961,9.0667,12.3367,7.355,6.4526,10.0003,5.8399,-1.3316,-7.5196
0.2563,6.0575,0.8617,8.5525,11.2981,7.6965,10.6087,5.1656,2.5757,8.4146,4.5156,4.7657,13.4506,14.4717,1.6174,9.1007,7.0251,4.4643,9.9132,11.8704,13.5821,12.5451,9.1207,12.1227,7.1957,6.2183,9.6525,5.5171,-1.4326,-7.4276
0.2229,5.938,0.8192,8.4456,11.1418,7.5788,10.3528,5.1019,2.4267,8.033,4.1943,4.4118,13.1175,14.3532,1.6148,8.9778,6.9701,4.4458,9.9295,11.8215,13.5947,12.5966,9.1674,11.874,6.975,5.9048,9.2587,5.1699,-1.4945,-7.3403
0.2744,5.9077,0.9016,8.4288,11.0958,7.581,10.2084,5.1538,2.4195,7.7866,4.0009,4.1097,12.8297,14.2713,1.6677,8.8913,6.9561,4.4596,9.9549,11.7953,13.6306,12.6019,9.1659,11.569,6.6807,5.5094,8.816,4.8055,-1.5041,-7.244
0.3951,5.9349,1.0893,8.4692,11.1201,7.6699,10.1538,5.305,2.5412,7.6665,3.9328,3.8693,12.5678,14.1791,1.7518,8.811,6.9548,4.4807,9.951,11.746,13.6305,12.5206,9.0837,11.1921,6.3109,5.0385,8.3236,4.4297,-1.4566,-7.1249
0.5611,5.9826,1.3511,8.5288,11.1671,7.803,10.154,5.5242,2.7581,7.6421,3.9647,3.688,12.3071,14.0327,1.8427,8.7093,6.9394,4.4871,9.8873,11.6367,13.5467,12.3289,8.9041,10.7378,5.8766,4.5091,7.7846,4.0474,-1.356,-6.9727
0.7443,6.0165,1.6488,8.5713,11.1899,7.9366,10.1668,5.7701,3.0223,7.6672,4.0544,3.5533,12.0221,13.7994,1.919,8.5656,6.889,4.4637,9.7467,11.4451,13.3511,12.0228,8.628,10.2121,5.4003,3.9474,7.2079,3.6644,-1.2144,-6.7827
0.9165,6.0104,1.9442,8.569,11.1506,8.0324,10.1501,5.9979,3.2806,7.6882,4.1511,3.4453,11.6908,13.4624,1.9656,8.3689,6.7915,4.4039,9.5269,11.1663,13.0377,11.6181,8.2737,9.6323,4.9132,3.3863,6.6081,3.2878,-1.0496,-6.5572
1.0544,5.9513,2.2045,8.5068,11.0266,8.0636,10.0684,6.1663,3.4839,7.6541,4.2048,3.3408,11.2992,13.0226,1.9746,8.1196,6.6451,4.31,9.2398,10.8118,12.6216,11.1459,7.871,9.0242,4.4493,2.8605,6.0051,2.9262,-0.8818,-6.3057
1.1435,5.8405,2.4071,8.3842,10.813,8.0175,9.8985,6.2439,3.595,7.5255,4.1759,3.2181,10.844,12.498,1.9467,7.8283,6.4584,4.1916,8.9088,10.4064,12.1341,10.6457,7.4559,8.4186,4.0394,2.4013,5.4222,2.5889,-0.7304,-6.0439
1.1799,5.6926,2.5413,8.2142,10.523,7.8962,9.6333,6.214,3.5943,7.282,4.0417,3.061,10.3341,11.9203,1.8901,7.5152,6.2492,4.0638,8.5644,9.9841,11.6164,10.1589,7.0629,7.8468,3.7056,2.0319,4.8841,2.2851,-0.6111,-5.7911
1.1712,5.5315,2.6093,8.0197,10.1844,7.7147,9.2823,6.0772,3.4819,6.9265,3.7999,2.8615,9.7906,11.3306,1.8194,7.207,6.0409,3.9441,8.2399,9.5826,11.1134,9.7225,6.7206,7.3376,3.4587,1.7645,4.4142,2.023,-0.5344,-5.5672
1.134,5.3853,2.6236,7.829,9.8342,7.4967,8.8711,5.8501,3.2759,6.4838,3.4682,2.6221,9.2451,10.7736,1.7523,6.9332,5.8594,3.8501,7.967,9.239,10.6679,9.3654,6.4482,6.9149,3.2981,1.5995,4.0326,1.8087,-0.5044,-5.3887
1.0896,5.2797,2.6034,7.6693,9.5111,7.2699,8.4366,5.5618,3.008,5.9966,3.0798,2.3549,8.7358,10.2914,1.7064,6.7209,5.7279,3.7966,7.7708,8.9839,10.3153,9.1054,6.2551,6.5959,3.2143,1.5267,3.7547,1.6462,-0.5195,-5.2656
1.0594,5.2329,2.5706,7.5619,9.2486,7.0605,8.021,5.2476,2.716,5.5168,2.677,2.08,8.302,9.9173,1.6946,6.5895,5.6621,3.7926,7.6665,8.8365,10.0789,8.9489,6.1408,6.3897,3.1916,1.5285,3.5888,1.5369,-0.5736,-5.1998
1.0591,5.2514,2.5446,7.5178,9.0691,6.8892,7.6641,4.9429,2.4371,5.0953,2.3031,1.8218,7.9778,9.6709,1.7229,6.5466,5.6672,3.8398,7.6562,8.8014,9.9666,8.8902,6.0974,6.2965,3.2123,1.5822,3.5346,1.4787,-0.6571,-5.1843
1.0971,5.3301,2.5396,7.5365,8.9808,6.7682,7.3968,4.6772,2.202,4.7733,1.9961,1.6041,7.786,9.5549,1.789,6.5862,5.7364,3.9319,7.7287,8.8667,9.9698,8.9139,6.1115,6.3063,3.2585,1.6635,3.5813,1.4654,-0.7585,-5.2047
1.1731,5.4544,2.5623,7.6077,8.9783,6.7014,7.2364,4.4708,2.0309,4.5752,1.7831,1.4465,7.7338,9.5553,1.8839,6.6904,5.8531,4.0558,7.8613,9.0071,10.0649,8.9968,6.1665,6.3995,3.314,1.7485,3.7067,1.486,-0.8653,-5.2419
1.2809,5.6051,2.6123,7.7151,9.0463,6.6856,7.1858,4.3333,1.9327,4.5055,1.6777,1.3597,7.811,9.6453,1.995,6.8342,5.9948,4.1944,8.0253,9.1894,10.219,9.1126,6.2456,6.5481,3.3652,1.816,3.8788,1.5249,-0.9651,-5.2761
1.4104,5.7633,2.6831,7.8413,9.165,6.7136,7.2341,4.2655,1.9061,4.5501,1.6792,1.3438,7.9921,9.7912,2.1098,6.9917,6.1392,4.3309,8.1916,9.3803,10.3972,9.2359,6.3337,6.7192,3.4013,1.8492,4.0586,1.5631,-1.0474,-5.2912
1.5514,5.9151,2.7654,7.9731,9.3162,6.7781,7.3614,4.2607,1.9423,4.6799,1.7743,1.3878,8.2405,9.9602,2.2187,7.1426,6.2687,4.4517,8.3374,9.5547,10.5713,9.3464,6.4188,6.8788,3.4146,1.837,4.2053,1.5805,-1.1041,-5.278
1.6948,6.0539,2.8486,8.1035,9.4877,6.8737,7.5426,4.3089,2.0282,4.8573,1.9395,1.4714,8.5148,10.1269,2.3163,7.2761,6.374,4.5493,8.4503,9.701,10.7265,9.432,6.4922,6.9971,3.3996,1.7744,4.2822,1.5586,-1.1312,-5.2364
1.8335,6.1799,2.9239,8.2327,9.6743,6.9976,7.7522,4.3985,2.1499,5.0437,2.1454,1.5691,8.7754,10.2771,2.4012,7.3917,6.4544,4.622,8.5295,9.8227,10.8632,9.4897,6.5486,7.0524,3.3535,1.6626,4.2626,1.4843,-1.1286,-5.1751
1.9611,6.2966,2.9853,8.3647,9.8762,7.1488,7.9677,4.5189,2.2946,5.2055,2.3608,1.6546,8.9895,10.4083,2.4743,7.4963,6.5154,4.6729,8.5842,9.9346,10.9947,9.5243,6.5852,7.034,3.2758,1.5087,4.1345,1.3531,-1.1001,-5.1092
2.0707,6.407,3.0292,8.5032,10.0943,7.3248,8.1709,4.6611,2.4515,5.3195,2.5569,1.7069,9.1348,10.5259,2.5358,7.5981,6.5646,4.7061,8.6279,10.0557,11.1397,9.5454,6.6007,6.9436,3.169,1.3247,3.9034,1.1708,-1.0521,-5.0555
2.1539,6.5082,3.0543,8.6466,10.3254,7.519,8.3486,4.8182,2.6123,5.3747,2.7103,1.7135,9.2005,10.6375,2.5829,7.701,6.6062,4.7236,8.6727,10.1998,11.3127,9.5627,6.5942,6.7934,3.0382,1.1267,3.592,0.9534,-0.9927,-5.0274
2.1999,6.5893,3.0594,8.7846,10.5579,7.7184,8.4914,4.9846,2.7706,5.3727,2.806,1.6727,9.1862,10.7464,2.6089,7.799,6.6382,4.7228,8.7232,10.3685,11.5157,9.5819,6.5641,6.6039,2.8913,0.9329,3.2366,0.725,-0.9299,-5.0313
2.1964,6.6315,3.0427,8.8977,10.7705,7.9032,8.5932,5.1556,2.9215,5.3257,2.8381,1.593,9.0996,10.8475,2.603,7.8758,6.6506,4.6958,8.774,10.5475,11.7338,9.602,6.5079,6.399,2.7381,0.7617,2.8819,0.5132,-0.8707,-5.0643
2.1322,6.6118,3.0007,8.96,10.934,8.0486,8.6501,5.3264,3.0615,5.2526,2.8107,1.491,8.9534,10.9266,2.553,7.9072,6.6279,4.6312,8.81,10.7085,11.9372,9.6145,6.4221,6.202,2.5893,0.629,2.5735,0.3444,-0.8209,-5.1155
2,6.5094,2.9284,8.9452,11.017,8.1284,8.66,5.4909,3.1876,5.175,2.7361,1.387,8.7621,10.963,2.4484,7.8679,6.5531,4.5174,8.8107,10.8164,12.087,9.6056,6.3037,6.0318,2.4543,0.546,2.3498,0.2387,-0.7851,-5.169
1.7996,6.3119,2.8206,8.8326,10.9919,8.1194,8.6221,5.6412,3.2969,5.1116,2.6328,1.3007,8.5402,10.9355,2.2845,7.7395,6.4136,4.3474,8.7564,10.8385,12.146,9.5604,6.1515,5.9004,2.3403,0.5168,2.2364,0.2066,-0.7672,-5.2083
1.5404,6.0211,2.6735,8.6138,10.8425,8.0066,8.5372,5.7665,3.3848,5.0746,2.5205,1.2473,8.3006,10.8289,2.0654,7.517,6.2065,4.1226,8.635,10.7545,12.0888,9.468,5.9683,5.8118,2.251,0.5382,2.2415,0.247,-0.7709,-5.2205
1.2418,5.6551,2.4874,8.2962,10.5686,7.7864,8.4075,5.8538,3.4446,5.0669,2.4169,1.2339,8.0548,10.6398,1.8047,7.2134,5.9411,3.8559,8.4469,10.5631,11.9095,9.3251,5.7622,5.7628,2.1868,0.5996,2.3551,0.3482,-0.7996,-5.1993
0.9318,5.2471,2.2689,7.9033,10.1878,7.469,8.2369,5.8888,3.4675,5.0815,2.3333,1.259,7.813,10.3791,1.5249,6.859,5.6397,3.5712,8.2067,10.2842,11.6245,9.139,5.5473,5.7442,2.1449,0.6853,2.5513,0.4904,-0.8559,-5.1452
0.6437,4.8412,2.032,7.4724,9.7341,7.078,8.0308,5.8584,3.4449,5.104,2.2741,1.3135,7.5851,10.0714,1.2548,6.497,5.3343,3.3008,7.9413,9.9561,11.2704,8.9268,5.3416,5.7433,2.1206,0.7764,2.7929,0.6494,-0.9415,-5.0644
0.4115,4.4846,1.7976,7.0486,9.2525,6.6479,7.7961,5.7533,3.3707,5.1153,2.2373,1.3828,7.3805,9.7505,1.0256,6.1764,5.0616,3.0801,7.6851,9.629,10.8974,8.7124,5.1654,5.7462,2.1083,0.8544,3.0367,0.8,-1.0563,-4.9666
0.2645,4.221,1.5917,6.6781,8.7919,6.2189,7.5404,5.5709,3.2433,5.096,2.2161,1.4506,7.2078,9.4536,0.8667,5.9439,4.8573,2.9414,7.4738,9.3565,10.56,8.5228,5.0373,5.74,2.1024,0.904,3.2408,0.9201,-1.197,-4.8623
0.2233,4.0825,1.4411,6.4008,8.3978,5.8317,7.2716,5.3167,3.0667,5.0294,2.2009,1.5013,7.0733,9.2144,0.8025,5.8361,4.7508,2.9083,7.3388,9.186,10.308,8.3835,4.9716,5.7154,2.0984,0.915,3.3699,0.9926,-1.3569,-4.7618
0.2968,4.0861,1.37,6.2451,8.1053,5.5213,6.9971,5.004,2.8491,4.9043,2.1806,1.5219,6.98,9.0575,0.8485,5.8742,4.7611,2.9918,7.3021,9.1518,10.1784,8.3139,4.9757,5.6675,2.0935,0.8838,3.4004,1.0075,-1.5246,-4.6735
0.4805,4.2309,1.3955,6.224,7.9351,5.3125,6.7229,4.6521,2.6008,4.716,2.1437,1.5033,6.9259,8.9943,1.0094,6.0611,4.8946,3.1885,7.3735,9.2694,10.1895,8.3249,5.0497,5.5961,2.0863,0.8137,3.3229,0.962,-1.6857,-4.6044
0.7582,4.4993,1.5239,6.3344,7.8916,5.217,6.4541,4.2835,2.3322,4.467,2.0793,1.4404,6.9037,9.0219,1.2772,6.3812,5.1438,3.4814,7.5495,9.5332,10.3384,8.4173,5.1857,5.5052,2.0769,0.7133,3.1422,0.8603,-1.8245,-4.5601
1.1035,4.8603,1.7491,6.5579,7.9634,5.2333,6.1953,3.9207,2.0526,4.1668,1.9783,1.332,6.9013,9.1235,1.6312,6.8028,5.4882,3.8426,7.8139,9.9164,10.6012,8.5812,5.3694,5.4014,2.0663,0.5952,2.8757,0.712,-1.9274,-4.5443
1.4833,5.2732,2.0515,6.8635,8.1262,5.3469,5.9508,3.5837,1.7707,3.8307,1.8361,1.1811,6.9032,9.2713,2.0392,7.2816,5.8958,4.2368,8.1395,10.3748,10.9367,8.7977,5.5817,5.292,2.0557,0.4737,2.5498,0.5308,-1.9855,-4.5581
1.8611,5.6924,2.3991,7.2106,8.3459,5.5327,5.7243,3.2883,1.4961,3.4789,1.6536,0.9948,6.8926,9.4305,2.4603,7.7658,6.3256,4.6249,8.4902,10.8514,11.2917,9.0401,5.8003,5.1831,2.046,0.3622,2.1958,0.3327,-1.997,-4.5991
2.2001,6.0714,2.7507,7.5531,8.5824,5.7576,5.5189,3.0453,1.2396,3.1333,1.4384,0.7843,6.853,9.5642,2.849,8.2012,6.7309,4.9681,8.8247,11.284,11.6089,9.277,6.0016,5.0781,2.0367,0.2715,1.8451,0.1341,-1.9672,-4.6604
2.4657,6.3669,3.0609,7.8437,8.7932,5.9839,5.3357,2.8604,1.0142,2.8163,1.2047,0.5649,6.7702,9.6377,3.16,8.537,7.0638,5.2303,9.1,11.6129,11.8352,9.4747,6.1615,4.9767,2.0255,0.2079,1.5256,-0.0491,-1.9072,-4.7307
2.629,6.5421,3.2865,8.0387,8.9383,6.1735,5.1736,2.7355,0.8343,2.5478,0.9724,0.3552,6.6338,9.6233,3.3542,8.7305,7.2805,5.382,9.2756,11.7892,11.9288,9.6007,6.2578,4.8753,2.0081,0.1725,1.2587,-0.2027,-1.8314,-4.7955
2.6691,6.5712,3.393,8.1038,8.9841,6.2927,5.0306,2.6694,0.7138,2.3438,0.7644,0.1761,6.4387,9.5035,3.4047,8.754,7.3471,5.4026,9.3192,11.7822,11.8652,9.6275,6.2718,4.7677,1.9783,0.1615,1.0581,-0.3148,-1.7545,-4.8394
2.5774,6.4431,3.3611,8.0193,8.9088,6.317,4.905,2.6585,0.6642,2.2157,0.604,0.0486,6.1871,9.2744,3.3014,8.5986,7.2465,5.284,9.2119,11.5843,11.6414,9.537,6.1907,4.6481,1.9298,0.1671,0.9294,-0.3765,-1.6883,-4.8491
2.3602,6.1657,3.1904,7.7851,8.7068,6.2361,4.7982,2.6975,0.691,2.1702,0.5112,-0.0094,5.8901,8.9467,3.0547,8.2785,6.9824,5.033,8.9529,11.2138,11.2759,9.324,6.0109,4.5133,1.8571,0.179,0.8714,-0.3831,-1.6394,-4.8171
2.0398,5.7669,2.9013,7.4231,8.3916,6.056,4.7161,2.7788,0.7923,2.2095,0.4998,0.0142,5.5678,8.5466,2.6955,7.8309,6.5812,4.6718,8.5617,10.7128,10.8071,8.9993,5.7397,4.3646,1.7576,0.1863,0.8764,-0.3351,-1.608,-4.7439
1.6539,5.2937,2.5327,6.9756,7.9957,5.8,4.6694,2.8919,0.9581,2.3315,0.5744,0.1222,5.249,8.1122,2.2715,7.3117,6.0903,4.2379,8.0776,10.1417,10.2873,8.5891,5.3961,4.2087,1.6317,0.1781,0.9319,-0.2391,-1.5886,-4.6386
1.2507,4.8063,2.1372,6.5003,7.567,5.5054,4.6712,3.0236,1.1706,2.5291,0.7291,0.3066,4.9664,7.6893,1.8397,6.7877,5.5703,3.7789,7.5542,9.5694,9.7758,8.1328,5.0098,4.056,1.4836,0.1454,1.0216,-0.1079,-1.572,-4.5171
0.8824,4.3699,1.7727,6.0617,7.1616,5.2179,4.7327,3.1579,1.4066,2.7895,0.9474,0.5486,4.752,7.3237,1.4574,6.325,5.086,3.347,7.0512,9.0622,9.3289,7.677,4.6169,3.9182,1.3206,0.0818,1.1263,0.0406,-1.5481,-4.3982
0.5959,4.0427,1.4932,5.7193,6.8341,4.9834,4.8587,3.2773,1.6404,3.0932,1.2034,0.8202,4.6297,7.0533,1.1716,5.9777,4.6945,2.9904,6.6246,8.673,8.9917,7.2675,4.2553,3.8046,1.1521,-0.0156,1.2256,0.1848,-1.5096,-4.299
0.4256,3.8662,1.3392,5.5175,6.627,4.8399,5.0433,3.3649,1.8462,3.4134,1.4645,1.0876,4.6101,6.9008,1.0117,5.7779,4.4355,2.7454,6.3167,8.4323,8.7907,6.9418,3.9576,3.7192,0.9883,-0.1457,1.2989,0.3017,-1.4538,-4.2309
0.3863,3.8568,1.3312,5.4762,6.5616,4.8095,5.2677,3.4067,2.0012,3.7177,1.6952,1.316,4.6872,6.8695,0.985,5.7309,4.3249,2.6308,6.149,8.3442,8.7295,6.7218,3.7465,3.6585,0.8382,-0.3035,1.3278,0.3703,-1.3833,-4.1972
0.4717,4.0028,1.4665,5.5875,6.6335,4.894,5.5016,3.3931,2.0873,3.9711,1.8612,1.4735,4.8381,6.942,1.0773,5.8154,4.3534,2.6447,6.119,8.3873,8.789,6.6106,3.6302,3.6118,0.7094,-0.4809,1.2973,0.3738,-1.3056,-4.193
0.6564,4.2669,1.7202,5.8176,6.8123,5.0744,5.7072,3.3205,2.0929,4.1404,1.9346,1.5363,5.0269,7.0834,1.2581,5.9896,4.4904,2.7661,6.2024,8.5202,8.9311,6.5926,3.6023,3.5633,0.606,-0.6672,1.1985,0.3023,-1.2308,-4.2066
0.9016,4.5943,2.0514,6.1135,7.0479,5.3145,5.8451,3.1921,2.0148,4.1999,1.8978,1.4919,5.2109,7.2484,1.4877,6.2011,4.6922,2.9602,6.3587,8.6909,9.1068,6.6374,3.6435,3.4955,0.5297,-0.8508,1.0301,0.1548,-1.1695,-4.2234
1.1646,4.9236,2.4112,6.4144,7.2798,5.5682,5.882,3.0164,1.8576,4.1357,1.7469,1.3413,5.3482,7.39,1.727,6.3992,4.9117,3.1862,6.541,8.8486,9.2656,6.7072,3.7263,3.3928,0.4792,-1.02,0.7986,-0.0606,-1.1304,-4.2291
1.4068,5.199,2.7518,6.6636,7.4495,5.7884,5.7958,2.8061,1.634,3.9476,1.4921,1.099,5.405,7.4684,1.9442,6.5452,5.1086,3.4055,6.7053,8.9536,9.3654,6.7647,3.8204,3.2451,0.4507,-1.1644,0.5178,-0.3268,-1.1187,-4.2131
1.6004,5.3805,3.0331,6.8184,7.5107,5.9352,5.5797,2.5751,1.3625,3.6493,1.1567,0.7907,5.3599,7.4572,2.1199,6.6192,5.2554,3.5881,6.8181,8.9844,9.3797,6.7805,3.8982,3.0494,0.4379,-1.277,0.2066,-0.6209,-1.1355,-4.1703
1.732,5.4491,3.2285,6.8565,7.4376,5.9824,5.2418,2.3366,1.0656,3.2651,0.7736,0.4497,5.2065,7.3463,2.248,6.6207,5.34,3.7162,6.8606,8.9393,9.3006,6.7367,3.9382,2.8099,0.4328,-1.3547,-0.1141,-0.9168,-1.1776,-4.1013
1.8014,5.4078,3.3259,6.7774,7.2275,5.9203,4.8026,2.1004,0.7669,2.8255,0.3804,0.1113,4.9518,7.1409,2.3324,6.5655,5.3637,3.7837,6.829,8.833,9.1371,6.6279,3.9268,2.5367,0.4253,-1.3997,-0.4244,-1.1893,-1.2387,-4.0117
1.8183,5.2772,3.3275,6.5989,6.8997,5.7555,4.2908,1.8721,0.488,2.3624,0.0146,-0.1912,4.6128,6.8572,2.3833,6.4775,5.3368,3.7941,6.7314,8.6901,8.9105,6.4594,3.8586,2.2442,0.4047,-1.4191,-0.7081,-1.4177,-1.3108,-3.9099
1.7981,5.0888,3.2468,6.3516,6.4901,5.5084,3.7388,1.6534,0.2461,1.9055,-0.2921,-0.4314,4.2128,6.5184,2.4113,6.381,5.2729,3.7564,6.5837,8.5368,8.6473,6.2443,3.7357,1.9489,0.3611,-1.424,-0.9533,-1.5878,-1.3855,-3.8048
1.7571,4.8773,3.105,6.0707,6.044,5.208,3.1792,1.4435,0.0523,1.4806,-0.5172,-0.592,3.7783,6.1495,2.4249,6.2945,5.1849,3.6821,6.4051,8.395,8.3736,6.0003,3.5672,1.6677,0.2873,-1.4275,-1.1521,-1.6932,-1.4548,-3.704
1.7092,4.6734,2.9274,5.7898,5.608,4.8874,2.6429,1.2415,-0.0885,1.1093,-0.6491,-0.666,3.3363,5.7753,2.4283,6.2272,5.083,3.5827,6.2155,8.2778,8.1109,5.7472,3.3678,1.4171,0.1813,-1.4415,-1.2996,-1.7345,-1.5111,-3.613
1.6646,4.4998,2.7392,5.5357,5.2235,4.5781,2.1584,1.0494,-0.1766,0.8099,-0.6878,-0.6557,2.9137,5.4185,2.4221,6.1797,4.9745,3.4688,6.0329,8.1896,7.8742,5.5053,3.1568,1.212,0.0469,-1.4746,-1.3926,-1.718,-1.5472,-3.5354
1.629,4.3684,2.5633,5.3258,4.9207,4.3064,1.7516,0.873,-0.216,0.5984,-0.6426,-0.5715,2.5362,5.0993,2.4051,6.1463,4.8651,3.3503,5.872,8.1277,7.6727,5.2937,2.9561,1.0653,-0.1053,-1.5293,-1.4289,-1.6537,-1.557,-3.4725
1.604,4.2808,2.4163,5.1665,4.7156,4.09,1.445,0.7219,-0.2121,0.4876,-0.5303,-0.4293,2.2272,4.8345,2.3759,6.1182,4.7593,3.2359,5.7428,8.0843,7.5103,5.1279,2.7872,0.9865,-0.2593,-1.6014,-1.4074,-1.5526,-1.5368,-3.4237
1.5871,4.2286,2.3073,5.0541,4.6085,3.9362,1.2553,0.608,-0.1719,0.485,-0.3725,-0.2487,2.0054,4.636,2.3338,6.0853,4.6606,3.1325,5.6485,8.0488,7.3862,5.0176,2.6679,0.9805,-0.3957,-1.6801,-1.3284,-1.426,-1.4875,-3.3857
1.5725,4.1955,2.2356,4.9758,4.5846,3.8426,1.1909,0.5417,-0.1038,0.5902,-0.1936,-0.0499,1.8835,4.5101,2.2785,6.0377,4.5693,3.0442,5.5848,8.0084,7.296,4.9644,2.6088,1.0474,-0.4945,-1.7493,-1.1946,-1.2834,-1.416,-3.3523
1.5512,4.1599,2.1914,4.9115,4.617,3.7976,1.2492,0.5296,-0.0178,0.7923,-0.0179,0.1479,1.8654,4.4557,2.2096,5.9656,4.482,2.9704,5.5394,7.9494,7.2313,4.9611,2.6113,1.1812,-0.538,-1.7903,-1.0114,-1.1324,-1.3344,-3.3149
1.5123,4.0981,2.1577,4.8378,4.6715,3.783,1.4154,0.5722,0.0757,1.0701,0.134,0.3291,1.9462,4.4652,2.1259,5.8594,4.3912,2.9058,5.4945,7.8579,7.1814,4.9928,2.667,1.371,-0.5139,-1.7857,-0.7873,-0.9784,-1.2586,-3.2633
1.4454,3.9892,2.1147,4.7324,4.7122,3.7777,1.6637,0.6636,0.1669,1.3935,0.2474,0.4828,2.1119,4.5252,2.026,5.7115,4.2869,2.8409,5.4306,7.7223,7.1348,5.04,2.7591,1.6011,-0.4179,-1.7223,-0.5345,-0.8251,-1.2039,-3.1883
1.3434,3.8195,2.0451,4.5791,4.7087,3.7615,1.9599,0.792,0.2481,1.727,0.3155,0.6028,2.3415,4.6191,1.9095,5.5186,4.1603,2.7651,5.3322,7.5371,7.0821,5.0827,2.8659,1.8526,-0.2553,-1.5951,-0.2681,-0.6758,-1.1813,-3.084
1.2058,3.5871,1.9387,4.3723,4.642,3.7186,2.2672,0.9418,0.3137,2.0346,0.3394,0.6874,2.6097,4.7302,1.7797,5.2846,4.0078,2.6704,5.1923,7.3063,7.0184,5.1047,2.9653,2.1051,-0.0408,-1.4088,-0.0061,-0.5342,-1.1946,-2.9501
1.0403,3.3042,1.7964,4.1197,4.5081,3.6413,2.5506,1.0956,0.3598,2.2846,0.3262,0.7375,2.8902,4.8443,1.644,5.0235,3.8346,2.5548,5.0158,7.0456,6.9456,5.0969,3.0382,2.3381,0.2023,-1.1792,0.2314,-0.4062,-1.2391,-2.794
0.8623,2.9961,1.6297,3.8415,4.3187,3.5304,2.7825,1.2363,0.3834,2.454,0.286,0.7552,3.1582,4.951,1.5143,4.7585,3.6551,2.4242,4.8192,6.7819,6.8722,5.0587,3.0726,2.5331,0.4461,-0.9308,0.4243,-0.3004,-1.3029,-2.6302
0.6924,2.697,1.4588,3.5664,4.098,3.3952,2.9457,1.3498,0.3816,2.5314,0.2295,0.7431,3.3924,5.0437,1.4051,4.5193,3.4906,2.292,4.6274,6.5491,6.8109,4.9966,3.0638,2.6745,0.6612,-0.6937,0.5537,-0.2274,-1.3694,-2.4775
0.5518,2.4426,1.3069,3.3247,3.8759,3.2504,3.0347,1.4269,0.3528,2.5182,0.1668,0.7036,3.5757,5.1177,1.3293,4.3353,3.3638,2.1754,4.4669,6.3806,6.7742,4.9207,3.0141,2.7504,0.8217,-0.4989,0.605,-0.1981,-1.4219,-2.355
0.4572,2.2611,1.1948,3.1407,3.6801,3.1124,3.054,1.4639,0.2978,2.427,0.1062,0.6399,3.695,5.1676,1.2945,4.2278,3.2917,2.0909,4.358,6.3001,6.7687,4.8396,2.9304,2.7529,0.9089,-0.3721,0.5703,-0.2207,-1.4482,-2.2769
0.4163,2.1663,1.1357,3.0256,3.5279,2.9937,3.015,1.4628,0.2209,2.2787,0.0546,0.5568,3.7403,5.1848,1.2995,4.2026,3.2788,2.0481,4.3083,6.3137,6.7905,4.7562,2.8204,2.6789,0.9139,-0.3291,0.4502,-0.2979,-1.4435,-2.2478
0.4251,2.1526,1.1327,2.9738,3.4215,2.9001,2.9311,1.43,0.1298,2.0979,0.0173,0.4608,3.705,5.1566,1.3327,4.2461,3.3144,2.0469,4.3088,6.4052,6.8227,4.6654,2.6908,2.5302,0.8393,-0.3726,0.2559,-0.4241,-1.412,-2.2606
0.4686,2.1962,1.1782,2.9635,3.3467,2.8285,2.8142,1.3745,0.0346,1.908,-0.0025,0.3612,3.5866,5.0678,1.3744,4.3266,3.3735,2.0764,4.335,6.5376,6.8378,4.5543,2.5454,2.315,0.6984,-0.4909,0.0087,-0.585,-1.3658,-2.2976
0.5252,2.2606,1.2566,2.962,3.2776,2.7683,2.672,1.3055,-0.0543,1.7275,-0.0038,0.2684,3.3881,4.9054,1.4019,4.4009,3.4226,2.1181,4.3532,6.6609,6.8037,4.407,2.3865,2.0479,0.5133,-0.6602,-0.2624,-0.7588,-1.3217,-2.3338
0.5728,2.3066,1.3488,2.9342,3.1836,2.7047,2.5085,1.2309,-0.1285,1.5683,0.011,0.1928,3.1196,4.6631,1.3957,4.426,3.4295,2.151,4.3295,6.724,6.6924,4.2106,2.2161,1.7499,0.3114,-0.849,-0.524,-0.9198,-1.2966,-2.3428
0.5957,2.3024,1.4368,2.8524,3.0395,2.6239,2.3259,1.156,-0.183,1.4346,0.0373,0.1424,2.7987,4.3458,1.3465,4.3703,3.3722,2.1585,4.2398,6.6882,6.4889,3.9604,2.0383,1.4464,0.1201,-1.025,-0.7445,-1.0439,-1.3033,-2.3034
0.5889,2.2326,1.5079,2.7044,2.8328,2.5174,2.1263,1.0838,-0.2169,1.3245,0.0684,0.1213,2.4488,3.9715,1.258,4.223,3.2462,2.1332,4.077,6.5376,6.1966,3.6643,1.8602,1.1639,-0.0375,-1.1614,-0.8997,-1.1135,-1.3471,-2.2049
0.5592,2.1014,1.5565,2.4969,2.5673,2.3855,1.9137,1.0156,-0.2328,1.2323,0.0971,0.1282,2.0964,3.5695,1.1466,3.9972,3.0654,2.0784,3.8534,6.2832,5.8385,3.3424,1.6919,0.925,-0.1472,-1.243,-0.9774,-1.1219,-1.4261,-2.0496
0.5224,1.9304,1.5839,2.2534,2.2622,2.2369,1.6947,0.9517,-0.2354,1.1506,0.1166,0.1572,1.7668,3.1745,1.0368,3.7262,2.8586,2.007,3.597,5.9595,5.4516,3.0228,1.5446,0.7448,-0.2059,-1.2681,-0.9803,-1.0743,-1.5319,-1.8519
0.4986,1.7522,1.5958,2.0077,1.9464,2.0861,1.4765,0.8917,-0.2305,1.0721,0.1212,0.1987,1.4792,2.8197,0.9542,3.4542,2.6616,1.937,3.3446,5.6152,5.0781,2.7356,1.4277,0.6277,-0.2206,-1.2478,-0.9241,-0.9861,-1.6536,-1.6349
0.5058,1.6011,1.5999,1.7948,1.6498,1.9492,1.2658,0.8345,-0.2237,0.991,0.107,0.242,1.2444,2.529,0.9194,3.2254,2.5076,1.8862,3.1318,5.2998,4.7553,2.5057,1.3468,0.5676,-0.2063,-1.2022,-0.8337,-0.8792,-1.7804,-1.4238
0.5562,1.5045,1.6033,1.6422,1.3965,1.8392,1.0667,0.7784,-0.2194,0.9032,0.072,0.2776,1.0629,2.3135,0.9435,3.0731,2.4197,1.8679,2.985,5.0522,4.507,2.3477,1.3024,0.5502,-0.181,-1.1541,-0.737,-0.7759,-1.9044,-1.2404
0.6536,1.4772,1.6111,1.5638,1.1989,1.7632,0.8797,0.7214,-0.2201,0.8069,0.0167,0.2989,0.9268,2.1696,1.0265,3.013,2.407,1.8878,2.9163,4.8929,4.3404,2.2634,1.2903,0.5575,-0.1613,-1.1232,-0.6575,-0.6945,-2.0212,-1.0979
0.7939,1.5191,1.6259,1.558,1.0564,1.7212,0.7021,0.6619,-0.2269,0.7016,-0.0557,0.3035,0.8221,2.0828,1.1594,3.0419,2.4638,1.9442,2.9217,4.8219,4.2464,2.2426,1.3024,0.5722,-0.1583,-1.1212,-0.6097,-0.6446,-2.13,-0.9989
0.9667,1.617,1.6485,1.6095,0.9573,1.7061,0.5297,0.5989,-0.2389,0.5884,-0.1402,0.2931,0.733,2.0319,1.3274,3.1404,2.5732,2.0291,2.9845,4.8215,4.2046,2.266,1.3289,0.582,-0.1761,-1.1501,-0.5964,-0.6262,-2.2319,-0.9363
1.1583,1.7485,1.6782,1.6942,0.8831,1.7066,0.3583,0.5327,-0.2548,0.4698,-0.2301,0.2727,0.6455,1.9946,1.5132,3.2791,2.7122,2.1312,3.0796,4.8634,4.1892,2.3102,1.3599,0.5806,-0.2117,-1.2031,-0.6099,-0.6306,-2.329,-0.8959
