FP1,F3,F7,FC3,C3,C5,P3,P7,PO7,PO3,O1,Oz,Pz,CPz,FP2,Fz,F4,F8,FC4,FCz,Cz,C4,C6,P4,P8,PO8,PO4,O2,HEOG_left,HEOG_right
0.976,0.7165,-0.2968,0.7017,-0.101,-0.5684,-1.2392,-1.7464,-1.784,-1.5842,-1.446,-0.8509,0.0241,0.5402,0.5339,1.0253,0.404,0.6657,0.723,0.4022,0.9528,0.8418,1.3604,-0.0077,0.3474,-0.1822,-0.7512,-0.4184,-0.4785,-0.2629
0.8367,0.698,-0.1626,0.8895,0.1807,-0.3846,-0.8842,-1.2766,-1.3875,-1.2328,-1.0766,-0.5563,0.1691,0.6292,0.3022,1.0846,0.3876,0.6218,0.6678,0.5519,1.0032,0.7267,1.0453,0.086,0.2934,-0.1525,-0.5575,-0.2598,-0.4123,-0.2855
0.7008,0.6653,-0.0522,1.0411,0.4251,-0.2193,-0.5589,-0.8416,-1.0159,-0.9035,-0.7303,-0.2873,0.2917,0.7007,0.0867,1.1238,0.366,0.5664,0.6095,0.6791,1.0392,0.6131,0.7487,0.1665,0.2348,-0.1274,-0.3815,-0.1186,-0.3629,-0.3184
0.574,0.6104,0.0192,1.1296,0.6042,-0.0861,-0.2873,-0.4737,-0.6891,-0.6138,-0.4265,-0.062,0.3769,0.7425,-0.0964,1.1291,0.3377,0.4941,0.5499,0.7663,1.0509,0.509,0.4933,0.227,0.1717,-0.1076,-0.2346,-0.005,-0.3398,-0.365
0.4579,0.5279,0.0416,1.1369,0.6981,0.0049,-0.0845,-0.1946,-0.42,-0.3757,-0.1784,0.1088,0.4165,0.7465,-0.2369,1.0913,0.3012,0.4029,0.4893,0.8023,1.0308,0.4194,0.2931,0.2628,0.1062,-0.0925,-0.1232,0.0768,-0.3476,-0.426
0.3511,0.417,0.0127,1.0569,0.6984,0.0492,0.0447,-0.0124,-0.2137,-0.1942,0.0083,0.2233,0.4103,0.7097,-0.3313,1.0079,0.2556,0.296,0.427,0.7835,0.9752,0.347,0.153,0.273,0.0423,-0.0804,-0.0476,0.1287,-0.3851,-0.4986
0.2515,0.2828,-0.0597,0.8971,0.6098,0.0489,0.1059,0.0778,-0.0668,-0.0671,0.1354,0.2873,0.3662,0.6354,-0.3815,0.8837,0.2022,0.1822,0.3636,0.7148,0.8857,0.2928,0.0703,0.2609,-0.0143,-0.0691,-0.0027,0.1577,-0.444,-0.5756
0.159,0.1367,-0.1586,0.6785,0.4504,0.0131,0.1129,0.0922,0.03,0.0133,0.2109,0.3125,0.2994,0.5339,-0.3924,0.7312,0.1454,0.0747,0.3026,0.609,0.7696,0.2587,0.0391,0.2341,-0.0579,-0.0563,0.0206,0.1731,-0.5097,-0.6454
0.0766,-0.0045,-0.2598,0.4324,0.2491,-0.0431,0.0849,0.0544,0.0894,0.0582,0.2462,0.3123,0.2285,0.4208,-0.3703,0.5683,0.0928,-0.0104,0.2509,0.4839,0.6397,0.2475,0.0531,0.2036,-0.0842,-0.0408,0.0329,0.1829,-0.563,-0.6933
0.0095,-0.1225,-0.3367,0.1942,0.0407,-0.102,0.0417,-0.0096,0.1239,0.0791,0.2528,0.2985,0.172,0.3148,-0.3218,0.4151,0.0543,-0.0577,0.2183,0.3594,0.5121,0.2626,0.1064,0.1809,-0.0912,-0.0231,0.0433,0.1917,-0.5847,-0.7044
-0.0373,-0.2016,-0.3659,-0.0033,-0.1408,-0.1461,0.0001,-0.076,0.1428,0.0852,0.2401,0.2785,0.1436,0.2334,-0.2538,0.2893,0.039,-0.0565,0.2141,0.2523,0.4026,0.3057,0.1931,0.1751,-0.0809,-0.0065,0.057,0.1988,-0.5598,-0.6675
-0.0625,-0.2328,-0.3335,-0.1361,-0.2684,-0.162,-0.0286,-0.1267,0.1511,0.0819,0.2133,0.2543,0.1494,0.1889,-0.1748,0.2018,0.0527,-0.0047,0.2435,0.1733,0.323,0.3742,0.3044,0.1901,-0.0593,0.0033,0.074,0.1985,-0.4829,-0.5791
-0.0694,-0.2167,-0.2381,-0.1935,-0.3273,-0.1426,-0.0398,-0.1516,0.1494,0.0705,0.1746,0.2232,0.1858,0.185,-0.0948,0.1552,0.0952,0.0897,0.3043,0.1249,0.2783,0.4598,0.4271,0.2228,-0.0355,-0.0011,0.0889,0.1826,-0.36,-0.4464
-0.0658,-0.1624,-0.0915,-0.179,-0.3167,-0.0876,-0.0348,-0.1486,0.1355,0.0497,0.1241,0.1802,0.2413,0.2165,-0.0242,0.1439,0.1598,0.2098,0.3861,0.1025,0.2656,0.5485,0.5436,0.2642,-0.02,-0.026,0.0934,0.1435,-0.208,-0.2863
-0.0611,-0.0857,0.0838,-0.108,-0.2484,-0.003,-0.0194,-0.1223,0.1072,0.0175,0.0623,0.1207,0.2988,0.2695,0.0287,0.1561,0.2348,0.3326,0.4721,0.0961,0.2758,0.6233,0.6335,0.3008,-0.0221,-0.0753,0.0784,0.0767,-0.0506,-0.1222
-0.0631,-0.0048,0.2596,-0.0031,-0.1429,0.1001,-0.0016,-0.0818,0.0637,-0.0272,-0.009,0.0429,0.3397,0.3251,0.0592,0.1785,0.3058,0.4348,0.5427,0.0942,0.2956,0.668,0.6774,0.3188,-0.0479,-0.1486,0.0373,-0.0163,0.0873,0.0211
-0.0753,0.0642,0.4089,0.1105,-0.0243,0.2082,0.0099,-0.0381,0.0069,-0.0835,-0.0865,-0.0512,0.3477,0.3634,0.068,0.1988,0.3594,0.4966,0.5801,0.0866,0.3112,0.6707,0.6611,0.3064,-0.0992,-0.2409,-0.0329,-0.1289,0.1859,0.1235
-0.0966,0.1106,0.511,0.2103,0.0846,0.3069,0.0076,-0.0022,-0.0597,-0.1491,-0.166,-0.1561,0.3123,0.3674,0.0597,0.2087,0.3849,0.5058,0.5722,0.0663,0.3109,0.6265,0.5791,0.257,-0.1727,-0.344,-0.1297,-0.2502,0.2338,0.1733
-0.1217,0.1308,0.555,0.2795,0.1661,0.3834,-0.0143,0.0179,-0.1318,-0.2203,-0.2435,-0.2638,0.2299,0.327,0.0414,0.2042,0.376,0.4591,0.5148,0.0299,0.287,0.5379,0.4357,0.1697,-0.2615,-0.4475,-0.2464,-0.3679,0.2295,0.1691
-0.144,0.1279,0.5413,0.3091,0.2097,0.4281,-0.058,0.0187,-0.2052,-0.2931,-0.316,-0.366,0.1048,0.2403,0.02,0.1848,0.3312,0.3621,0.4118,-0.0216,0.237,0.4135,0.2448,0.0498,-0.3554,-0.5414,-0.3726,-0.4708,0.1804,0.1186
-0.1573,0.1105,0.4793,0.2976,0.2134,0.4359,-0.1217,0.0017,-0.2757,-0.3626,-0.3805,-0.4545,-0.0519,0.1137,0.001,0.1525,0.2537,0.228,0.2743,-0.0843,0.1637,0.2661,0.0275,-0.0928,-0.4438,-0.617,-0.4961,-0.5502,0.1002,0.0369
-0.1581,0.0896,0.3842,0.2503,0.1824,0.4071,-0.1989,-0.0265,-0.3381,-0.4227,-0.4333,-0.5215,-0.2239,-0.0395,-0.0118,0.1106,0.1507,0.0756,0.1181,-0.1515,0.074,0.1105,-0.1905,-0.2449,-0.5163,-0.668,-0.604,-0.6008,0.0064,-0.0573
-0.1456,0.075,0.2738,0.177,0.1279,0.3473,-0.2784,-0.0563,-0.3851,-0.4659,-0.4691,-0.5602,-0.3923,-0.2015,-0.0164,0.0618,0.033,-0.0739,-0.0389,-0.215,-0.0224,-0.0388,-0.3829,-0.3916,-0.565,-0.6903,-0.6847,-0.6194,-0.0832,-0.1444
-0.1225,0.0728,0.1643,0.0893,0.0632,0.2657,-0.3466,-0.0773,-0.4076,-0.4839,-0.4812,-0.5646,-0.5384,-0.3539,-0.0122,0.0084,-0.0872,-0.2004,-0.1796,-0.2673,-0.115,-0.1691,-0.5266,-0.519,-0.585,-0.6821,-0.7289,-0.6051,-0.1527,-0.2077
-0.0939,0.083,0.0682,-0.0021,0.0013,0.1733,-0.3902,-0.0812,-0.3965,-0.4696,-0.4633,-0.5318,-0.6471,-0.4805,-0.0001,-0.0492,-0.1986,-0.2886,-0.2906,-0.3031,-0.1954,-0.2718,-0.6058,-0.6159,-0.5758,-0.6435,-0.731,-0.5584,-0.1905,-0.2355
-0.0672,0.0999,-0.0068,-0.0895,-0.0489,0.0808,-0.3992,-0.0633,-0.345,-0.4184,-0.4123,-0.4629,-0.709,-0.5708,0.0162,-0.1126,-0.2931,-0.331,-0.3651,-0.3217,-0.2593,-0.3435,-0.6155,-0.6758,-0.5408,-0.5771,-0.6906,-0.4823,-0.1913,-0.2233
-0.051,0.1127,-0.0587,-0.169,-0.0832,-0.003,-0.3688,-0.023,-0.2518,-0.3304,-0.3297,-0.3646,-0.7212,-0.6207,0.0295,-0.1855,-0.3684,-0.3292,-0.4038,-0.3278,-0.3069,-0.3863,-0.5626,-0.6969,-0.4865,-0.488,-0.6117,-0.3827,-0.1565,-0.174
-0.055,0.1087,-0.0893,-0.2407,-0.102,-0.0717,-0.3002,0.0372,-0.1217,-0.2099,-0.2224,-0.2481,-0.6868,-0.6321,0.03,-0.2724,-0.427,-0.2924,-0.4144,-0.3306,-0.3429,-0.4067,-0.4646,-0.6823,-0.4201,-0.3829,-0.5023,-0.2676,-0.0935,-0.0966
-0.0882,0.0758,-0.1036,-0.3079,-0.1095,-0.1216,-0.1991,0.1123,0.0346,-0.0648,-0.1008,-0.127,-0.613,-0.6118,0.0067,-0.3776,-0.4755,-0.235,-0.4091,-0.3411,-0.3743,-0.4139,-0.3451,-0.6376,-0.3485,-0.2692,-0.3723,-0.1468,-0.014,-0.0039
-0.1572,0.0059,-0.1082,-0.375,-0.1114,-0.1511,-0.0746,0.1967,0.2026,0.0953,0.0238,-0.0141,-0.5093,-0.5683,-0.0493,-0.5032,-0.5214,-0.173,-0.4018,-0.369,-0.4081,-0.417,-0.2285,-0.5692,-0.276,-0.1534,-0.2312,-0.0297,0.0688,0.0902
-0.2633,-0.1036,-0.1098,-0.4469,-0.1139,-0.1614,0.063,0.2841,0.3672,0.2602,0.1418,0.0814,-0.3855,-0.5108,-0.1407,-0.6478,-0.5709,-0.1206,-0.4039,-0.4201,-0.4495,-0.4229,-0.1343,-0.4827,-0.2045,-0.0403,-0.0866,0.0762,0.1424,0.1728
-0.4015,-0.2482,-0.1154,-0.527,-0.1231,-0.1565,0.2023,0.3676,0.5143,0.4194,0.2471,0.1554,-0.2518,-0.4471,-0.2621,-0.8054,-0.6268,-0.0883,-0.4228,-0.494,-0.501,-0.4346,-0.0739,-0.3825,-0.1335,0.0671,0.0562,0.1662,0.1969,0.2342
-0.5587,-0.4175,-0.1311,-0.6173,-0.1446,-0.1438,0.3318,0.4393,0.6327,0.5627,0.3365,0.2086,-0.1182,-0.3834,-0.3992,-0.9663,-0.6872,-0.0816,-0.4598,-0.5841,-0.5617,-0.451,-0.049,-0.2717,-0.0616,0.1681,0.1938,0.239,0.2266,0.2687
-0.7158,-0.5956,-0.1613,-0.7168,-0.1826,-0.1327,0.4399,0.4904,0.7139,0.6795,0.4087,0.2449,0.0054,-0.3243,-0.5311,-1.1174,-0.7457,-0.1008,-0.51,-0.6791,-0.6276,-0.4672,-0.0528,-0.1532,0.0131,0.2632,0.3238,0.2954,0.2301,0.2758
-0.8493,-0.7633,-0.2079,-0.8214,-0.2394,-0.1329,0.5161,0.5127,0.7523,0.7599,0.4625,0.2691,0.11,-0.2719,-0.634,-1.2437,-0.7917,-0.1414,-0.5629,-0.7647,-0.692,-0.4761,-0.0729,-0.0302,0.0923,0.3536,0.444,0.338,0.2113,0.261
-0.9353,-0.8997,-0.2676,-0.9226,-0.3135,-0.1512,0.5525,0.5,0.7454,0.7961,0.4957,0.2851,0.189,-0.2264,-0.6854,-1.3294,-0.8118,-0.1942,-0.6045,-0.8256,-0.7457,-0.4697,-0.0949,0.0932,0.1769,0.4402,0.5516,0.3697,0.178,0.2344
-0.9527,-0.9848,-0.3319,-1.0081,-0.3983,-0.1885,0.5454,0.4499,0.694,0.7839,0.5052,0.2946,0.2386,-0.1858,-0.6681,-1.3597,-0.7925,-0.2477,-0.6204,-0.8482,-0.7786,-0.4419,-0.106,0.2124,0.2662,0.5224,0.6429,0.3926,0.1419,0.2101
-0.8876,-1.0027,-0.3876,-1.0627,-0.4824,-0.2384,0.4961,0.365,0.6021,0.724,0.4876,0.2965,0.2588,-0.1476,-0.5733,-1.3233,-0.7229,-0.2898,-0.5988,-0.8221,-0.7812,-0.3901,-0.0984,0.3215,0.3573,0.5969,0.7131,0.4069,0.1154,0.2022
-0.7359,-0.944,-0.4189,-1.0714,-0.5508,-0.2878,0.4116,0.253,0.477,0.6222,0.4407,0.2876,0.2526,-0.1101,-0.402,-1.2146,-0.5981,-0.3104,-0.5347,-0.7427,-0.7472,-0.3171,-0.0714,0.4136,0.4441,0.6575,0.7566,0.4106,0.1102,0.222
-0.5055,-0.8086,-0.4116,-1.022,-0.5876,-0.3205,0.3033,0.1265,0.3298,0.4899,0.3655,0.2641,0.2254,-0.0733,-0.1659,-1.0359,-0.4213,-0.3039,-0.4309,-0.612,-0.6756,-0.2309,-0.0306,0.4814,0.5183,0.6966,0.7686,0.4003,0.1336,0.2743
-0.2167,-0.6066,-0.3569,-0.9094,-0.5801,-0.3212,0.1863,0.0016,0.1751,0.343,0.2679,0.2243,0.1837,-0.0401,0.1133,-0.7984,-0.2048,-0.2708,-0.2989,-0.439,-0.572,-0.1435,0.0125,0.518,0.5706,0.707,0.7462,0.3731,0.1872,0.3559
0.0992,-0.358,-0.2546,-0.7373,-0.5221,-0.2811,0.0766,-0.1044,0.0296,0.1998,0.16,0.1706,0.1338,-0.0151,0.405,-0.5219,0.031,-0.2179,-0.1568,-0.2394,-0.4487,-0.0689,0.044,0.5182,0.5928,0.685,0.6904,0.3279,0.2655,0.4548
0.4047,-0.091,-0.1145,-0.5193,-0.4168,-0.201,-0.0112,-0.1762,-0.0897,0.0788,0.0579,0.1093,0.0806,-0.0048,0.6738,-0.2332,0.26,-0.1579,-0.0267,-0.0333,-0.3231,-0.021,0.0498,0.4793,0.58,0.6315,0.6059,0.2669,0.3562,0.5527
0.6611,0.1626,0.0451,-0.2777,-0.2762,-0.0918,-0.0666,-0.204,-0.1686,-0.0057,-0.0211,0.0497,0.0263,-0.0159,0.8841,0.0376,0.4545,-0.1069,0.0702,0.157,-0.2152,-0.0114,0.0181,0.4011,0.5313,0.5523,0.5005,0.1949,0.4424,0.6289
0.8353,0.3727,0.2008,-0.0391,-0.12,0.0285,-0.0848,-0.1859,-0.198,-0.0452,-0.063,0.001,-0.0297,-0.0537,1.0063,0.2623,0.5904,-0.081,0.1169,0.311,-0.1438,-0.0467,-0.0577,0.2863,0.4509,0.4568,0.384,0.119,0.5067,0.6647
0.9059,0.5168,0.3295,0.1698,0.0296,0.1403,-0.0671,-0.1278,-0.1753,-0.0385,-0.0603,-0.0298,-0.0895,-0.1209,1.0226,0.4187,0.652,-0.0927,0.1047,0.4137,-0.1223,-0.1278,-0.178,0.1409,0.3467,0.3561,0.2662,0.0469,0.534,0.6478
0.8663,0.5837,0.4143,0.3273,0.1525,0.2274,-0.0185,-0.0413,-0.1034,0.0099,-0.0126,-0.0389,-0.1546,-0.215,0.9301,0.4952,0.6346,-0.148,0.0348,0.4584,-0.1556,-0.2487,-0.3357,-0.0259,0.2303,0.2607,0.1563,-0.0135,0.5154,0.5754
0.7251,0.5755,0.4471,0.4201,0.2353,0.2813,0.0542,0.0601,0.0114,0.0922,0.0743,-0.026,-0.2243,-0.3282,0.7413,0.4921,0.5456,-0.2449,-0.082,0.4486,-0.2385,-0.3973,-0.5171,-0.2014,0.1144,0.1799,0.0628,-0.0552,0.4496,0.4538
0.5044,0.5059,0.4304,0.4449,0.2748,0.3024,0.1454,0.165,0.1615,0.2005,0.1915,0.007,-0.2935,-0.4471,0.4819,0.4208,0.4029,-0.3738,-0.2275,0.3966,-0.3559,-0.5566,-0.704,-0.3702,0.0118,0.1203,-0.007,-0.0724,0.3433,0.2982
0.2351,0.3971,0.3757,0.4081,0.2781,0.2986,0.2518,0.2673,0.3398,0.3288,0.3293,0.0567,-0.3532,-0.554,0.1858,0.302,0.2319,-0.5183,-0.3794,0.322,-0.4856,-0.7078,-0.8764,-0.5151,-0.0669,0.0855,-0.047,-0.0619,0.2106,0.1289
-0.0481,0.2746,0.2997,0.3247,0.2615,0.2827,0.3728,0.3666,0.5409,0.474,0.4793,0.1188,-0.3914,-0.6302,-0.1101,0.161,0.0603,-0.6587,-0.5153,0.2467,-0.6022,-0.8323,-1.0158,-0.6193,-0.1144,0.0771,-0.0524,-0.0235,0.0703,-0.0313
-0.3115,0.162,0.2206,0.2148,0.2464,0.2693,0.5088,0.4669,0.7601,0.6346,0.635,0.1896,-0.3955,-0.659,-0.3721,0.0234,-0.0861,-0.7752,-0.6165,0.1911,-0.682,-0.9157,-1.1075,-0.6685,-0.1269,0.0952,-0.0199,0.0406,-0.0569,-0.1615
-0.5278,0.0767,0.1539,0.0997,0.2533,0.2718,0.6596,0.5734,0.9924,0.8097,0.791,0.2652,-0.356,-0.6294,-0.5752,-0.0897,-0.1883,-0.852,-0.6714,0.1695,-0.7077,-0.9491,-1.1426,-0.6531,-0.104,0.1393,0.0515,0.1257,-0.153,-0.2467
-0.6794,0.0262,0.1095,-0.0022,0.2972,0.2993,0.8222,0.6893,1.2304,0.9959,0.9419,0.3427,-0.2684,-0.5388,-0.7069,-0.1655,-0.238,-0.8809,-0.6771,0.1872,-0.6717,-0.9312,-1.1194,-0.5707,-0.0487,0.2085,0.16,0.2261,-0.2071,-0.2806
-0.7603,0.0073,0.0905,-0.079,0.3824,0.3543,0.9895,0.8133,1.4638,1.1861,1.081,0.4187,-0.1361,-0.3944,-0.7693,-0.2015,-0.2387,-0.8634,-0.64,0.2397,-0.5779,-0.8684,-1.0439,-0.4273,0.0328,0.3001,0.2991,0.3351,-0.2172,-0.2677
-0.7762,0.0077,0.0935,-0.1268,0.5024,0.4329,1.1505,0.9388,1.6784,1.3694,1.2006,0.4901,0.0298,-0.2122,-0.7779,-0.2051,-0.2049,-0.81,-0.5744,0.3138,-0.4404,-0.7733,-0.928,-0.2372,0.1314,0.4091,0.4578,0.4449,-0.1909,-0.2208
-0.7415,0.0101,0.1105,-0.1481,0.6412,0.5252,1.2924,1.0543,1.858,1.5315,1.2929,0.5534,0.2122,-0.014,-0.7573,-0.1904,-0.1577,-0.7372,-0.4979,0.3917,-0.28,-0.662,-0.788,-0.0217,0.2364,0.5271,0.6208,0.548,-0.1425,-0.1583
-0.6755,-0.0031,0.132,-0.1491,0.7779,0.6188,1.4028,1.1463,1.9863,1.658,1.3519,0.6052,0.3914,0.1771,-0.7343,-0.1734,-0.1188,-0.6625,-0.4273,0.455,-0.1195,-0.55,-0.64,0.195,0.3364,0.643,0.7713,0.6369,-0.0876,-0.0972
-0.5974,-0.0444,0.1501,-0.1363,0.893,0.7013,1.473,1.2019,2.0496,1.7371,1.3739,0.643,0.549,0.3415,-0.7298,-0.1669,-0.1041,-0.599,-0.3736,0.4903,0.0222,-0.4484,-0.4975,0.3903,0.4213,0.7453,0.8945,0.7064,-0.0388,-0.0487
-0.5224,-0.1176,0.1608,-0.1133,0.9724,0.7637,1.4997,1.2118,2.0402,1.7627,1.3594,0.6656,0.6719,0.4667,-0.7526,-0.1765,-0.1191,-0.5509,-0.3391,0.4929,0.1333,-0.3619,-0.3688,0.547,0.4845,0.8249,0.9815,0.7543,-0.0011,-0.0142
-0.4594,-0.2173,0.1657,-0.0804,1.0112,0.8018,1.4859,1.1732,1.9579,1.7356,1.3125,0.6735,0.7546,0.5499,-0.7974,-0.1995,-0.1576,-0.5127,-0.3177,0.4679,0.2117,-0.2878,-0.257,0.6568,0.5237,0.8777,1.0323,0.7825,0.0286,0.0141
-0.4102,-0.3301,0.1701,-0.0353,1.0133,0.8167,1.4411,1.0908,1.8116,1.6642,1.2405,0.6686,0.7999,0.5971,-0.8473,-0.2258,-0.2044,-0.4713,-0.2969,0.4292,0.2634,-0.2189,-0.1604,0.7215,0.5417,0.9068,1.0566,0.7969,0.0591,0.05
-0.3729,-0.4386,0.1806,0.0243,0.9893,0.8134,1.3785,0.977,1.6194,1.5628,1.1532,0.6544,0.8169,0.6207,-0.8806,-0.2425,-0.24,-0.4113,-0.2621,0.3947,0.2997,-0.146,-0.074,0.7515,0.5461,0.9229,1.0723,0.8068,0.1004,0.1067
-0.3443,-0.5271,0.2019,0.0982,0.9529,0.7988,1.3128,0.8494,1.4067,1.4495,1.0619,0.6346,0.8181,0.635,-0.8797,-0.2386,-0.2476,-0.3218,-0.2024,0.3809,0.3323,-0.0622,0.0081,0.7633,0.5476,0.9432,1.1016,0.8228,0.1586,0.1914
-0.3237,-0.5859,0.2332,0.1811,0.9159,0.7789,1.257,0.728,1.2043,1.3426,0.9782,0.6126,0.8151,0.6519,-0.8378,-0.2094,-0.2188,-0.2018,-0.1144,0.3968,0.369,0.0333,0.0902,0.7751,0.558,0.9881,1.166,0.855,0.2317,0.2999
-0.3149,-0.6153,0.2671,0.2615,0.8856,0.7567,1.2198,0.632,1.0452,1.2578,0.9132,0.591,0.815,0.676,-0.7629,-0.1599,-0.1572,-0.0632,-0.005,0.4404,0.4104,0.1337,0.1721,0.802,0.5883,1.0774,1.2806,0.9101,0.3084,0.4161
-0.3261,-0.6256,0.29,0.3221,0.8622,0.7314,1.2041,0.5776,0.9599,1.2059,0.8763,0.5703,0.8181,0.7034,-0.676,-0.1041,-0.0786,0.0706,0.1085,0.4978,0.4489,0.2239,0.2478,0.8521,0.6459,1.2249,1.4493,0.9902,0.37,0.5145
-0.3671,-0.6344,0.2852,0.3429,0.8394,0.6985,1.207,0.5766,0.9724,1.1921,0.8742,0.5495,0.8176,0.7215,-0.6056,-0.0632,-0.0074,0.1695,0.202,0.5467,0.4703,0.2836,0.3048,0.9239,0.7329,1.4338,1.6626,1.0911,0.3954,0.5664
-0.4461,-0.6617,0.2372,0.3056,0.8076,0.6522,1.2217,0.6357,1.0962,1.2163,0.9099,0.5263,0.8018,0.7125,-0.579,-0.0592,0.0298,0.2044,0.2504,0.5615,0.4577,0.2917,0.3274,1.0067,0.8448,1.6928,1.897,1.2018,0.3674,0.5478
-0.5651,-0.7234,0.1366,0.199,0.7572,0.5874,1.2398,0.7567,1.3307,1.2743,0.9822,0.4971,0.7584,0.6593,-0.614,-0.1098,0.0122,0.1554,0.2346,0.5212,0.3968,0.2326,0.3011,1.0823,0.97,1.975,2.1178,1.3055,0.2786,0.447
-0.7172,-0.8254,-0.0159,0.0238,0.6837,0.5031,1.2541,0.9345,1.6597,1.359,1.0841,0.4582,0.6792,0.5509,-0.7131,-0.222,-0.069,0.0179,0.1476,0.415,0.2813,0.1016,0.2184,1.1302,1.0909,2.2392,2.2845,1.3811,0.1352,0.2695
-0.8853,-0.9597,-0.2064,-0.205,0.5911,0.4046,1.2611,1.156,2.0512,1.4623,1.2033,0.406,0.5642,0.3883,-0.8616,-0.3883,-0.2056,-0.1935,-0.0014,0.2476,0.1164,-0.0907,0.0841,1.1326,1.1867,2.4361,2.3578,1.406,-0.0423,0.0387
-1.0434,-1.1045,-0.4082,-0.4572,0.493,0.3048,1.2619,1.3997,2.4606,1.5754,1.3231,0.3381,0.4255,0.1877,-1.0292,-0.5857,-0.3721,-0.446,-0.1855,0.0404,-0.0782,-0.3169,-0.0823,1.0805,1.2369,2.5164,2.3079,1.3603,-0.2218,-0.2063
-1.1592,-1.2255,-0.5837,-0.6906,0.4131,0.2239,1.2632,1.637,2.8359,1.6905,1.4245,0.2542,0.2872,-0.0186,-1.176,-0.7764,-0.528,-0.6927,-0.3629,-0.1695,-0.2691,-0.5351,-0.2473,0.9779,1.2254,2.4403,2.1207,1.2303,-0.3645,-0.4168
-1.1984,-1.2813,-0.6904,-0.8556,0.3815,0.1869,1.2762,1.835,3.1238,1.8011,1.4883,0.1561,0.1836,-0.1855,-1.2582,-0.9122,-0.624,-0.8794,-0.4818,-0.3335,-0.4113,-0.6936,-0.3677,0.8424,1.1436,2.1854,1.8016,1.0114,-0.4316,-0.5426
-1.129,-1.23,-0.6874,-0.9032,0.4302,0.2198,1.3144,1.9607,3.2761,1.902,1.4977,0.0476,0.1546,-0.2608,-1.2356,-0.9406,-0.6092,-0.9531,-0.4886,-0.3973,-0.4539,-0.7389,-0.3974,0.7042,0.9921,1.7513,1.3754,0.7099,-0.3907,-0.5395
-0.9257,-1.0359,-0.5427,-0.793,0.5867,0.3444,1.3909,1.9842,3.255,1.9894,1.4397,-0.066,0.2392,-0.1934,-1.0767,-0.8129,-0.4399,-0.8702,-0.336,-0.3096,-0.3471,-0.6246,-0.2954,0.6003,0.7799,1.1596,0.8824,0.3426,-0.2215,-0.376
-0.574,-0.6769,-0.2398,-0.5012,0.868,0.5729,1.5146,1.8823,3.0366,2.0602,1.3068,-0.1782,0.469,0.0577,-0.7629,-0.4925,-0.0872,-0.6027,0.008,-0.0303,-0.051,-0.3199,-0.0338,0.5686,0.5231,0.4505,0.3722,-0.0649,0.082,-0.0379
-0.0726,-0.1493,0.2188,-0.0259,1.2755,0.9046,1.6882,1.6417,2.6136,2.1117,1.0982,-0.2813,0.8609,0.5148,-0.2916,0.037,0.4571,-0.1436,0.5538,0.4609,0.4562,0.1838,0.396,0.6396,0.2413,-0.3233,-0.1034,-0.4809,0.5105,0.4703
0.564,0.5292,0.8109,0.6113,1.7933,1.3245,1.9063,1.2609,1.997,2.1412,0.8207,-0.3663,1.4137,1.1757,0.3227,0.7658,1.1771,0.4924,1.2856,1.158,1.1708,0.8691,0.9798,0.8302,-0.0452,-1.1044,-0.4982,-0.8715,1.0409,1.1251
1.3055,1.3203,1.4967,1.367,2.3884,1.8043,2.1549,0.7519,1.2147,2.1458,0.4877,-0.4241,2.1053,2.0101,1.0483,1.6565,2.033,1.269,2.1612,2.0266,2.0602,1.693,1.6811,1.1395,-0.3188,-1.8384,-0.7776,-1.2049,1.6397,1.8874
2.1068,2.1678,2.2234,2.181,3.0138,2.3064,2.4129,0.139,0.3093,2.1221,0.1183,-0.4469,2.8944,2.9615,1.8387,2.646,2.9652,2.132,3.1158,3.0043,3.0634,2.591,2.4441,1.5464,-0.5658,-2.4794,-0.923,-1.4554,2.2657,2.7053
2.9118,3.0045,2.9314,2.9837,3.6143,2.7881,2.6541,-0.5429,-0.6666,2.0665,-0.2655,-0.4293,3.7246,3.9529,2.6367,3.6524,3.9004,3.0152,4.0692,4.0083,4.0972,3.4845,3.2012,2.0127,-0.7776,-2.9938,-0.9327,-1.606,2.8749,3.5198
3.6592,3.76,3.5615,3.7049,4.133,3.2074,2.851,-1.252,-1.6552,1.9762,-0.6406,-0.3689,4.5316,4.8966,3.3801,4.5853,4.7609,3.8478,4.9362,4.945,5.0669,4.2919,3.8818,2.4884,-0.9501,-3.3615,-0.8206,-1.6502,3.4237,4.2709
4.2896,4.3698,4.0621,4.2816,4.5187,3.5283,2.9797,-1.9438,-2.5989,1.8506,-0.9842,-0.2665,5.2512,5.7065,4.0088,5.358,5.4735,4.5623,5.6376,5.7236,5.8796,4.9389,4.4223,2.9199,-1.0822,-3.5744,-0.6114,-1.5904,3.8736,4.9032
4.7527,4.783,4.3955,4.6654,4.7323,3.7252,3.0236,-2.5747,-3.444,1.6926,-1.2749,-0.1252,5.8278,6.3096,4.4715,5.899,5.9781,5.1024,6.1108,6.2689,6.4574,5.3687,4.7752,3.2585,-1.1748,-3.6341,-0.3354,-1.4364,4.1945,5.3727
5.0133,4.9684,4.5416,4.8275,4.752,3.7857,2.9766,-3.1058,-4.1445,1.5097,-1.4939,0.0495,6.2201,6.6558,4.7312,6.161,6.235,5.4289,6.3172,6.5312,6.7483,5.5483,4.9146,3.4679,-1.2283,-3.5488,-0.0231,-1.2032,4.3671,5.6506
5.0554,4.9173,4.5001,4.7602,4.5751,3.7115,2.844,-3.5057,-4.664,1.3131,-1.6266,0.2501,6.4045,6.7231,4.7693,6.1263,6.2285,5.5232,6.2462,6.4921,6.732,5.4707,4.8381,3.5282,-1.242,-3.3313,0.2986,-0.9085,4.3849,5.726
4.8833,4.6427,4.2876,4.4767,4.2174,3.5159,2.6398,-3.7528,-4.9775,1.1156,-1.6641,0.4661,6.3746,6.5172,4.5875,5.807,5.9674,5.3883,5.9144,6.1645,6.4201,5.1527,4.5649,3.4375,-1.2136,-2.9978,0.609,-0.572,4.2533,5.6054
4.5197,4.1748,3.9337,4.0069,3.7091,3.2212,2.3835,-3.8364,-5.0729,0.929,-1.6055,0.6843,6.1381,6.0675,4.2067,5.2408,5.4821,5.0462,5.3604,5.5875,5.8504,4.6299,4.1296,3.2088,-1.1403,-2.5672,0.8932,-0.2139,3.9881,5.3099
4.0011,3.555,3.4745,3.3915,3.0895,2.8531,2.0945,-3.7567,-4.9515,0.7603,-1.4587,0.8887,5.7129,5.4186,3.6628,4.4825,4.8178,4.5336,4.6372,4.8174,5.0783,3.9489,3.5751,2.8655,-1.02,-2.0611,1.141,0.1451,3.6126,4.8706
3.3712,2.8278,2.9466,2.6755,2.3998,2.4368,1.7881,-3.5242,-4.6289,0.6099,-1.2416,1.0606,5.1212,4.6218,3.0012,3.5944,4.027,3.8952,3.8024,3.9164,4.1658,3.1595,2.9449,2.4356,-0.853,-1.5035,1.3446,0.4848,3.1533,4.3226
2.6746,2.0348,2.3813,1.9012,1.6781,1.9934,1.4724,-3.1581,-4.1339,0.4697,-0.9817,1.1802,4.3861,3.726,2.2695,2.6362,3.1609,3.1783,2.9101,2.9436,3.1722,2.3086,2.2768,1.9465,-0.6426,-0.9196,1.4967,0.7859,2.6373,3.7013
1.9517,1.2106,1.8023,1.1035,0.9549,1.5383,1.1482,-2.6846,-3.5077,0.3249,-0.7139,1.2275,3.529,2.7727,1.5114,1.6577,2.2632,2.4269,2.0048,1.9471,2.1471,1.4355,1.6006,1.4222,-0.3958,-0.3351,1.5899,1.0311,2.0899,3.0398
1.2366,0.3824,1.225,0.3082,0.2527,1.082,0.8111,-2.1349,-2.7995,0.1565,-0.4769,1.1847,2.5703,1.7936,0.7632,0.6961,1.3674,1.6794,1.1192,0.9617,1.1281,0.5716,0.9373,0.8815,-0.1223,0.2261,1.6172,1.2059,1.5341,2.3679
0.556,-0.428,0.6592,-0.4677,-0.4133,0.6325,0.4559,-1.5425,-2.0619,-0.0526,-0.3073,1.0394,1.5319,0.8129,0.0516,-0.2245,0.4972,0.9669,0.2753,0.0102,0.1419,-0.2586,0.302,0.34,0.166,0.743,1.5741,1.3,0.9911,1.7132
-0.0696,-1.2007,0.1124,-1.2133,-1.0323,0.1982,0.0816,-0.9399,-1.3442,-0.313,-0.2335,0.787,0.4405,-0.1488,-0.6046,-1.089,-0.331,0.3133,-0.5124,-0.8923,-0.7919,-1.0346,-0.2929,-0.1876,0.4556,1.1986,1.4616,1.3086,0.4805,1.1012
-0.6251,-1.9157,-0.406,-1.9206,-1.595,-0.2101,-0.305,-0.3556,-0.6871,-0.6228,-0.27,0.4333,-0.6695,-1.0702,-1.1928,-1.8876,-1.1043,-0.2635,-1.2322,-1.734,-1.6569,-1.7373,-0.835,-0.6851,0.7326,1.5809,1.2879,1.2329,0.0204,0.5548
-1.1002,-2.5518,-0.8828,-2.581,-2.092,-0.5783,-0.6867,0.188,-0.1175,-0.9659,-0.4138,-0.0039,-1.7548,-1.9258,-1.7039,-2.6115,-1.8102,-0.7511,-1.8727,-2.5025,-2.4362,-2.3472,-1.3098,-1.1332,0.9836,1.8831,1.0702,1.0806,-0.3737,0.0929
-1.4892,-3.089,-1.3008,-3.184,-2.5128,-0.8902,-1.0368,0.6754,0.3534,-1.3112,-0.6431,-0.4946,-2.7639,-2.685,-2.1315,-3.2513,-2.4354,-1.1425,-2.4213,-3.1823,-3.1115,-2.8451,-1.7017,-1.5094,1.1973,2.104,0.8342,0.8668,-0.6901,-0.2715
-1.7914,-3.511,-1.641,-3.7165,-2.8461,-1.1299,-1.3219,1.0988,0.7311,-1.6156,-0.9187,-0.9974,-3.6407,-3.3134,-2.4713,-3.7964,-2.9664,-1.4361,-2.8643,-3.7565,-3.663,-3.2131,-1.9955,-1.7885,1.3668,2.2489,0.6128,0.614,-0.9229,-0.5336
-2.01,-3.8081,-1.8865,-4.1631,-3.081,-1.2846,-1.5061,1.4573,1.0348,-1.8295,-1.1885,-1.4623,-4.3286,-3.7769,-2.7223,-4.2366,-3.3911,-1.636,-3.1897,-4.2084,-4.0714,-3.4371,-2.1792,-1.9453,1.4913,2.3298,0.4434,0.3521,-1.073,-0.6968
-2.1512,-3.979,-2.0261,-4.5079,-3.209,-1.3468,-1.5567,1.7558,1.293,-1.9032,-1.3944,-1.8351,-4.7771,-4.0458,-2.8867,-4.5642,-3.7015,-1.7513,-3.3896,-4.5255,-4.3203,-3.5089,-2.2466,-1.9572,1.5771,2.3654,0.3637,0.1169,-1.1475,-0.7726
-2.222,-4.0309,-2.0568,-4.736,-3.2253,-1.3157,-1.4491,2.004,1.5379,-1.795,-1.4808,-2.0645,-4.947,-4.0997,-2.9701,-4.7762,-3.8953,-1.7947,-3.4623,-4.7023,-4.3986,-3.4282,-2.1984,-1.8079,1.636,2.3789,0.4073,-0.0535,-1.1583,-0.7776
-2.2287,-3.9775,-1.9844,-4.8366,-3.1297,-1.1969,-1.171,2.2142,1.7987,-1.478,-1.4033,-2.1098,-4.8156,-3.9307,-2.9799,-4.8752,-3.9771,-1.7806,-3.4132,-4.7419,-4.3031,-3.2028,-2.0425,-1.4904,1.6832,2.3952,0.5979,-0.124,-1.1195,-0.7306
-2.1761,-3.837,-1.8216,-4.8045,-2.9276,-1.0013,-0.7252,2.3998,2.0971,-0.9449,-1.1365,-1.9471,-4.3801,-3.5452,-2.9256,-4.8704,-3.9573,-1.7224,-3.2552,-4.6563,-4.0396,-2.8486,-1.7935,-1.0095,1.7332,2.4358,0.9451,-0.0685,-1.0442,-0.6489
-2.0684,-3.6297,-1.5861,-4.6435,-2.6303,-0.7436,-0.13,2.5731,2.4425,-0.2116,-0.6785,-1.5755,-3.6593,-2.9637,-2.8176,-4.7764,-3.8514,-1.6318,-3.0066,-4.465,-3.6237,-2.3876,-1.4708,-0.3836,1.7963,2.5156,1.441,0.1247,-0.9429,-0.5464
-1.9104,-3.3771,-1.299,-4.3673,-2.2545,-0.4411,0.5811,2.7428,2.8307,0.6831,-0.0536,-1.0179,-2.6936,-2.2191,-2.668,-4.6122,-3.6782,-1.5181,-2.6897,-4.1925,-3.0807,-1.8473,-1.0966,0.3556,1.8764,2.6391,2.0587,0.4494,-0.8239,-0.4328
-1.7098,-3.101,-0.9833,-4.0004,-1.8224,-0.1131,1.3623,2.9116,3.2429,1.6795,0.6904,-0.3199,-1.5427,-1.3552,-2.491,-4.4005,-3.4582,-1.3895,-2.3287,-3.8662,-2.4438,-1.2578,-0.6948,1.165,1.9705,2.8006,2.7548,0.881,-0.6945,-0.3153
-1.4783,-2.8233,-0.6638,-3.576,-1.361,0.22,2.1592,3.0742,3.6487,2.7021,1.487,0.455,-0.2818,-0.4224,-2.3034,-4.1655,-3.2126,-1.2538,-1.9479,-3.5144,-1.7527,-0.6506,-0.2888,1.9932,2.0701,2.9857,3.4732,1.3793,-0.5634,-0.1998
-1.2321,-2.5646,-0.3652,-3.133,-0.8998,0.5369,2.9135,3.2177,4.0105,3.6674,2.2598,1.2336,1.0046,0.5249,-2.1244,-3.9306,-2.9617,-1.1197,-1.5701,-3.1635,-1.0493,-0.0558,0.0995,2.7858,2.1639,3.1741,4.1522,1.8943,-0.4421,-0.0931
-0.99,-2.3427,-0.1094,-2.7101,-0.468,0.8184,3.5698,3.3237,4.2898,4.4934,2.9319,1.9417,2.2303,1.4339,-1.9738,-3.7161,-2.7231,-0.9964,-1.2144,-2.8355,-0.3739,0.5,0.4525,3.4908,2.2416,3.3445,4.7328,2.3735,-0.3444,-0.0024
-0.7717,-2.1699,0.088,-2.3398,-0.0904,1.0492,4.0813,3.3729,4.4539,5.1091,3.4368,2.514,3.3154,2.2577,-1.8701,-3.5366,-2.5099,-0.8917,-0.8948,-2.5461,0.2395,0.9964,0.7577,4.0651,2.296,3.4779,5.1665,2.7693,-0.2839,0.0655
-0.5947,-2.0518,0.2199,-2.0431,0.217,1.2202,4.4153,3.3512,4.4822,5.4633,3.7272,2.902,4.1945,2.96,-1.8275,-3.3988,-2.3289,-0.811,-0.6185,-2.3022,0.7671,1.4211,1.01,4.479,2.326,3.5612,5.4214,3.0465,-0.2713,0.1065
-0.4727,-1.986,0.2896,-1.8259,0.4492,1.3305,4.5573,3.2537,4.369,5.5316,3.7809,3.0802,4.8229,3.5187,-1.8529,-3.3013,-2.1792,-0.7543,-0.3855,-2.1018,1.1976,1.7708,1.2116,4.7197,2.3366,3.5894,5.4861,3.1864,-0.3112,0.1208
-0.4135,-1.9624,0.309,-1.6791,0.6134,1.3876,4.5127,3.0882,4.1251,5.3186,3.6036,3.0485,5.1806,3.9272,-1.9446,-3.2356,-2.0528,-0.7163,-0.1883,-1.9346,1.5323,2.0513,1.3723,4.7926,2.3385,3.5659,5.3705,3.1892,-0.4011,0.1136
-0.4186,-1.9658,0.2956,-1.5811,0.7272,1.4063,4.3055,2.8739,3.7759,4.8576,3.2269,2.8308,5.2734,4.1943,-2.0912,-3.1882,-1.9362,-0.6862,-0.0139,-1.7847,1.7837,2.2768,1.5081,4.7198,2.3461,3.5022,5.1032,3.0728,-0.5319,0.0943
-0.4833,-1.9786,0.2675,-1.5038,0.8144,1.4063,3.9747,2.6386,3.3577,4.2059,2.7031,2.4708,5.1304,4.3413,-2.273,-3.1442,-1.8133,-0.6504,0.1539,-1.6342,1.9714,2.467,1.6384,4.5363,2.3747,3.4155,4.727,2.8688,-0.6899,0.0742
-0.5974,-1.9849,0.2397,-1.4192,0.8999,1.4085,3.5698,2.4135,2.9139,3.4387,2.0981,2.0249,4.7996,4.3973,-2.4653,-3.0905,-1.6698,-0.5958,0.3312,-1.4678,2.1183,2.6439,1.7824,4.286,2.4369,3.326,4.2935,2.6179,-0.8599,0.0633
-0.7473,-1.9736,0.2202,-1.3064,1.0043,1.4313,3.1441,2.2286,2.4899,2.6401,1.4837,1.5556,4.3421,4.3945,-2.6433,-3.0193,-1.4967,-0.5136,0.5299,-1.2762,2.2456,2.827,1.9546,4.0156,2.5412,3.2546,3.8575,2.3639,-1.0293,0.0668
-0.919,-1.9417,0.2088,-1.1565,1.1399,1.4859,2.7506,2.1079,2.1295,1.8961,0.9305,1.1252,3.825,4.3631,-2.7886,-2.9301,-1.2944,-0.4034,0.7543,-1.059,2.3695,3.0293,2.1611,3.7696,2.6901,3.2206,3.4715,2.1489,-1.1912,0.0827
-1.1013,-1.8951,0.197,-0.9749,1.3086,1.5746,2.4365,2.0667,1.8709,1.2856,0.5013,0.7892,3.3156,4.3281,-2.894,-2.831,-1.0742,-0.2751,0.9987,-0.8255,2.4989,3.255,2.3972,3.586,2.8807,3.2405,3.182,2.0094,-1.347,0.0994
-1.2891,-1.848,0.169,-0.7799,1.5033,1.6897,2.2403,2.1099,1.7435,0.8742,0.2463,0.5921,2.876,4.3078,-2.9674,-2.7373,-0.8571,-0.1489,1.248,-0.5929,2.6355,3.4985,2.6483,3.494,3.1066,3.3266,3.0261,1.973,-1.5065,0.0975
-1.4849,-1.8197,0.1051,-0.5986,1.7104,1.8162,2.1893,2.2327,1.7653,0.708,0.1978,0.5631,2.5586,4.3142,-3.0307,-2.6686,-0.6698,-0.0511,1.4808,-0.3831,2.7749,3.7472,2.8935,3.5129,3.3598,3.4873,3.0296,2.0564,-1.6861,0.0531
-1.698,-1.8298,-0.0139,-0.4595,1.9146,1.9355,2.2985,2.4234,1.9415,0.8107,0.3685,0.7144,2.4037,4.3552,-3.1152,-2.6441,-0.5389,-0.0087,1.6752,-0.2172,2.9099,3.9851,3.1108,3.6522,3.633,3.7262,3.205,2.2648,-1.9035,-0.0562
-1.9409,-1.8921,-0.2023,-0.3854,2.1031,2.0301,2.5697,2.666,2.2641,1.1813,0.7495,1.04,2.4369,4.4364,-3.2535,-2.6775,-0.4836,-0.0428,1.8141,-0.1108,3.0335,4.1981,3.2831,3.9124,3.9198,4.041,3.5513,2.5917,-2.1727,-0.2461
-2.2247,-2.0108,-0.4651,-0.388,2.2687,2.0873,2.992,2.9441,2.7127,1.7954,1.3124,1.5176,2.6678,4.563,-3.47,-2.7731,-0.5109,-0.1633,1.8898,-0.0697,3.142,4.3772,3.4013,4.2858,4.2142,4.423,4.0526,3.0199,-2.4991,-0.5207
-2.5538,-2.1781,-0.7962,-0.4651,2.4108,2.1018,3.5427,3.2418,3.257,2.608,2.0127,2.1116,3.0897,4.7391,-3.7742,-2.9239,-0.6135,-0.3667,1.9058,-0.0884,3.2358,4.5201,3.4644,4.7559,4.5083,4.855,4.679,3.523,-2.8781,-0.8722
-2.9224,-2.3747,-1.1784,-0.6008,2.5342,2.0755,4.1885,3.5446,3.8605,3.5576,2.7958,2.7778,3.6794,4.9673,-4.1565,-3.1118,-0.7701,-0.6365,1.8756,-0.1503,3.3201,4.6309,3.4782,5.2983,4.791,5.3116,5.3878,4.0678,-3.2946,-1.2818
-3.3124,-2.5728,-1.5857,-0.768,2.648,2.0169,4.8889,3.8396,4.4847,4.5738,3.6043,3.4693,4.4007,5.2483,-4.5887,-3.3096,-0.949,-0.9458,1.8204,-0.2296,3.4041,4.7181,3.4524,5.8812,5.047,5.7595,6.1268,4.6171,-3.725,-1.723
-3.6941,-2.7401,-1.986,-0.9331,2.7631,1.939,5.6001,4.1151,5.0925,5.5834,4.3843,4.142,5.2077,5.5794,-5.0278,-3.4841,-1.1125,-1.2607,1.7657,-0.294,3.4998,4.7925,3.3991,6.4675,5.2583,6.1607,6.8388,5.1333,-4.1406,-2.1647
-4.0303,-2.8442,-2.3459,-1.0606,2.8906,1.8578,6.278,4.3611,5.6499,6.5175,5.0895,4.7576,6.0499,5.9552,-5.4217,-3.5994,-1.2217,-1.5439,1.7385,-0.3084,3.6214,4.8655,3.3314,7.0178,5.4068,6.4762,7.4668,5.5803,-4.5101,-2.5739
-4.2815,-2.8569,-2.6336,-1.1185,3.0405,1.7903,6.8831,4.5698,6.1266,7.3163,5.6828,5.2846,6.877,6.3676,-5.7178,-3.6208,-1.2407,-1.7589,1.7639,-0.2385,3.7837,4.9477,3.263,7.4935,5.4765,6.6706,7.959,5.9258,-4.8032,-2.9184
-4.413,-2.757,-2.8225,-1.0809,3.2211,1.7533,7.3823,4.7351,6.4954,7.9322,6.1346,5.6967,7.6423,6.8062,-5.8711,-3.5178,-1.141,-1.8735,1.8635,-0.0545,4.001,5.0483,3.2077,7.8604,5.4573,6.7166,8.273,6.1414,-4.9941,-3.1689
-4.4004,-2.5315,-2.8933,-0.9307,3.4383,1.7619,7.7516,4.852,6.7321,8.3316,6.4211,5.9703,8.3065,7.2595,-5.8513,-3.2667,-0.9035,-1.8639,2.0528,0.2662,4.2859,5.1754,3.1785,8.0927,5.3462,6.5999,8.3793,6.2043,-5.0646,-3.3017
-4.2339,-2.1762,-2.8349,-0.6588,3.6956,1.8284,7.977,4.9155,6.8172,8.4953,6.5227,6.0834,8.8387,7.7152,-5.6478,-2.8533,-0.5202,-1.7174,2.3405,0.7367,4.6479,5.3357,3.1883,8.1759,5.1496,6.3218,8.2644,6.0991,-5.0063,-3.3009
-3.9189,-1.6947,-2.6451,-0.2645,3.9938,1.9612,8.0543,4.9199,6.7394,8.4195,6.4257,6.0171,9.2176,8.1607,-5.2712,-2.2737,0.0051,-1.4344,2.7272,1.3591,5.0918,5.5347,3.2483,8.1092,4.8834,5.9009,7.9326,5.82,-4.8216,-3.1603
-3.4746,-1.0977,-2.3294,0.246,4.3304,2.1636,7.9887,4.8603,6.4992,8.1156,6.1254,5.7597,9.4312,8.5823,-4.751,-1.5365,0.6572,-1.0295,3.2055,2.1233,5.6146,5.7751,3.3672,7.9057,4.5719,5.3721,7.407,5.3748,-4.524,-2.8854
-2.9318,-0.4037,-1.9023,0.8586,4.6974,2.4328,7.793,4.7339,6.1124,7.61,5.6316,5.3118,9.4755,8.9643,-4.132,-0.6638,1.4093,-0.5302,3.7588,3.005,6.2035,6.0556,3.5485,7.5905,4.2446,4.7822,6.7281,4.786,-4.1368,-2.4942
-2.3297,0.3606,-1.3863,1.5504,5.081,2.7587,7.486,4.5436,5.6104,6.9426,4.9718,4.6919,9.354,9.2877,-3.469,0.3072,2.2235,0.0245,4.3612,3.966,6.8329,6.3676,3.7873,7.1969,3.9321,4.1844,5.9508,4.0916,-3.6921,-2.0179
-1.713,1.1599,-0.8124,2.2888,5.4609,3.1234,7.0912,4.3007,5.0389,6.1653,4.1936,3.9394,9.0768,9.5309,-2.8211,1.3258,3.0517,0.5881,4.9782,4.9543,7.465,6.6943,4.069,6.762,3.6612,3.6316,5.1403,3.344,-3.228,-1.4998
-1.1291,1.9505,-0.2184,3.0318,5.8122,3.5021,6.6362,4.0263,4.4534,5.3393,3.3632,3.115,8.6613,9.6719,-2.2455,2.3306,3.8398,1.1112,5.5687,5.9085,8.0525,7.0116,4.3695,6.3235,3.4521,3.1715,4.3667,2.6058,-2.7856,-0.991
-0.6233,2.6849,0.3547,3.7309,6.1096,3.8652,6.1528,3.7501,3.9131,4.5314,2.5597,2.2962,8.1335,9.6933,-1.7915,3.2567,4.533,1.5484,6.0905,6.7649,8.5458,7.2913,4.6582,5.9165,3.3164,2.8419,3.6994,1.9451,-2.4038,-0.5439
-0.2331,3.3173,0.8678,4.3379,6.3321,4.1834,5.6763,3.5061,3.474,3.8093,1.8652,1.5682,7.5295,9.5875,-1.4929,4.0448,5.0838,1.8652,6.5058,7.4665,8.9017,7.5071,4.9038,5.572,3.2575,2.6681,3.1995,1.4276,-2.1133,-0.2037
0.0184,3.8115,1.2892,4.8122,6.4687,4.432,5.2445,3.3273,3.1812,3.2352,1.3539,1.0122,6.8955,9.362,-1.3625,4.6514,5.4598,2.0441,6.7883,7.9725,9.0927,7.6401,5.0801,5.3156,3.2714,2.6601,2.9132,1.1082,-1.9313,-0.0003
0.1278,4.1483,1.6003,5.1292,6.5224,4.5974,4.8955,3.24,3.063,2.8602,1.0801,0.6925,6.2855,9.0418,-1.3888,5.0565,5.6501,2.0872,6.9285,8.2667,9.114,7.6838,5.1717,5.1661,3.3484,2.8123,2.8652,1.0218,-1.8584,0.0582
0.1131,4.3297,1.798,5.2853,6.5106,4.6799,4.6641,3.2593,3.1273,2.7176,1.0695,0.645,5.7573,8.6685,-1.5371,5.2674,5.6675,2.016,6.9352,8.3597,8.9864,7.6457,5.1768,5.1346,3.4752,3.103,3.0546,1.1773,-1.8786,-0.0135
0.0103,4.3791,1.8948,5.3,6.4628,4.6949,4.5777,3.3866,3.36,2.8184,1.3142,0.8705,5.3655,8.2952,-1.7568,5.3162,5.5461,1.8656,6.8349,8.2879,8.7531,7.5464,5.1067,5.2227,3.6356,3.4967,3.4537,1.5534,-1.963,-0.1815
-0.1339,4.3366,1.9153,5.2118,6.4146,4.669,4.6511,3.6093,3.7275,3.1491,1.7735,1.3321,5.1546,7.979,-1.9916,5.2533,5.3351,1.6773,6.6661,8.1062,8.4728,7.4143,4.983,5.4214,3.812,3.9466,4.0104,2.0998,-2.0769,-0.4001
-0.2721,4.2506,1.8902,5.0711,6.3996,4.6339,4.8833,3.9024,4.1811,3.6718,2.3793,1.9607,5.151,7.7704,-2.1908,5.1363,5.0894,1.4903,6.473,7.878,8.2078,7.2805,4.8327,5.7111,3.9862,4.3993,4.6541,2.743,-2.1874,-0.622
-0.3659,4.1685,1.8496,4.93,6.4421,4.6197,5.2556,4.2324,4.6641,4.3284,3.0467,2.6648,5.3583,7.7051,-2.3188,5.0196,4.8604,1.3341,6.2972,7.6637,8.0135,7.1724,4.6829,6.062,4.1395,4.8005,5.3044,3.3962,-2.2699,-0.8079
-0.3919,4.1275,1.8172,4.8326,6.552,4.6477,5.732,4.5616,5.1207,5.0474,3.6875,3.3457,5.755,7.7969,-2.3594,4.9453,4.6877,1.2257,6.1716,7.5109,7.928,7.1087,4.5564,6.4373,4.2549,5.1013,5.882,3.9724,-2.3117,-0.9323
-0.3441,4.1485,1.8058,4.8069,6.7232,4.7261,6.2631,4.8535,5.5039,5.7531,4.2241,3.9132,6.2971,8.0353,-2.3153,4.9368,4.5946,1.169,6.1159,7.4472,7.9663,7.0974,4.4687,6.7965,4.3183,5.2653,6.3194,4.3973,-2.312,-0.9866
-0.2322,4.2332,1.8162,4.8609,6.9349,4.8482,6.7921,5.0778,5.7816,6.3751,4.6013,4.2994,6.9224,8.3864,-2.2037,4.9974,4.5855,1.1572,6.134,7.4771,8.1189,7.1344,4.4264,7.1005,4.3209,5.274,6.5701,4.6217,-2.2791,-0.9773
-0.077,4.3654,1.8386,4.9814,7.1565,4.9946,7.2612,5.214,5.939,6.857,4.7926,4.4687,7.5587,8.7986,-2.0507,5.1118,4.6479,1.1763,6.2146,7.5831,8.354,7.2054,4.4269,7.3162,4.2607,5.1302,6.6147,4.6285,-2.2268,-0.9214
0.0946,4.5152,1.8567,5.1383,7.3529,5.1365,7.6198,5.2542,5.9783,7.162,4.8006,4.4207,8.1332,9.2099,-1.8844,5.2512,4.7554,1.2094,6.334,7.7301,8.6242,7.2879,4.4595,7.42,4.1441,4.8581,6.4621,4.4347,-2.1702,-0.8416
0.2557,4.6457,1.8528,5.2904,7.4901,5.2417,7.8296,5.2018,5.9142,7.2748,4.6527,4.1861,8.5801,9.5571,-1.7301,5.3796,4.8739,1.2391,6.4602,7.8738,8.8749,7.3556,4.5069,7.4004,3.985,4.4991,6.1461,4.0868,-2.1228,-0.7604
0.3843,4.7204,1.8128,5.3944,7.54,5.2805,7.8675,5.0694,5.7673,7.2,4.3905,3.8173,8.8481,9.7838,-1.6062,5.4616,4.9678,1.2507,6.5586,7.9686,9.0531,7.381,4.5486,7.2576,3.8021,4.1042,5.7175,3.65,-2.0945,-0.6968
0.4663,4.7111,1.73,5.4127,7.4826,5.2308,7.7264,4.873,5.5581,6.9566,4.0592,3.3755,8.9044,9.8477,-1.5226,5.4686,5.0058,1.2331,6.5975,7.9765,9.1159,7.3398,4.5633,7.0016,3.6146,3.724,5.2339,3.1948,-2.0902,-0.663
0.498,4.6029,1.6066,5.3209,7.3082,5.0814,7.4131,4.6285,5.3013,6.572,3.6975,2.9187,8.7357,9.7248,-1.4794,5.3842,4.9669,1.1813,6.5536,7.8733,9.0367,7.2138,4.532,6.6488,3.4381,3.3997,4.7493,2.7827,-2.1093,-0.6629
0.4859,4.3982,1.4534,5.112,7.018,4.8343,6.9453,4.3477,5.0041,6.0758,3.3322,2.4927,8.3491,9.4124,-1.4673,5.2071,4.8439,1.0967,6.4159,7.6527,8.8087,6.9942,4.4418,6.2199,3.282,3.156,4.3061,2.4567,-2.1451,-0.691
0.4463,4.1167,1.2885,4.7991,6.6254,4.5047,6.3499,4.0377,4.6671,5.4968,2.9766,2.1275,7.7702,8.9291,-1.4694,4.9515,4.6449,0.9889,6.1885,7.3276,8.4457,6.6841,4.2889,5.7371,3.1485,2.9988,3.9307,2.2359,-2.1841,-0.7329
0.4032,3.7929,1.135,4.4134,6.1559,4.1202,5.6601,3.7013,4.2879,4.861,2.6337,1.8371,7.0408,8.3133,-1.463,4.6454,4.3929,0.8754,5.8913,6.9282,7.9805,6.3,4.0806,5.2238,3.0339,2.9165,3.6332,2.1165,-2.2071,-0.7657
0.386,3.4716,1.0189,3.9997,5.6465,3.7175,4.9148,3.3399,3.8651,4.1918,2.3004,1.6229,6.216,7.6187,-1.4222,4.3263,4.1218,0.7807,5.5573,6.497,7.4605,5.871,3.8364,4.7042,2.9313,2.8848,3.4093,2.0775,-2.1899,-0.761
0.4255,3.2007,0.9655,3.61,5.1432,3.3381,4.1561,2.9567,3.4024,3.5117,1.9725,1.4776,5.3593,6.9078,-1.3217,4.0358,3.8711,0.7335,5.2282,6.0828,6.941,5.4359,3.585,4.203,2.8332,2.8724,3.2448,2.0881,-2.1075,-0.6886
0.5498,3.0237,0.9961,3.2941,4.6954,3.0228,3.4283,2.5595,2.9108,2.8435,1.6478,1.3886,4.5367,6.2444,-1.1399,3.8128,3.6786,0.7611,4.9478,5.732,6.4776,5.0369,3.3599,3.7446,2.7329,2.8475,3.1194,2.1155,-1.9384,-0.5229
0.7782,2.9718,1.1237,3.0918,4.3499,2.8057,2.774,2.1628,2.4081,2.2104,1.3276,1.3408,3.8108,5.6853,-0.8643,3.6871,3.5736,0.8838,4.7537,5.4823,6.1182,4.7136,3.1927,3.3511,2.6257,2.7826,3.0109,2.1302,-1.6714,-0.2498
1.1161,3.0589,1.3492,3.0262,4.1432,2.7091,2.2312,1.7865,1.9168,1.6355,1.0161,1.3174,3.2334,5.2736,-0.4952,3.6745,3.5712,1.1084,4.6709,5.3567,5.8962,4.496,3.1068,3.0398,2.5084,2.6571,2.8974,2.1091,-1.3097,0.128
1.5511,3.2779,1.6596,3.0997,4.0953,2.7405,1.8285,1.4538,1.4606,1.1395,0.7178,1.2998,2.8399,5.0337,-0.0487,3.7738,3.6693,1.4245,4.7067,5.3607,5.8259,4.3997,3.1119,2.8208,2.3786,2.4589,2.7591,2.0365,-0.874,0.5884
2.0519,3.6014,2.0286,3.294,4.2059,2.8908,1.5818,1.1868,1.0599,0.7381,0.4359,1.2687,2.6454,4.9692,0.4433,3.9659,3.8486,1.8042,4.8486,5.4814,5.9006,4.4235,3.2016,2.6947,2.2346,2.1843,2.5799,1.9032,-0.4004,1.0918
2.5707,3.9849,2.4193,3.5729,4.4537,3.1359,1.4913,1.003,0.7294,0.4407,0.1712,1.2048,2.6435,5.0636,0.9361,4.2166,4.0751,2.2057,5.0664,5.6902,6.0941,4.5499,3.355,2.6523,2.0759,1.8381,2.3483,1.7058,0.0642,1.587
3.049,4.3727,2.7887,3.887,4.798,3.4392,1.5416,0.9115,0.4773,0.2492,-0.077,1.0919,2.8076,5.2834,1.3776,4.4806,4.3058,2.5792,5.3171,5.9457,6.3645,4.748,3.5407,2.6761,1.904,1.4334,2.0597,1.4466,0.4703,2.0192
3.4266,4.705,3.0932,4.1803,5.1842,3.7556,1.7034,0.9121,0.3059,0.159,-0.3084,0.9197,3.0955,5.5828,1.7156,4.7079,4.494,2.875,5.5512,6.199,6.6597,4.9785,3.7233,2.7433,1.7236,0.9916,1.7185,1.1341,0.7729,2.3386
3.6504,4.9259,3.2943,4.3975,5.5503,4.0373,1.9379,0.9957,0.2141,0.1608,-0.5191,0.688,3.4557,5.9094,1.9054,4.8493,4.5961,3.0502,5.7205,6.3985,6.9245,5.1985,3.8694,2.8294,1.5428,0.5414,1.3383,0.7841,0.9389,2.5074
3.6836,4.9897,3.3626,4.4911,5.8348,4.2391,2.2019,1.1462,0.1994,0.2428,-0.6992,0.4079,3.8338,6.2099,1.9167,4.8631,4.5761,3.075,5.7839,6.4952,7.1059,5.3669,3.9516,2.9112,1.3732,0.1159,0.9424,0.4187,0.9513,2.5049
3.5118,4.8663,3.2814,4.4263,5.9845,4.3245,2.4535,1.3426,0.2589,0.3914,-0.8338,0.1014,4.1791,6.4347,1.7387,4.7194,4.41,2.9355,5.7118,6.448,7.1592,5.4472,3.951,2.9696,1.2275,-0.251,0.5606,0.065,0.8111,2.3292
3.1448,4.5431,3.0471,4.1848,5.9601,4.2693,2.6558,1.5606,0.3884,0.5914,-0.9064,-0.2015,4.4488,6.5421,1.382,4.402,4.0873,2.6345,5.4882,6.2274,7.0514,5.4112,3.856,2.9899,1.1169,-0.5303,0.2248,-0.2483,0.5357,1.9959
2.6137,4.0249,2.6686,3.7645,5.7393,4.0635,2.7794,1.7737,0.5791,0.8247,-0.9039,-0.4689,4.6106,6.4999,0.8765,3.9095,3.6104,2.1893,5.1105,5.8185,6.7633,5.2393,3.6615,2.9611,1.0481,-0.7028,-0.0368,-0.4958,0.1546,1.5343
1.9648,3.3311,2.1655,3.1785,5.3173,3.7105,2.8027,1.9538,0.8149,1.0685,-0.8227,-0.6727,4.6428,6.2876,0.2667,3.2533,2.9939,1.6281,4.5874,5.222,6.2894,4.922,3.3675,2.8751,1.021,-0.7631,-0.2051,-0.6588,-0.2961,0.9817
1.2509,2.494,1.5655,2.4515,4.7055,3.2251,2.7114,2.0735,1.0709,1.2948,-0.6721,-0.794,4.5341,5.8965,-0.395,2.4562,2.262,0.9855,3.9373,4.4543,5.6386,4.4598,2.9791,2.7253,1.0272,-0.721,-0.2744,-0.7282,-0.7793,0.3782
0.5245,1.5556,0.9022,1.6171,3.9295,2.6316,2.4975,2.1078,1.3137,1.4717,-0.4748,-0.8261,4.2824,5.331,-1.0566,1.5506,1.4468,0.3001,3.1864,3.5454,4.8322,3.8644,2.5071,2.5063,1.0521,-0.5991,-0.253,-0.7058,-1.2607,-0.2371
-0.1685,0.566,0.2141,0.7156,3.0267,1.9609,2.1593,2.0388,1.5045,1.5659,-0.264,-0.7745,3.8936,4.6088,-1.6715,0.5771,0.5868,-0.3886,2.3679,2.5375,3.9038,3.1579,1.9689,2.215,1.0774,-0.4292,-0.1621,-0.6032,-1.7106,-0.8275
-0.7905,-0.4193,-0.4578,-0.2077,2.0441,1.2481,1.7005,1.8578,1.6037,1.5465,-0.0789,-0.656,3.3815,3.7608,-2.2035,-0.4165,-0.2746,-1.0409,1.5207,1.4811,2.897,2.3722,1.3885,1.8509,1.0851,-0.2472,-0.033,-0.4407,-2.1038,-1.3598
-1.3128,-1.3419,-1.0721,-1.1047,1.0353,0.5309,1.131,1.5675,1.5763,1.389,0.0419,-0.4959,2.7661,2.8292,-2.6272,-1.3775,-1.0915,-1.6189,0.6876,0.4327,1.863,1.5469,0.795,1.4173,1.0609,-0.089,0.0973,-0.245,-2.4198,-1.8043
-1.7147,-2.1457,-1.5902,-1.926,0.0572,-0.1526,0.4661,1.1814,1.3966,1.0782,0.0651,-0.3254,2.0728,1.8641,-2.9276,-2.2512,-1.8179,-2.088,-0.0871,-0.55,0.8573,0.7265,0.2211,0.9211,0.9951,0.0129,0.1893,-0.0475,-2.6425,-2.1367
-1.9823,-2.7812,-1.98,-2.6249,-0.8346,-0.7661,-0.2734,0.7208,1.0519,0.6102,-0.0329,-0.1777,1.3308,0.9184,-3.0975,-2.985,-2.4115,-2.4201,-0.761,-1.412,-0.0652,-0.044,-0.3002,0.3729,0.8835,0.0313,0.2054,0.1183,-2.7612,-2.3392
-2.1077,-3.211,-2.219,-3.1612,-1.591,-1.2775,-1.0622,0.2119,0.5449,-0.0071,-0.2641,-0.0845,0.5709,0.0431,-3.1366,-3.5341,-2.8381,-2.5955,-1.2967,-2.1063,-0.8548,-0.7222,-0.7381,-0.2136,0.7257,-0.0535,0.1132,0.2202,-2.7712,-2.4028
-2.0895,-3.4143,-2.2954,-3.5054,-2.174,-1.6608,-1.8711,-0.3181,-0.1067,-0.7544,-0.6286,-0.0725,-0.176,-0.718,-3.0503,-3.8659,-3.0749,-2.6059,-1.6662,-2.5979,-1.4717,-1.273,-1.0679,-0.8224,0.5242,-0.2527,-0.1111,0.2302,-2.674,-2.3282
-1.9323,-3.3891,-2.209,-3.6422,-2.5601,-1.8981,-2.6684,-0.8432,-0.8714,-1.6025,-1.1151,-0.1601,-0.8812,-1.3322,-2.8493,-3.9643,-3.1133,-2.4548,-1.8535,-2.8668,-1.8898,-1.6715,-1.2734,-1.4366,0.2823,-0.5682,-0.4801,0.1275,-2.477,-2.125
-1.6479,-3.1519,-1.9696,-3.5719,-2.7413,-1.9805,-3.4217,-1.3403,-1.7072,-2.5139,-1.7024,-0.3557,-1.5186,-1.7789,-2.5485,-3.8311,-2.959,-2.1575,-1.8562,-2.9095,-2.0982,-1.9045,-1.3492,-2.0378,0.0043,-0.9918,-0.9928,-0.0979,-2.1921,-1.8105
-1.2542,-2.7353,-1.5952,-3.31,-2.7241,-1.9082,-4.0987,-1.7895,-2.5657,-3.4451,-2.3615,-0.6557,-2.0648,-2.049,-2.1667,-3.4855,-2.6314,-1.7387,-1.6852,-2.7381,-2.1009,-1.9709,-1.3006,-2.6067,-0.3035,-1.5054,-1.6323,-0.4431,-1.8344,-1.4067
-0.775,-2.1835,-1.1102,-2.8849,-2.5271,-1.6911,-4.6691,-2.1734,-3.3963,-4.3485,-3.0571,-1.0446,-2.4991,-2.1439,-1.7248,-2.9624,-2.1618,-1.23,-1.3635,-2.3787,-1.9153,-1.88,-1.142,-3.1216,-0.6316,-2.0803,-2.3646,-0.8901,-1.421,-0.9381
-0.2397,-1.5484,-0.5449,-2.3358,-2.1791,-1.3489,-5.1065,-2.4782,-4.1514,-5.175,-3.7502,-1.4957,-2.8033,-2.0731,-1.2461,-2.3089,-1.5905,-0.6674,-0.923,-1.8689,-1.5698,-1.6497,-0.8939,-3.5585,-0.9655,-2.6782,-3.1394,-1.4054,-0.9715,-0.4308
0.3182,-0.8845,0.0653,-1.7089,-1.7162,-0.911,-5.3906,-2.694,-4.7894,-5.8774,-4.3998,-1.9728,-2.9632,-1.8529,-0.7559,-1.581,-0.9651,-0.089,-0.4025,-1.256,-1.1014,-1.3043,-0.5805,-3.8918,-1.2863,-3.2535,-3.8934,-1.9427,-0.5082,0.0882
0.8626,-0.2454,0.6801,-1.0552,-1.1809,-0.4152,-5.5093,-2.8165,-5.2779,-6.413,-4.9647,-2.4336,-2.9697,-1.5069,-0.2819,-0.8403,-0.3374,0.4662,0.1548,-0.5939,-0.5538,-0.8736,-0.2275,-4.0971,-1.5712,-3.7572,-4.557,-2.4474,-0.0561,0.5906
1.3565,0.3199,1.2556,-0.4275,-0.6196,0.0948,-5.4614,-2.8479,-5.5944,-6.7468,-5.4056,-2.8334,-2.8221,-1.0653,0.1461,-0.1491,0.2397,0.9602,0.7039,0.0596,0.0245,-0.3921,0.1394,-4.1549,-1.7969,-4.1428,-5.0628,-2.8639,0.3573,1.0468
1.7652,0.7699,1.748,0.1231,-0.081,0.5727,-5.2565,-2.797,-5.726,-6.8544,-5.6873,-3.1296,-2.5297,-0.5651,0.498,0.4333,0.7164,1.3578,1.1999,0.6468,0.5827,0.1015,0.4943,-4.0546,-1.9426,-4.3715,-5.3554,-3.1429,0.7041,1.4269
2.0586,1.0719,2.1172,0.5498,0.3876,0.9742,-4.9158,-2.6778,-5.6694,-6.7247,-5.781,-3.2867,-2.1127,-0.0491,0.7456,0.8559,1.0495,1.6285,1.6003,1.1139,1.0698,0.5653,0.8113,-3.7984,-1.9933,-4.4182,-5.3992,-3.2488,0.9587,1.7029
2.2146,1.2034,2.3312,0.8141,0.7427,1.2602,-4.4694,-2.5078,-5.4306,-6.3616,-5.6683,-3.2804,-1.6024,0.437,0.8658,1.0797,1.2064,1.7488,1.8682,1.4157,1.4392,0.9558,1.0646,-3.4036,-1.9429,-4.2753,-5.1845,-3.1651,1.1003,1.8506
2.221,1.153,2.3698,0.8893,0.9491,1.401,-3.9546,-2.304,-5.0255,-5.7853,-5.3443,-3.1014,-1.0386,0.8487,0.8435,1.0823,1.1684,1.7047,1.9744,1.5205,1.653,1.2319,1.2302,-2.902,-1.7958,-3.9551,-4.7294,-2.897,1.1156,1.8524
2.0778,0.9214,2.227,0.7641,0.9836,1.3787,-3.4115,-2.0815,-4.4795,-5.0322,-4.8203,-2.7566,-0.4661,1.1478,0.6744,0.8606,0.9328,1.4932,1.9014,1.414,1.6869,1.3594,1.2877,-2.3384,-1.5674,-3.4891,-4.0786,-2.4708,1.0002,1.6999
1.7975,0.5225,1.9126,0.4449,0.8373,1.1897,-2.8805,-1.8526,-3.8286,-4.153,-4.1255,-2.2694,0.0698,1.3071,0.3668,0.4322,0.5138,1.1243,1.6458,1.102,1.534,1.3157,1.2236,-1.7653,-1.2825,-2.925,-3.2969,-1.931,0.7604,1.396
1.4052,-0.0171,1.4511,-0.0433,0.5166,0.8448,-2.3999,-1.6286,-3.1187,-3.2115,-3.3071,-1.6785,0.5265,1.3134,-0.0574,-0.1658,-0.0582,0.6215,1.2202,0.6107,1.2061,1.0948,1.0351,-1.2381,-0.9728,-2.3207,-2.462,-1.3333,0.4136,0.9578
0.9366,-0.6586,0.8809,-0.6599,0.0422,0.3682,-2.0049,-1.4232,-2.4048,-2.2804,-2.429,-1.0345,0.8679,1.168,-0.5633,-0.8805,-0.7393,0.0221,0.6535,-0.017,0.7325,0.708,0.7307,-0.8085,-0.6729,-1.7374,-1.6548,-0.7381,-0.0112,0.4172
0.4359,-1.3544,0.2505,-1.3529,-0.5544,-0.2061,-1.7271,-1.2539,-1.7481,-1.4374,-1.5674,-0.3964,1.0658,0.8849,-1.1051,-1.6485,-1.4761,-0.6261,-0.0116,-0.7262,0.1551,0.1837,0.3305,-0.5197,-0.4163,-1.2328,-0.9511,-0.2035,-0.4753,-0.1802
-0.0486,-2.0516,-0.3857,-2.0657,-1.2345,-0.838,-1.5931,-1.1429,-1.2117,-0.7589,-0.8045,0.1736,1.1016,0.4871,-1.6307,-2.4033,-2.2113,-1.268,-0.7228,-1.4573,-0.4771,-0.4369,-0.1367,-0.4024,-0.232,-0.855,-0.4145,0.2204,-0.9336,-0.7793
-0.4694,-2.6969,-0.9722,-2.7425,-1.9558,-1.4848,-1.6228,-1.1146,-0.8546,-0.3128,-0.2199,0.6161,0.9674,0.0034,-2.0883,-3.0822,-2.8887,-1.8479,-1.4238,-2.152,-1.1147,-1.1048,-0.6365,-0.4716,-0.1412,-0.6385,-0.0917,0.4951,-1.34,-1.3215
-0.7835,-3.2403,-1.4582,-3.3338,-2.6751,-2.104,-1.8267,-1.1911,-0.7243,-0.1505,0.1194,0.8817,0.667,-0.5346,-2.4321,-3.6312,-3.4586,-2.3159,-2.0599,-2.7588,-1.7127,-1.7687,-1.1326,-0.7258,-0.1557,-0.6006,-0.0087,0.5966,-1.6523,-1.7529
-0.9562,-3.6393,-1.8019,-3.7997,-3.3505,-2.6558,-2.2027,-1.3879,-0.8494,-0.2998,0.1684,0.9373,0.2169,-1.0939,-2.6283,-4.0088,-3.8809,-2.633,-2.5829,-3.2352,-2.2338,-2.3803,-1.5895,-1.1466,-0.2768,-0.7411,-0.1694,0.5169,-1.8384,-2.0307
-0.9635,-3.8615,-1.9742,-4.1108,-3.9425,-3.105,-2.7335,-1.7089,-1.2338,-0.7593,-0.088,0.7717,-0.3537,-1.641,-2.658,-4.1876,-4.1276,-2.7755,-2.955,-3.55,-2.6491,-2.8975,-1.9751,-1.7002,-0.4956,-1.042,-0.5555,0.2648,-1.8787,-2.1291
-0.7932,-3.8874,-1.9619,-4.2494,-4.4168,-3.4236,-3.3863,-2.1431,-1.8538,-1.497,-0.6319,0.3981,-1.0041,-2.1431,-2.5168,-4.155,-4.1836,-2.7366,-3.1515,-3.6828,-2.9385,-3.2877,-2.2632,-2.3404,-0.7942,-1.4706,-1.128,-0.1358,-1.7678,-2.0404
-0.4464,-3.7122,-1.768,-4.2085,-4.746,-3.5927,-4.1145,-2.6644,-2.6595,-2.4522,-1.4138,-0.1475,-1.6853,-2.5684,-2.2138,-3.9134,-4.0477,-2.5252,-3.1621,-3.6251,-3.0895,-3.529,-2.4351,-3.0135,-1.148,-1.9833,-1.8311,-0.6476,-1.514,-1.7755
0.0614,-3.3467,-1.4118,-3.992,-4.9122,-3.6051,-4.8614,-3.2331,-3.5795,-3.5422,-2.3583,-0.8103,-2.344,-2.8887,-1.769,-3.4801,-3.732,-2.1642,-2.9922,-3.3805,-3.0973,-3.6118,-2.4822,-3.6636,-1.529,-2.5306,-2.5974,-1.2236,-1.1367,-1.3604
0.7008,-2.8176,-0.9263,-3.6148,-4.9091,-3.4652,-5.5655,-3.7991,-4.5293,-4.6696,-3.3732,-1.5238,-2.9273,-3.0813,-1.2116,-2.8871,-3.2623,-1.6877,-2.6619,-2.9655,-2.9647,-3.5392,-2.4071,-4.238,-1.9083,-3.0623,-3.3542,-1.8119,-0.6649,-0.8335
1.4288,-2.1661,-0.3546,-3.1025,-4.7425,-3.1892,-6.166,-4.3079,-5.42,-5.7324,-4.3591,-2.2164,-3.3867,-3.1309,-0.5779,-2.1793,-2.6763,-1.1379,-2.2048,-2.4087,-2.7022,-3.3262,-2.2231,-4.6913,-2.2588,-3.5319,-4.0302,-2.359,-0.1343,-0.2407
2.1926,-1.4447,0.2558,-2.4909,-4.4295,-2.802,-6.6077,-4.7059,-6.1678,-6.632,-5.2192,-2.8183,-3.6819,-3.0307,0.0893,-1.4108,-2.0212,-0.5611,-1.6637,-1.7497,-2.3275,-2.9972,-1.9519,-4.9884,-2.5567,-3.8996,-4.5612,-2.8144,0.4154,0.3681
2.9353,-0.7115,0.8583,-1.8236,-3.9956,-2.3346,-6.8449,-4.9474,-6.7017,-7.2821,-5.8673,-3.2675,-3.7824,-2.7831,0.7435,-0.6392,-1.3488,-0.0035,-1.0866,-1.035,-1.8645,-2.5828,-1.6198,-5.1054,-2.7822,-4.1347,-4.8956,-3.1331,0.9444,0.9448
3.6027,-0.024,1.4127,-1.1488,-3.4722,-1.8197,-6.8452,-5.0006,-6.9703,-7.6158,-6.2358,-3.5151,-3.6701,-2.3988,1.3372,0.0801,-0.7102,0.4928,-0.5203,-0.3137,-1.3407,-2.1158,-1.2544,-5.0308,-2.9207,-4.2177,-4.9987,-3.2807,1.4161,1.4472
4.1498,0.5681,1.8886,-0.5136,-2.8929,-1.2891,-6.5933,-4.8524,-6.9463,-7.593,-6.2824,-3.5302,-3.3412,-1.8964,1.8265,0.7006,-0.15,0.8941,-0.0054,0.3672,-0.7851,-1.628,-0.8809,-4.7659,-2.9638,-4.142,-4.8566,-3.2368,1.8008,1.8431
4.545,1.0275,2.2669,0.0409,-2.291,-0.7719,-6.0934,-4.5114,-6.629,-7.2046,-5.9951,-3.3046,-2.8081,-1.3015,2.175,1.1884,0.2975,1.1775,0.4266,0.9677,-0.2267,-1.1476,-0.521,-4.3252,-2.911,-3.9155,-4.4779,-2.9996,2.0784,2.1126
4.7724,1.3334,2.5385,0.4842,-1.698,-0.2937,-5.3713,-4.0063,-6.044,-6.4759,-5.3952,-2.8542,-2.1006,-0.6452,2.3592,1.525,0.6116,1.332,0.756,1.4577,0.3079,-0.6983,-0.1923,-3.7364,-2.7703,-3.5606,-3.8938,-2.5875,2.2388,2.2481
4.8319,1.4822,2.7024,0.7991,-1.1425,0.124,-4.4734,-3.3822,-5.2405,-5.4645,-4.536,-2.2188,-1.2648,0.0369,2.3712,1.7067,0.7852,1.3584,0.9739,1.8189,0.7952,-0.2982,0.092,-3.0385,-2.5574,-3.1114,-3.1546,-2.0373,2.2826,2.2535
4.737,1.4857,2.7631,0.9823,-0.65,0.4637,-3.4636,-2.6941,-4.286,-4.2554,-3.4972,-1.457,-0.3603,0.7066,2.2209,1.7431,0.8241,1.2682,1.0819,2.0459,1.2156,0.0403,0.3233,-2.2787,-2.2943,-2.6096,-2.3237,-1.4004,2.219,2.1422
4.5122,1.3673,2.7289,1.0425,-0.2433,0.7126,-2.4175,-1.9999,-3.2594,-2.9518,-2.3756,-0.6396,0.5449,1.3251,1.9349,1.654,0.7446,1.0816,1.0898,2.1447,1.5537,0.3104,0.4982,-1.5078,-2.0054,-2.0983,-1.4693,-0.735,2.0641,1.934
4.19,1.1573,2.6112,0.9971,0.0581,0.863,-1.4154,-1.3543,-2.2431,-1.6644,-1.2743,0.1593,1.3818,1.8559,1.5525,1.4657,0.5707,0.8247,1.0136,2.1299,1.7981,0.5109,0.6185,-0.7758,-1.7138,-1.6157,-0.6566,-0.0988,1.8386,1.6528
3.8072,0.8872,2.4237,0.8674,0.2376,0.9116,-0.5344,-0.8044,-1.3156,-0.4998,-0.2904,0.8702,2.0859,2.266,1.1202,1.2074,0.3306,0.5274,0.8732,2.0213,1.9413,0.6447,0.6901,-0.1274,-1.4391,-1.1912,0.0588,0.4579,1.5659,1.3248
3.4015,0.5843,2.1825,0.6746,0.2829,0.859,0.1586,-0.3865,-0.5445,0.4502,0.4954,1.435,2.6041,2.5288,0.6846,0.908,0.053,0.2198,0.6893,1.8399,1.9784,0.7167,0.7216,0.4005,-1.1955,-0.8441,0.635,0.896,1.2701,0.9763
3.0077,0.2692,1.9044,0.4363,0.1864,0.7091,0.614,-0.1235,0.0193,1.1175,1.027,1.8128,2.8985,2.626,0.2856,0.5925,-0.2354,-0.0706,0.4816,1.6044,1.9076,0.7317,0.7208,0.7799,-0.9921,-0.5843,1.0445,1.1898,0.9748,0.6324
2.6547,-0.0452,1.6064,0.1653,-0.0518,0.4693,0.804,-0.0239,0.3462,1.4641,1.2782,1.9827,2.95,2.5497,-0.0473,0.2814,-0.5122,-0.322,0.266,1.3299,1.7309,0.6922,0.6924,0.9931,-0.8341,-0.4151,1.2741,1.3272,0.7009,0.3158
2.3628,-0.3526,1.304,-0.1302,-0.4228,0.1514,0.7259,-0.0813,0.4303,1.4851,1.2547,1.9457,2.7602,2.3046,-0.2978,-0.0105,-0.7609,-0.5201,0.054,1.0274,1.4552,0.5988,0.6364,1.0333,-0.724,-0.3347,1.3236,1.3096,0.466,0.0454
2.1433,-0.6499,1.0112,-0.4449,-0.9066,-0.2276,0.4021,-0.2761,0.2893,1.2082,0.9914,1.7241,2.3513,1.9094,-0.4613,-0.2731,-0.9706,-0.6592,-0.147,0.706,1.0946,0.4513,0.5489,0.9052,-0.662,-0.3376,1.2047,1.1506,0.2824,-0.1652
1.9987,-0.9336,0.74,-0.7726,-1.4724,-0.6459,-0.1225,-0.5777,-0.0373,0.689,0.5469,1.3579,1.765,1.3967,-0.5432,-0.4991,-1.1355,-0.7411,-0.3327,0.3753,0.6714,0.2513,0.4254,0.6263,-0.6459,-0.4145,0.94,0.8758,0.1565,-0.3082
1.9249,-1.197,0.5012,-1.1041,-2.0795,-1.077,-0.7859,-0.9487,-0.4943,0.0032,-0.0059,0.9004,1.059,0.8105,-0.5553,-0.6818,-1.2532,-0.7733,-0.4994,0.0477,0.216,0.0058,0.2648,0.2268,-0.6713,-0.5522,0.5624,0.5201,0.089,-0.3829
1.9143,-1.4282,0.305,-1.4245,-2.6802,-1.4913,-1.5165,-1.3485,-1.0173,-0.7636,-0.5908,0.4102,0.3011,0.2032,-0.5114,-0.8136,-1.3227,-0.7661,-0.642,-0.2593,-0.2346,-0.2703,0.0738,-0.2512,-0.7306,-0.7324,0.1132,0.125,0.0751,-0.3952
1.9585,-1.6101,0.1613,-1.713,-3.2249,-1.8584,-2.2412,-1.7373,-1.5419,-1.5266,-1.1387,-0.0558,-0.4371,-0.371,-0.4246,-0.8857,-1.3432,-0.7301,-0.7535,-0.5236,-0.6404,-0.5542,-0.1315,-0.7577,-0.8136,-0.9333,-0.3606,-0.2659,0.1067,-0.3557
2.0504,-1.7229,0.0785,-1.9446,-3.6674,-2.1501,-2.8932,-2.0794,-2.0105,-2.2109,-1.596,-0.4501,-1.0883,-0.8609,-0.3053,-0.8889,-1.3138,-0.6742,-0.8247,-0.72,-0.963,-0.8169,-0.3264,-1.239,-0.9077,-1.131,-0.8101,-0.6116,0.1735,-0.2781
2.1844,-1.7477,0.0621,-2.0941,-3.9712,-2.3435,-3.4182,-2.3457,-2.3796,-2.7582,-1.9285,-0.7387,-1.5966,-1.2249,-0.1605,-0.8158,-1.2341,-0.6046,-0.8462,-0.8242,-1.1712,-1.0273,-0.4824,-1.6445,-0.999,-1.3013,-1.1893,-0.8779,0.2652,-0.1765
2.3555,-1.6718,0.1129,-2.1411,-4.1139,-2.4244,-3.7783,-2.5155,-2.622,-3.1305,-2.1221,-0.9034,-1.9225,-1.4348,0.0052,-0.663,-1.1045,-0.5247,-0.8101,-0.8173,-1.2449,-1.1566,-0.5717,-1.9316,-1.0722,-1.4223,-1.4594,-1.0402,0.3721,-0.0629
2.5575,-1.4928,0.226,-2.0752,-4.0908,-2.3899,-3.9535,-2.5782,-2.7272,-3.3099,-2.1782,-0.9409,-2.0462,-1.4777,0.1882,-0.4333,-0.928,-0.4359,-0.7117,-0.6903,-1.1781,-1.1834,-0.5736,-2.0706,-1.1123,-1.476,-1.5926,-1.0856,0.4862,0.0535
2.7808,-1.2225,0.3899,-1.9002,-3.9151,-2.2496,-3.9416,-2.5339,-2.6991,-3.2968,-2.1093,-0.8599,-1.9678,-1.357,0.3842,-0.1372,-0.7102,-0.3391,-0.5514,-0.4472,-0.9802,-1.0975,-0.4781,-2.0479,-1.1062,-1.4509,-1.5743,-1.0128,0.6004,0.1667
3.0117,-0.8866,0.5872,-1.6349,-3.6162,-2.0247,-3.7563,-2.3938,-2.5516,-3.1064,-1.9331,-0.6779,-1.7059,-1.0906,0.5864,0.2065,-0.461,-0.2357,-0.3358,-0.107,-0.6743,-0.9018,-0.2894,-1.8661,-1.0453,-1.3432,-1.4053,-0.8323,0.7086,0.2727
3.2328,-0.5227,0.7964,-1.312,-3.2345,-1.7455,-3.4244,-2.1782,-2.3048,-2.7653,-1.6688,-0.4179,-1.2934,-0.708,0.7848,0.5716,-0.1938,-0.1297,-0.0777,0.2986,-0.2943,-0.6125,-0.025,-1.5437,-0.9274,-1.1591,-1.1011,-0.5649,0.8045,0.3677
3.4248,-0.1739,0.9937,-0.9722,-2.8149,-1.4467,-2.9816,-1.9142,-1.982,-2.3073,-1.3356,-0.1051,-0.7729,-0.2463,0.9673,0.9278,0.0744,-0.0276,0.2049,0.7288,0.1205,-0.2566,0.2871,-1.1117,-0.7581,-0.9138,-0.6897,-0.2393,0.8819,0.4478
3.5692,0.1181,1.1557,-0.6573,-2.3998,-1.1619,-2.4684,-1.6311,-1.6079,-1.7707,-0.9527,0.2344,-0.1913,0.254,1.1211,1.2448,0.3254,0.0625,0.4911,1.14,0.5301,0.1324,0.6137,-0.6091,-0.5502,-0.6295,-0.2082,0.1116,0.9338,0.5068
3.6512,0.3208,1.2628,-0.4027,-2.0229,-0.9184,-1.9261,-1.3566,-1.2073,-1.195,-0.5401,0.5759,0.4056,0.7539,1.235,1.4967,0.5416,0.1322,0.7595,1.4927,0.8998,0.5205,0.9225,-0.0777,-0.3212,-0.3323,0.3023,0.4551,0.9531,0.5372
3.6624,0.4166,1.3019,-0.2308,-1.7059,-0.7333,-1.3923,-1.1121,-0.8044,-0.6184,-0.119,0.8978,0.9775,1.2192,1.3013,1.6665,0.7087,0.1749,0.9919,1.7579,1.2042,0.8773,1.1873,0.4432,-0.0905,-0.0471,0.8025,0.7635,0.933,0.531
3.6027,0.4054,1.2694,-0.1482,-1.4573,-0.6114,-0.8983,-0.9103,-0.422,-0.0751,0.2882,1.1828,1.4921,1.6238,1.3172,1.7483,0.818,0.1882,1.1749,1.9212,1.4299,1.1805,1.392,0.9201,0.1237,0.206,1.2587,1.0182,0.8697,0.4821
3.4806,0.3043,1.1722,-0.1457,-1.2743,-0.546,-0.4677,-0.7544,-0.0799,0.4066,0.6596,1.4187,1.9266,1.9506,1.2849,1.7478,0.8679,0.174,1.3023,1.9836,1.575,1.4168,1.5313,1.3279,0.3068,0.4135,1.646,1.2101,0.7647,0.3904
3.3125,0.1426,1.0278,-0.2021,-1.1462,-0.5214,-0.1157,-0.6398,0.2062,0.8046,0.9754,1.5981,2.267,2.1913,1.2106,1.6795,0.8635,0.1389,1.3744,1.96,1.6477,1.5809,1.6098,1.6505,0.4481,0.5685,1.9484,1.3393,0.6269,0.2633
3.1193,-0.0445,0.86,-0.2903,-1.0586,-0.5175,0.1495,-0.5565,0.4254,1.1045,1.2194,1.7174,2.5067,2.3455,1.1025,1.5631,0.8147,0.0919,1.3967,1.8738,1.6621,1.6736,1.6381,1.8795,0.5413,0.6699,2.1587,1.4115,0.472,0.1159
2.9232,-0.2233,0.6951,-0.3836,-0.9966,-0.5136,0.3263,-0.4923,0.5728,1.2991,1.3811,1.7758,2.6455,2.4183,0.9688,1.4188,0.7339,0.0419,1.378,1.752,1.6346,1.6994,1.6289,2.0143,0.5835,0.7199,2.2767,1.4353,0.3191,-0.0324
2.743,-0.368,0.5553,-0.4606,-0.9472,-0.4927,0.4196,-0.4351,0.6496,1.3902,1.4576,1.7756,2.6895,2.4196,0.8165,1.2638,0.6333,-0.0039,1.3282,1.6196,1.5807,1.6657,1.5945,2.0607,0.5761,0.7239,2.3088,1.4198,0.1867,-0.1626
2.5911,-0.4639,0.455,-0.5084,-0.8999,-0.4433,0.4409,-0.3751,0.6639,1.3885,1.4545,1.7224,2.6515,2.3633,0.6507,1.1104,0.5235,-0.0415,1.257,1.4959,1.5137,1.5825,1.5449,2.0319,0.5241,0.6899,2.2679,1.3744,0.0875,-0.2609
2.4713,-0.5089,0.3982,-0.5227,-0.8474,-0.361,0.4081,-0.3052,0.63,1.3144,1.3865,1.6265,2.5509,2.2664,0.4755,0.9655,0.412,-0.0701,1.1738,1.3925,1.4437,1.4627,1.4888,1.9469,0.4372,0.6282,2.1727,1.3086,0.0253,-0.3226
2.3791,-0.5118,0.3783,-0.5072,-0.7853,-0.2492,0.3439,-0.2224,0.5669,1.1956,1.2762,1.503,2.413,2.148,0.2947,0.8315,0.304,-0.0908,1.087,1.3126,1.3779,1.3222,1.4332,1.8296,0.3285,0.5512,2.0464,1.2329,-0.0053,-0.3522
2.3039,-0.4888,0.3812,-0.4712,-0.7123,-0.1171,0.273,-0.1274,0.4956,1.0637,1.1504,1.3704,2.266,2.0276,0.1129,0.7078,0.2022,-0.1057,1.0035,1.2527,1.3209,1.1782,1.3838,1.7057,0.2132,0.4724,1.914,1.1585,-0.0167,-0.3619
