FP1,F3,F7,FC3,C3,C5,P3,P7,PO7,PO3,O1,Oz,Pz,CPz,FP2,Fz,F4,F8,FC4,FCz,Cz,C4,C6,P4,P8,PO8,PO4,O2,(corr) HEOG,(corr) VEOG
-0.5889,-0.0909,0.1736,-0.6513,-0.9608,-0.399,-1.0229,-0.8946,-0.6033,-0.7938,-0.7458,-0.0581,-1.244,-1.7542,-0.0459,-0.4673,-0.5693,0.855,-0.6811,-0.9967,-1.7888,-1.1473,-0.8465,-1.3521,0.2927,-0.6402,-1.1296,-0.3442,0.0924,1.322
-0.6822,-0.142,0.1321,-0.6643,-0.9753,-0.383,-1.0351,-0.9477,-0.5735,-1.0949,-0.8275,-0.0127,-1.3459,-1.8198,-0.0617,-0.5496,-0.622,0.8892,-0.7513,-1.0861,-1.8847,-1.1458,-0.7525,-1.3551,0.3016,-0.5787,-1.1505,-0.3092,0.1584,1.256
-0.7574,-0.1782,0.1041,-0.6703,-0.9791,-0.3762,-1.0009,-0.9616,-0.5003,-1.3328,-0.9044,0.0392,-1.4377,-1.8805,-0.0542,-0.6264,-0.6877,0.9011,-0.8322,-1.1762,-1.9743,-1.1646,-0.6791,-1.3583,0.3046,-0.4755,-1.1371,-0.2631,0.2155,1.1987
-0.8146,-0.2033,0.087,-0.6757,-0.9775,-0.3815,-0.9225,-0.9358,-0.3855,-1.4848,-0.9678,0.0974,-1.5117,-1.9341,-0.0328,-0.6927,-0.7678,0.8938,-0.9228,-1.2614,-2.053,-1.2166,-0.6576,-1.3684,0.3013,-0.3381,-1.0984,-0.2126,0.2604,1.1665
-0.8561,-0.2245,0.0743,-0.6882,-0.9772,-0.3996,-0.8091,-0.875,-0.2359,-1.5456,-1.0099,0.161,-1.562,-1.9792,-0.0067,-0.746,-0.861,0.8732,-1.0182,-1.3371,-2.1168,-1.3062,-0.7067,-1.3912,0.2928,-0.1794,-1.0496,-0.1663,0.2918,1.1677
-0.8849,-0.2493,0.0583,-0.7145,-0.9843,-0.429,-0.6757,-0.7881,-0.0646,-1.5277,-1.0267,0.2283,-1.5859,-2.0148,0.0183,-0.7854,-0.9616,0.8482,-1.1099,-1.3988,-2.1621,-1.4264,-0.8279,-1.4306,0.2812,-0.0163,-1.0093,-0.1349,0.311,1.201
-0.9023,-0.2828,0.0339,-0.7572,-1.0026,-0.4658,-0.5409,-0.6873,0.1115,-1.4585,-1.0178,0.2961,-1.5833,-2.0397,0.0415,-0.8103,-1.0591,0.8297,-1.1856,-1.443,-2.1853,-1.5598,-1.0041,-1.4872,0.27,0.1321,-0.9952,-0.1288,0.3204,1.2569
-0.9071,-0.3252,0.0018,-0.8131,-1.0307,-0.5046,-0.4231,-0.5856,0.2739,-1.3722,-0.9861,0.3605,-1.5557,-2.0518,0.068,-0.8185,-1.1383,0.83,-1.2312,-1.4659,-2.183,-1.6804,-1.2018,-1.5565,0.262,0.2475,-1.0183,-0.1556,0.3225,1.3213
-0.8959,-0.3712,-0.0305,-0.8728,-1.0622,-0.5384,-0.3357,-0.4942,0.4073,-1.2999,-0.9353,0.419,-1.5057,-2.048,0.1055,-0.8061,-1.1826,0.8597,-1.2327,-1.4641,-2.1525,-1.7599,-1.3769,-1.6292,0.2587,0.3155,-1.0783,-0.2165,0.3193,1.3798
-0.8653,-0.4114,-0.05,-0.9233,-1.0873,-0.5607,-0.284,-0.422,0.5028,-1.2612,-0.8684,0.4707,-1.4366,-2.025,0.1613,-0.7693,-1.1777,0.9243,-1.1808,-1.4359,-2.0939,-1.7739,-1.4849,-1.6916,0.2595,0.3293,-1.1609,-0.3038,0.3122,1.4213
-0.8145,-0.437,-0.0429,-0.9525,-1.096,-0.5672,-0.2639,-0.3739,0.5603,-1.2577,-0.7864,0.5177,-1.3523,-1.9824,0.2379,-0.7067,-1.1173,1.021,-1.0745,-1.3831,-2.0127,-1.7096,-1.4921,-1.7282,0.2628,0.2929,-1.2383,-0.4002,0.3033,1.4406
-0.749,-0.4435,-0.0008,-0.9541,-1.0833,-0.5582,-0.2622,-0.3509,0.5885,-1.2718,-0.6893,0.5639,-1.2581,-1.9242,0.3298,-0.6233,-1.0073,1.1359,-0.9245,-1.3134,-1.921,-1.5705,-1.3854,-1.7231,0.2675,0.2224,-1.2725,-0.4808,0.2955,1.4381
-0.6819,-0.4349,0.0738,-0.9322,-1.0528,-0.5405,-0.2594,-0.3517,0.6026,-1.2707,-0.577,0.6144,-1.1606,-1.8609,0.4226,-0.5323,-0.8677,1.245,-0.7541,-1.2414,-1.8377,-1.3779,-1.178,-1.6622,0.2745,0.1451,-1.2209,-0.5162,0.2926,1.4196
-0.6336,-0.4249,0.1654,-0.9021,-1.0175,-0.5271,-0.2332,-0.3726,0.6204,-1.214,-0.4513,0.6742,-1.0665,-1.8076,0.494,-0.4554,-0.7306,1.3177,-0.5961,-1.1882,-1.7857,-1.1677,-0.9082,-1.5352,0.2873,0.0966,-1.0433,-0.4778,0.2984,1.3935
-0.6285,-0.4356,0.2468,-0.8877,-0.9978,-0.5348,-0.1614,-0.4087,0.6588,-1.0636,-0.3167,0.7472,-0.981,-1.7812,0.5179,-0.4196,-0.6347,1.3225,-0.4874,-1.1777,-1.7875,-0.9828,-0.6327,-1.3364,0.3111,0.1148,-0.71,-0.3434,0.3147,1.3684
-0.6893,-0.4916,0.2855,-0.9156,-1.0148,-0.5794,-0.0249,-0.4533,0.7314,-0.793,-0.1796,0.8355,-0.9043,-1.7939,0.4702,-0.4521,-0.6165,1.2353,-0.4604,-1.2311,-1.858,-0.8633,-0.4127,-1.0663,0.3518,0.2322,-0.2082,-0.102,0.34,1.3498
-0.8291,-0.6132,0.2532,-1.0055,-1.0818,-0.6681,0.1908,-0.4966,0.847,-0.3955,-0.0463,0.9396,-0.8286,-1.8466,0.3365,-0.5718,-0.701,1.0469,-0.5339,-1.3599,-1.9981,-0.8353,-0.2991,-0.7317,0.4147,0.4694,0.4529,0.2433,0.3686,1.3374
-1.0441,-0.807,0.1353,-1.1618,-1.1967,-0.7945,0.4929,-0.526,1.0082,0.1112,0.0788,1.0583,-0.7369,-1.9243,0.1192,-0.782,-0.8934,0.7683,-0.7063,-1.5593,-2.1901,-0.9037,-0.3195,-0.3459,0.5037,0.8288,1.2389,0.6737,0.3907,1.3234
-1.3096,-1.0609,-0.0618,-1.3678,-1.3376,-0.9354,0.8784,-0.5273,1.2097,0.6829,0.1929,1.1888,-0.6042,-1.9952,-0.1583,-1.065,-1.1745,0.4326,-0.9524,-1.805,-2.3965,-1.0487,-0.4704,0.0713,0.6211,1.2905,2.0908,1.1555,0.3938,1.2931
-1.5808,-1.3413,-0.3087,-1.5857,-1.465,-1.0541,1.3293,-0.4889,1.436,1.2509,0.293,1.3258,-0.4024,-2.015,-0.451,-1.3811,-1.5007,0.0924,-1.2261,-2.0537,-2.5641,-1.229,-0.7179,0.4939,0.766,1.8119,2.9274,1.6419,0.3659,1.2281
-1.7985,-1.5965,-0.5565,-1.762,-1.5289,-1.1081,1.8089,-0.4076,1.6587,1.728,0.3721,1.4609,-0.1073,-1.935,-0.6977,-1.6725,-1.8096,-0.1871,-1.4674,-2.2489,-2.6323,-1.39,-1.0047,0.8904,0.9328,2.3289,3.6528,2.0765,0.2985,1.1106
-1.8988,-1.7647,-0.7452,-1.8367,-1.4797,-1.0589,2.2615,-0.2933,1.8367,2.0179,0.4163,1.5819,0.2946,-1.7124,-0.8292,-1.8713,-2.0293,-0.3379,-1.6122,-2.3287,-2.5431,-1.474,-1.2622,1.2279,1.11,2.763,4.1676,2.3987,0.1894,0.9285
-1.8242,-1.7842,-0.8142,-1.7549,-1.2789,-0.8808,2.617,-0.172,1.9187,2.0275,0.4031,1.673,0.801,-1.3197,-0.7796,-1.91,-2.0887,-0.2998,-1.6016,-2.2359,-2.251,-1.4301,-1.4216,1.4759,1.2796,3.0301,4.3825,2.5512,0.044,0.6789
-1.5332,-1.6043,-0.7126,-1.4766,-0.9073,-0.566,2.8002,-0.0844,1.8494,1.6809,0.3038,1.7157,1.393,-0.75,-0.4969,-1.7317,-1.9292,-0.0299,-1.3908,-1.9268,-1.7311,-1.2214,-1.425,1.6128,1.4179,3.0534,4.2325,2.4877,-0.1267,0.3692
-1.0075,-1.1939,-0.4073,-0.984,-0.3684,-0.1254,2.7441,-0.0815,1.5783,0.9333,0.088,1.6905,2.0359,-0.0194,0.0485,-1.3003,-1.5135,0.4901,-0.9547,-1.3786,-0.983,-0.8295,-1.2332,1.6294,1.4987,2.7755,3.688,2.1805,-0.3082,0.0166
-0.2549,-0.5477,0.1113,-0.2848,0.3119,0.4144,2.4019,-0.2152,1.0703,-0.2196,-0.2692,1.5803,2.6838,0.8341,0.8577,-0.6068,-0.8324,1.251,-0.2912,-0.5938,-0.0322,-0.2567,-0.8317,1.5299,1.4963,2.1686,2.7599,1.6253,-0.486,-0.3552
0.691,0.3127,0.8287,0.5886,1.0893,1.0166,1.7579,-0.5283,0.3151,-1.7353,-0.7803,1.3737,3.2842,1.7552,1.9025,0.3278,0.0926,2.2164,0.577,0.3986,1.0717,0.4738,-0.2331,1.3293,1.39,1.2406,1.4978,0.8433,-0.6481,-0.7176
1.7756,1.3412,1.7082,1.5828,1.9073,1.6401,0.8319,-1.0429,-0.6662,-3.5268,-1.4396,1.0686,3.7837,2.6768,3.1273,1.454,1.2106,3.3268,1.6038,1.5444,2.2598,1.32,0.5236,1.0485,1.167,0.0339,-0.0168,-0.121,-0.786,-1.0411
2.9303,2.4729,2.6967,2.6307,2.7054,2.245,-0.3212,-1.7526,-1.8192,-5.4707,-2.2199,0.6751,4.1337,3.5274,4.4554,2.6985,2.4466,4.5068,2.7248,2.769,3.45,2.2255,1.3799,0.7088,0.8245,-1.38,-1.6823,-1.2045,-0.8949,-1.2978
4.0809,3.6322,3.7311,3.6595,3.4255,2.7971,-1.6177,-2.6191,-3.0607,-7.4219,-3.0726,0.2172,4.2957,4.2392,5.7972,3.9729,3.7105,5.6741,3.864,3.9852,4.5564,3.1261,2.2671,0.3282,0.3696,-2.9106,-3.3891,-2.3324,-0.9727,-1.4645
5.1557,4.7413,4.7461,4.5997,4.0194,3.2706,-2.9548,-3.5766,-4.2886,-9.2319,-3.9321,-0.2689,4.2464,4.7555,7.0598,5.183,4.9069,6.7489,4.9426,5.1024,5.498,3.9578,3.1171,-0.0791,-0.1805,-4.4591,-5.0301,-3.426,-1.0191,-1.5252
6.092,5.7283,5.6805,5.3914,4.453,3.6481,-4.2242,-4.5419,-5.3964,-10.7678,-4.7241,-0.7381,3.9812,5.0369,8.1558,6.2391,5.9466,7.6628,5.8877,6.0368,6.2086,4.6632,3.8708,-0.5023,-0.7991,-5.929,-6.5094,-4.4106,-1.0354,-1.4726
6.8398,6.5331,6.4814,5.9901,4.7086,3.9192,-5.3248,-5.4294,-6.2896,-11.9282,-5.3766,-1.1424,3.5153,5.0656,9.0128,7.065,6.7559,8.3647,6.6393,6.7213,6.6434,5.1979,4.4833,-0.9306,-1.451,-7.2337,-7.7471,-5.222,-1.024,-1.3089
7.3646,7.112,7.1074,6.3687,4.7842,4.0783,-6.1751,-6.1661,-6.8992,-12.6528,-5.831,-1.4378,2.8832,4.8469,9.5794,7.6058,7.2835,8.8245,7.1553,7.1119,6.7833,5.533,4.9252,-1.3513,-2.0945,-8.3015,-8.6818,-5.8122,-0.9884,-1.0449
7.6472,7.4396,7.5301,6.5176,4.6916,4.1233,-6.7205,-6.7031,-7.1901,-12.9248,-6.0499,-1.5894,2.1351,4.4073,9.8304,7.8318,7.5044,9.0326,7.4142,7.1918,6.635,5.6572,5.1825,-1.7469,-2.6844,-9.078,-9.2711,-6.1509,-0.9331,-0.7
7.6851,7.5099,7.7344,6.4444,4.4536,4.0558,-6.9362,-7.0204,-7.1619,-12.7637,-6.02,-1.5748,1.3329,3.792,9.7684,7.7403,7.4209,8.9985,7.4165,6.9713,6.2292,5.5771,5.2551,-2.0954,-3.1764,-9.5268,-9.4901,-6.2263,-0.8632,-0.3007
7.4914,7.3349,7.7187,6.172,4.1018,3.8826,-6.8248,-7.1251,-6.8433,-12.2136,-5.7503,-1.3846,0.5449,3.0606,9.4232,7.3545,7.0611,8.7462,7.1843,6.4856,5.616,5.3171,5.1568,-2.3696,-3.5324,-9.6302,-9.3302,-6.0421,-0.7851,0.1203
7.0946,6.9433,7.4946,5.7366,3.6749,3.6182,-6.4098,-7.0442,-6.2826,-11.329,-5.2662,-1.0213,-0.1596,2.2814,8.8468,6.72,6.4749,8.3109,6.7596,5.7899,4.8594,4.9184,4.9144,-2.5383,-3.7243,-9.3897,-8.7972,-5.614,-0.7059,0.5254
6.5363,6.377,7.0864,5.1846,3.2163,3.2863,-5.7279,-6.8142,-5.5356,-10.1625,-4.6021,-0.4974,-0.7154,1.526,8.1072,5.8988,5.7283,7.7336,6.2003,4.9527,4.0317,4.4354,4.5674,-2.5681,-3.7375,-8.8262,-7.91,-4.9656,-0.6334,0.8752
5.8684,5.6874,6.5299,4.5686,2.7716,2.9189,-4.8214,-6.4714,-4.6572,-8.7588,-3.796,0.1666,-1.0673,0.8633,7.2794,4.9617,4.8949,7.0577,5.5731,4.0483,3.2061,3.9309,4.1644,-2.4264,-3.5719,-7.9793,-6.7003,-4.1257,-0.5748,1.1308
5.1479,4.9297,5.8693,3.9416,2.3846,2.5528,-3.7335,-6.0453,-3.6944,-7.1539,-2.8851,0.9433,-1.1748,0.3516,6.4357,3.9796,4.0466,6.3242,4.9455,3.1474,2.4495,3.4673,3.7568,-2.0867,-3.2411,-6.9033,-5.212,-3.1257,-0.5351,1.2587
4.4309,4.1572,5.1533,3.3508,2.0916,2.2234,-2.5062,-5.5551,-2.6853,-5.3809,-1.9053,1.8,-1.0172,0.0334,5.6367,3.0148,3.2439,5.5688,4.3751,2.3093,1.8151,3.0975,3.3901,-1.5344,-2.7688,-5.6625,-3.5007,-2.0004,-0.5162,1.2353
3.7662,3.4162,4.4298,2.8322,1.9166,1.9594,-1.1815,-5.0108,-1.6601,-3.4776,-0.8911,2.6998,-0.5963,-0.0705,4.9238,2.1148,2.5291,4.8192,3.9019,1.5754,1.3364,2.8557,3.0959,-0.7718,-2.1851,-4.3241,-1.6319,-0.788,-0.5164,1.0519
3.1901,2.7418,3.7403,2.4072,1.8676,1.7782,0.1979,-4.4172,-0.6441,-1.4925,0.1226,3.6038,0.0635,0.0377,4.3164,1.3096,1.9226,4.0954,3.5436,0.9661,1.0247,2.7531,2.887,0.1779,-1.522,-2.9526,0.3208,0.4682,-0.5314,0.7176
2.7239,2.1565,3.1164,2.0825,1.9367,1.6845,1.5873,-3.7784,0.3398,0.5126,1.1013,4.4739,0.9181,0.334,3.8127,0.6122,1.4256,3.4104,3.2966,0.4828,0.8708,2.7781,2.7581,1.2714,-0.8107,-1.6052,2.2807,1.7212,-0.5553,0.2595
2.3736,1.6708,2.5776,1.8522,2.1022,1.6724,2.941,-3.1029,1.27,2.4652,2.0125,5.2768,1.9098,0.7781,3.3958,0.023,1.0252,2.7738,3.1418,0.1116,0.8491,2.9016,2.6919,2.4497,-0.0797,-0.3286,4.1723,2.9227,-0.5818,-0.2804
2.1317,1.2858,2.1321,1.7023,2.3338,1.7281,4.215,-2.4061,2.1259,4.289,2.8273,5.9871,2.9752,1.3202,3.0412,-0.4646,0.7027,2.1948,3.0535,-0.1691,0.925,3.086,2.6665,3.6452,0.6458,0.8419,5.9274,4.0271,-0.6052,-0.8517
1.9818,0.9958,1.7787,1.615,2.598,1.8344,5.3699,-1.7116,2.8886,5.9114,3.5236,6.5894,4.0528,1.9091,2.7265,-0.859,0.4413,1.6839,3.0078,-0.382,1.062,3.2942,2.6633,4.7913,1.3437,1.8821,7.4902,4.9967,-0.6222,-1.4025
1.902,0.7913,1.5103,1.5729,2.8641,1.9737,6.375,-1.0491,3.5414,7.2719,4.0871,7.0778,5.0895,2.499,2.4374,-1.1662,0.2311,1.2539,2.9887,-0.5455,1.2276,3.4965,2.6703,5.8311,1.9949,2.7774,8.8202,5.8046,-0.6314,-1.8871
1.8695,0.6612,1.3167,1.5612,3.108,2.1306,7.2096,-0.4508,4.071,8.3277,4.5113,7.4535,6.0439,3.054,2.1711,-1.3891,0.0712,0.9181,2.991,-0.6701,1.3966,3.6742,2.6821,6.723,2.5827,3.5201,9.8934,6.4362,-0.6345,-2.2713
1.8635,0.5941,1.1882,1.569,3.3136,2.2931,7.8639,0.053,4.4676,9.058,4.797,7.7212,6.8877,3.5498,1.9361,-1.5278,-0.0322,0.6871,3.0178,-0.7591,1.5524,3.8195,2.6984,7.4434,3.092,4.1075,10.701,6.8882,-0.635,-2.5353
1.8673,0.5787,1.1161,1.5886,3.4732,2.4525,8.338,0.4384,4.7265,9.4645,4.9503,7.8863,7.6038,3.9729,1.7486,-1.5824,-0.0698,0.5661,3.0771,-0.8102,1.6862,3.9326,2.7199,7.985,3.5095,4.5401,11.2462,7.166,-0.6377,-2.6745
1.87,0.6045,1.094,1.6149,3.5859,2.6021,8.6407,0.692,4.8486,9.5717,4.982,7.9534,8.184,4.3186,1.6273,-1.5553,-0.0339,0.5516,3.1753,-0.8196,1.7946,4.0178,2.7464,8.3527,3.8232,4.8213,11.5421,7.2809,-0.6471,-2.6976
1.8668,0.6616,1.1169,1.6448,3.6556,2.7361,8.7873,0.8139,4.8417,9.4231,4.907,7.9261,8.626,4.5877,1.5876,-1.4533,0.0768,0.6305,3.3131,-0.7847,1.8779,4.0803,2.7757,8.5581,4.0231,4.9577,11.6081,7.2478,-0.666,-2.6235
1.859,0.7414,1.1803,1.6761,3.689,2.8491,8.7981,0.8182,4.7216,9.0767,4.7435,7.809,8.9314,4.7836,1.6376,-1.2883,0.2547,0.781,3.4829,-0.7068,1.9378,4.1229,2.8037,8.6157,4.1023,4.96,11.4686,7.0847,-0.6948,-2.4765
1.8526,0.8367,1.2793,1.7079,3.6938,2.9363,8.6973,0.7315,4.5114,8.5979,4.5141,7.6095,9.1045,4.9107,1.7743,-1.0757,0.4832,0.9759,3.6685,-0.5914,1.9774,4.1448,2.8245,8.5396,4.0588,4.843,11.1517,6.812,-0.7316,-2.2816
1.8563,0.9423,1.408,1.7404,3.6783,2.9953,8.5112,0.5887,4.2403,8.0527,4.2453,7.3399,9.152,4.9738,1.9845,-0.8318,0.7405,1.1877,3.8483,-0.4465,2.0008,4.1421,2.8313,8.3432,3.8966,4.6249,10.6878,6.4532,-0.7735,-2.0601
1.8785,1.0548,1.5598,1.7754,3.6507,3.0273,8.2664,0.4279,3.9418,7.4994,3.9665,7.018,9.0837,4.979,2.247,-0.5707,1.0041,1.3946,4.0006,-0.2802,2.0145,4.11,2.8175,8.0402,3.6262,4.3254,10.1091,6.0342,-0.818,-1.8274
1.9258,1.1733,1.7277,1.8159,3.6185,3.0382,7.9876,0.2839,3.6493,6.9825,3.708,6.6665,8.9127,4.9351,2.5373,-0.3011,1.2569,1.585,4.1096,-0.0974,2.0279,4.0462,2.7797,7.6468,3.264,3.9634,9.4484,5.5821,-0.8652,-1.5928
2.0009,1.2984,1.9047,1.8658,3.5884,3.0378,7.6951,0.1829,3.392,6.5268,3.4965,6.3102,8.6563,4.854,2.8338,-0.0248,1.4918,1.7598,4.1703,0.1022,2.053,3.9547,2.7212,7.1836,2.8304,3.5549,8.7378,5.1228,-0.9181,-1.3615
2.1033,1.4314,2.0833,1.9289,3.5646,3.0369,7.4019,0.1379,3.1897,6.1359,3.3498,5.9717,8.3349,4.7513,3.1219,0.2625,1.7126,1.9305,4.191,0.3242,2.1039,3.8473,2.6536,6.6759,2.3489,3.1127,8.0074,4.6783,-0.9826,-1.1377
2.229,1.5736,2.2558,2.0073,3.5487,3.0442,7.1132,0.1473,3.0496,5.7935,3.272,5.6675,7.971,4.6442,3.3959,0.569,1.9325,2.1144,4.1911,0.5779,2.1937,3.7428,2.5949,6.1522,1.8439,2.6461,7.2839,4.2644,-1.0658,-0.9255
2.3722,1.7252,2.4142,2.1008,3.5388,3.0623,6.8258,0.1967,2.9646,5.4693,3.2524,5.405,7.5872,4.5502,3.6583,0.9032,2.1688,2.3283,4.1962,0.8725,2.3323,3.6623,2.5646,5.6422,1.3399,2.1628,6.5894,3.8893,-1.1732,-0.7307
2.5262,1.8846,2.5518,2.2066,3.5305,3.0871,6.5308,0.2631,2.9164,5.1275,3.2668,5.1823,7.2047,4.4845,3.9164,1.2698,2.437,2.5815,4.2304,1.214,2.5245,3.6237,2.5764,5.1725,0.8602,1.6695,5.94,3.553,-1.3068,-0.5602
2.6843,2.0483,2.6638,2.3198,3.5179,3.1085,6.2175,0.3213,2.8797,4.7357,3.2832,4.9894,6.8423,4.4586,4.1779,1.6673,2.7451,2.8724,4.3099,1.6017,2.7689,3.6365,2.6324,4.7641,0.4238,1.1722,5.3447,3.2482,-1.4627,-0.421
2.84,2.2115,2.749,2.4339,3.4957,3.1132,5.877,0.3499,2.829,4.2721,3.2691,4.8118,6.5156,4.4792,4.4464,2.0861,3.0903,3.1869,4.4379,2.0271,3.058,3.699,2.7213,4.43,0.044,0.6764,4.8054,2.9622,-1.632,-0.3197
2.9867,2.3675,2.8085,2.5417,3.4599,3.0887,5.5061,0.3356,2.7443,3.7299,3.1992,4.6357,6.2365,4.5478,4.7188,2.5089,3.4587,3.5007,4.6039,2.473,3.379,3.7988,2.8202,4.1737,-0.2744,0.1864,4.3178,2.6801,-1.8019,-0.2612
3.1173,2.5086,2.8446,2.6353,3.4092,3.0266,5.1091,0.2759,2.6153,3.119,3.0615,4.4518,6.0131,4.6602,4.9835,2.9117,3.8274,3.7834,4.7864,2.9154,3.7148,3.916,2.9018,3.9911,-0.5348,-0.2942,3.8748,2.3901,-1.9582,-0.2482
3.2237,2.6261,2.8586,2.707,3.3444,2.9252,4.6988,0.1791,2.4443,2.4661,2.8614,4.2598,5.8498,4.8076,5.222,3.2671,4.1692,4.0036,4.9585,3.3261,4.0461,4.0284,2.9423,3.8715,-0.7478,-0.7618,3.4704,2.0881,-2.0881,-0.2814
3.2974,2.7106,2.8492,2.7496,3.2678,2.7895,4.2954,0.062,2.2461,1.8123,2.6223,4.0697,5.7473,4.9772,5.4119,3.5476,4.4569,4.1351,5.0944,3.6759,4.3521,4.1169,2.9287,3.8018,-0.9273,-1.2099,3.1044,1.7819,-2.1825,-0.3596
3.3305,2.7535,2.8123,2.7569,3.1829,2.6299,3.9242,-0.0534,2.046,1.2092,2.3822,3.9006,5.7034,5.1534,5.5324,3.7301,4.6681,4.1604,5.1751,3.9395,4.6134,4.1692,2.8624,3.7687,-1.0856,-1.6275,2.7848,1.4928,-2.2387,-0.4808
3.3168,2.7479,2.7416,2.7251,3.0927,2.4598,3.6106,-0.145,1.8739,0.7114,2.1857,3.7764,5.7122,5.3199,5.5679,3.7992,4.7877,4.0736,5.1916,4.0987,4.8134,4.1811,2.7574,3.7614,-1.2284,-1.9971,2.5276,1.251,-2.2608,-0.6422
3.2527,2.6897,2.6305,2.653,2.9991,2.2917,3.3751,-0.1953,1.7572,0.3662,2.073,3.7177,5.7642,5.462,5.5118,3.7503,4.81,3.8803,5.144,4.1461,4.9411,4.1552,2.6337,3.7718,-1.3513,-2.2956,2.352,1.0889,-2.2593,-0.8402
3.1379,2.5801,2.4752,2.5439,2.9036,2.1353,3.2286,-0.1953,1.7135,0.2019,2.068,3.7345,5.8463,5.5685,5.3664,3.5919,4.7386,3.5966,5.0403,4.0871,4.994,4.0982,2.5103,3.7947,-1.4403,-2.498,2.2736,1.031,-2.2482,-1.0692
2.9761,2.4274,2.2776,2.4068,2.8093,1.9971,3.1709,-0.1461,1.7459,0.2203,2.172,3.821,5.9432,5.6354,5.1428,3.3462,4.5866,3.2463,4.8938,3.9413,4.9804,4.0191,2.399,3.8269,-1.475,-2.5823,2.2972,1.0854,-2.2399,-1.3214
2.7756,2.2481,2.0472,2.2575,2.7234,1.8822,3.1918,-0.0565,1.8436,0.3945,2.3621,3.955,6.04,5.6668,4.8578,3.0474,4.3752,2.858,4.7209,3.7418,4.9206,3.9282,2.303,3.8675,-1.4346,-2.5368,2.4131,1.2404,-2.2415,-1.5873
2.5488,2.0666,1.8013,2.1185,2.6586,1.7964,3.2755,0.0604,1.9861,0.6734,2.5984,4.1029,6.1244,5.6754,4.5312,2.7384,4.1308,2.4611,4.5398,3.5317,4.8449,3.8366,2.218,3.9164,-1.3057,-2.3638,2.5959,1.4658,-2.2519,-1.8572
2.3115,1.9113,1.5613,2.0153,2.6324,1.7476,3.4038,0.1928,2.1498,0.992,2.8335,4.2273,6.1871,5.6788,4.1829,2.4634,3.8807,2.0819,4.368,3.3568,4.7878,3.7544,2.1358,3.9732,-1.0886,-2.0827,2.8079,1.7187,-2.2615,-2.1227
2.0805,1.8095,1.3489,1.9719,2.6628,1.745,3.5592,0.3335,2.3141,1.2843,3.024,4.296,6.2224,5.6949,3.8308,2.2614,3.6483,1.7402,4.2206,3.2583,4.7805,3.6903,2.0487,4.0347,-0.7999,-1.7285,3.0044,1.953,-2.2555,-2.378
1.8722,1.7818,1.1811,2.0059,2.764,1.7968,3.7265,0.4821,2.4656,1.4957,3.1393,4.2899,6.2267,5.7364,3.4904,2.1596,3.4498,1.448,4.1091,3.2646,4.8438,3.6498,1.9541,4.0941,-0.4718,-1.3467,3.1411,2.1275,-2.2185,-2.6203
1.7011,1.8383,1.0681,2.1246,2.9417,1.9081,3.8933,0.6438,2.599,1.5922,3.1667,4.2067,6.199,5.8087,3.1754,2.1709,3.294,1.2099,4.0411,3.3874,4.9844,3.6359,1.8569,4.142,-0.1448,-0.9855,3.1835,2.2145,-2.1388,-2.8489
1.5788,1.9777,1.0123,2.3249,3.1925,2.0793,4.0519,0.8274,2.717,1.5674,3.1122,4.0621,6.1421,5.9099,2.8986,2.2932,3.1831,1.0257,4.0208,3.6215,5.1949,3.6502,1.771,4.1699,0.1415,-0.686,3.1159,2.2049,-2.0134,-3.0643
1.513,2.1884,1.0098,2.5942,3.5038,2.3068,4.2004,1.0416,2.8276,1.4423,2.997,3.8852,6.0646,6.0329,2.6711,2.5122,3.1153,0.8921,4.049,3.9472,5.4572,3.6937,1.7162,4.1759,0.3583,-0.4727,2.9497,2.1109,-1.849,-3.2669
1.5058,2.4506,1.0523,2.9135,3.8573,2.5832,4.3435,1.2909,2.9412,1.2603,2.8512,3.7118,5.9815,6.1696,2.5004,2.8046,3.086,0.8049,4.1234,4.3354,5.7485,3.7671,1.7124,4.1677,0.4954,-0.3478,2.725,1.9641,-1.6618,-3.457
1.5527,2.7405,1.1288,3.2605,4.2316,2.898,4.491,1.5731,3.067,1.0779,2.7057,3.5748,5.9136,6.3137,2.3887,3.1417,3.0884,0.7587,4.2372,4.7535,6.0462,3.87,1.7735,4.1631,0.5639,-0.2906,2.5058,1.8089,-1.4741,-3.6363
1.6418,3.0332,1.2276,3.6121,4.6052,3.2374,4.6546,1.8778,3.2086,0.951,2.5853,3.4965,5.8844,6.462,2.3309,3.4933,3.1132,0.7462,4.3791,5.17,6.3325,3.9995,1.9014,4.1861,0.5926,-0.2645,2.365,1.6928,-1.309,-3.8082
1.7555,3.3055,1.3367,3.9468,4.9585,3.5843,4.8433,2.1872,3.362,0.9231,2.5037,3.4838,5.9147,6.6142,2.3151,3.8297,3.1478,0.7576,4.5326,5.5581,6.5956,4.1489,2.0844,4.2599,0.6191,-0.2279,2.367,1.6549,-1.1845,-3.9793
1.8725,3.5374,1.4447,4.2452,5.2746,3.9187,5.0592,2.4785,3.5147,1.0164,2.463,3.5282,6.0175,6.77,2.324,4.1244,3.1765,0.7805,4.6773,5.8965,6.8292,4.3069,2.2984,4.3984,0.6784,-0.1475,2.549,1.717,-1.1098,-4.1583
1.9718,3.7132,1.5405,4.4913,5.5395,4.2196,5.2951,2.7283,3.6486,1.2287,2.4563,3.6116,6.1931,6.9269,2.3378,4.3547,3.1812,0.8011,4.7916,6.1694,7.0294,4.4587,2.5137,4.6006,0.7925,-0.0078,2.9108,1.8799,-1.0825,-4.3551
2.0362,3.8211,1.6141,4.6724,5.7424,4.467,5.5348,2.9168,3.7437,1.5367,2.4723,3.7121,6.4274,7.0772,2.3377,4.5029,3.1438,0.8063,4.8557,6.3653,7.192,4.5884,2.7014,4.8491,0.9645,0.1861,3.4135,2.1242,-1.0908,-4.5774
2.0562,3.8548,1.6574,4.7814,5.8765,4.6457,5.756,3.0325,3.7835,1.9023,2.5005,3.8116,6.6939,7.2086,2.31,4.5582,3.0497,0.7866,4.8571,6.4766,7.3107,4.6828,2.8412,5.1138,1.1795,0.4111,3.9894,2.4164,-1.1173,-4.8284
2.0323,3.8144,1.6664,4.818,5.9408,4.7485,5.9353,3.0749,3.7596,2.282,2.5337,3.898,6.959,7.307,2.2488,4.5187,2.8927,0.7391,4.7936,6.5007,7.3791,4.7348,2.9249,5.36,1.4107,0.6363,4.5584,2.7172,-1.145,-5.1052
1.9757,3.7079,1.6424,4.7909,5.9414,4.7785,6.0535,3.055,3.6741,2.6339,2.5685,3.9657,7.1893,7.3615,2.1585,4.3931,2.6783,0.6691,4.6762,6.4426,7.3934,4.746,2.9572,5.5575,1.6279,0.832,5.0462,2.9894,-1.162,-5.3984
1.9059,3.5513,1.5928,4.7177,5.8923,4.7495,6.1001,2.9929,3.5385,2.9234,2.604,4.0119,7.3592,7.3688,2.0533,4.2014,2.424,0.5896,4.527,6.3156,7.3566,4.7267,2.952,5.6878,1.8064,0.9793,5.3995,3.2037,-1.1642,-5.695
1.8461,3.367,1.5298,4.6225,5.814,4.6842,6.0753,2.9128,3.3707,3.1259,2.6376,4.0327,7.456,7.336,1.9542,3.9718,2.1567,0.5185,4.3751,6.1418,7.2804,4.6935,2.9278,5.7478,1.9323,1.0725,5.5934,3.3421,-1.1553,-5.9812
1.8179,3.18,1.4673,4.5316,5.7298,4.6099,5.99,2.8379,3.1904,3.2277,2.6631,4.0209,7.481,7.2795,1.8837,3.7356,1.9068,0.4732,4.2499,5.9477,7.1843,4.6647,2.9013,5.7485,2.0038,1.1184,5.6318,3.3978,-1.1443,-6.2465
1.8345,3.0128,1.4168,4.4672,5.6614,4.5523,5.8632,2.7853,3.0152,3.2258,2.6697,3.9667,7.4472,7.2204,1.8588,3.5199,1.6996,0.4649,4.1733,5.7591,7.0915,4.6558,2.8838,5.7095,2.028,1.1308,5.5407,3.374,-1.1413,-6.4856
1.8972,2.8794,1.3835,4.4414,5.6232,4.5298,5.7178,2.7645,2.8581,3.1272,2.6442,3.8615,7.3736,7.1773,1.8855,3.3402,1.5489,0.4939,4.1544,5.5934,7.0212,4.6735,2.8787,5.6513,2.0154,1.1236,5.3581,3.2808,-1.1537,-6.6988
1.993,2.7814,1.364,4.4524,5.6185,4.5486,5.5759,2.7762,2.7267,2.948,2.5751,3.7027,7.2778,7.159,1.9556,3.196,1.4518,0.5477,4.1857,5.4542,6.9824,4.714,2.8822,5.5883,1.9737,1.1055,5.1227,3.1334,-1.1849,-6.8896
2.0973,2.7067,1.3476,4.4843,5.6386,4.601,5.4542,2.8148,2.6246,2.7121,2.4577,3.4971,7.1699,7.1602,2.0471,3.0698,1.3895,0.6033,4.2451,5.329,6.9691,4.762,2.885,5.5234,1.905,1.0774,4.866,2.9486,-1.2333,-7.0619
2.1792,2.6333,1.3197,4.5112,5.665,4.6678,5.362,2.8704,2.5527,2.4499,2.297,3.2623,7.0501,7.1608,2.1299,2.9323,1.3323,0.6324,4.3005,5.1925,6.9607,4.7947,2.8763,5.4482,1.8062,1.0338,4.6083,2.7433,-1.2941,-7.2164
2.2093,2.5362,1.2675,4.5058,5.6759,4.725,5.3008,2.932,2.5116,2.1949,2.1078,3.023,6.9098,7.1322,2.1737,2.7516,1.2488,0.6104,4.3192,5.0149,6.9279,4.7884,2.8469,5.347,1.6733,0.966,4.3592,2.5328,-1.3602,-7.3494
2.1686,2.3958,1.1863,4.4477,5.6533,4.7512,5.2669,2.9899,2.5021,1.9796,1.9124,2.8054,6.7371,7.0461,2.1571,2.5037,1.1159,0.5244,4.2767,4.7724,6.8423,4.726,2.7925,5.2033,1.5064,0.8677,4.1213,2.33,-1.4243,-7.4537
2.0535,2.2056,1.0825,4.3316,5.5895,4.7346,5.2544,3.0372,2.5251,1.8296,1.7346,2.6304,6.5243,6.8847,2.075,2.181,0.9264,0.3788,4.1642,4.4556,6.6863,4.6035,2.7155,5.0084,1.3139,0.7388,3.8956,2.1458,-1.4798,-7.5217
1.8776,1.9743,0.9724,4.1688,5.49,4.6761,5.2589,3.071,2.5803,1.7593,1.5936,2.5082,6.2729,6.6473,1.9411,1.7953,0.6923,0.1962,3.9917,4.0747,6.4597,4.4327,2.6258,4.7664,1.1131,0.5877,3.6863,1.9891,-1.5223,-7.5494
1.6682,1.7248,0.8776,3.9844,5.3722,4.5886,5.2793,3.0923,2.6646,1.7691,1.5,2.4356,5.9977,6.3533,1.785,1.3755,0.4418,0.0135,3.7856,3.6579,6.1818,4.2408,2.5407,4.4966,0.9274,0.4303,3.5028,1.8668,-1.5505,-7.54
1.4596,1.4876,0.8184,3.8108,5.2605,4.4925,5.3187,3.1054,2.7721,1.8472,1.4539,2.3983,5.7252,6.0382,1.6452,0.9599,0.2129,-0.1273,3.5835,3.2454,5.8867,4.0649,2.4823,4.2312,0.7811,0.2866,3.3602,1.7837,-1.5678,-7.5044
1.2855,1.293,0.8076,3.6782,5.1793,4.4097,5.3839,3.1172,2.8942,1.974,1.4474,2.3774,5.4896,5.7466,1.5591,0.5874,0.0436,-0.1882,3.4252,2.8798,5.6159,3.9442,2.475,4.0091,0.6947,0.1768,3.2769,1.7428,-1.5814,-7.4601
1.1721,1.1632,0.8473,3.6071,5.1471,4.3586,5.4825,3.1351,3.0216,2.1274,1.4687,2.3561,5.3256,5.5218,1.5541,0.2886,-0.0369,-0.1444,3.3442,2.5966,5.4078,3.9119,2.54,3.8683,0.6805,0.1166,3.2701,1.7457,-1.6013,-7.4265
1.1329,1.1067,0.9285,3.6033,5.1707,4.3497,5.6192,3.1654,3.1455,2.2872,1.5057,2.3259,5.26,5.3955,1.6401,0.0796,-0.0153,0.0097,3.3605,2.4165,5.2889,3.9864,2.6899,3.8362,0.7408,0.1137,3.3503,1.7915,-1.6377,-7.4202
1.166,1.1159,1.0334,3.6561,5.2435,4.3826,5.7899,3.2106,3.2578,2.4368,1.5481,2.2876,5.3034,5.3799,1.8067,-0.0406,0.1024,0.2587,3.4744,2.3406,5.2671,4.1661,2.9235,3.9224,0.8683,0.1652,3.5154,1.8766,-1.6981,-7.45
1.2543,1.1682,1.1394,3.7412,5.3457,4.4462,5.9784,3.267,3.3505,2.5615,1.5871,2.2487,5.4451,5.4637,2.0255,-0.0894,0.2915,0.5695,3.6662,2.3502,5.3294,4.4271,3.2213,4.1138,1.0468,0.2577,3.7466,1.9919,-1.7845,-7.5158
1.3694,1.2311,1.2236,3.8259,5.4483,4.5201,6.1543,3.3249,3.4136,2.6456,1.6134,2.2184,5.6525,5.6129,2.2569,-0.0952,0.5138,0.8984,3.899,2.4116,5.4451,4.727,3.5463,4.3752,1.2547,0.3688,4.0079,2.1226,-1.8928,-7.6083
1.4771,1.27,1.2675,3.8767,5.5191,4.5794,6.2764,3.369,3.4346,2.671,1.6163,2.2019,5.8752,5.7784,2.4597,-0.0906,0.726,1.2003,4.1268,2.4842,5.5729,5.0125,3.8492,4.6551,1.4667,0.4719,4.25,2.2479,-2.0136,-7.7125
1.5458,1.2564,1.26,3.868,5.5304,4.601,6.3003,3.3822,3.3993,2.6181,1.5837,2.1975,6.055,5.907,2.6015,-0.1035,0.8901,1.4395,4.3047,2.5302,5.6711,5.2315,4.0791,4.8954,1.6568,0.5405,4.4187,2.3441,-2.1351,-7.8114
1.5536,1.1758,1.2002,3.7884,5.4663,4.5692,6.1898,3.349,3.2953,2.4711,1.5053,2.1952,6.1385,5.9543,2.6666,-0.1508,0.9822,1.5964,4.4,2.5245,5.7086,5.3451,4.1959,5.0446,1.8014,0.5545,4.4658,2.3885,-2.2462,-7.8902
1.4933,1.0316,1.0973,3.6443,5.3279,4.4805,5.9289,3.2606,3.1166,2.225,1.3759,2.1791,6.0896,5.8964,2.6589,-0.2335,0.9986,1.6716,4.4002,2.4606,5.6725,5.3373,4.1817,5.0679,1.8829,0.5038,4.3604,2.3641,-2.3389,-7.9386
1.3749,0.8449,0.9684,3.4586,5.1337,4.3446,5.5293,3.1174,2.8676,1.8916,1.1984,2.131,5.8989,5.7361,2.5999,-0.3376,0.956,1.6842,4.3156,2.3524,5.5724,5.2187,4.0465,4.9559,1.8928,0.391,4.0974,2.2634,-2.4101,-7.9529
1.222,0.6488,0.8356,3.2652,4.9166,4.181,5.0324,2.9299,2.5653,1.5017,0.9847,2.0357,5.5875,5.5032,2.5223,-0.4382,0.8864,1.6662,4.1772,2.2296,5.4373,5.025,3.8275,4.7263,1.8336,0.2317,3.7004,2.0913,-2.4614,-7.9353
1.0674,0.4803,0.7203,3.1006,4.7156,4.0146,4.5027,2.7182,2.2387,1.1016,0.755,1.8854,5.2026,5.2473,2.4611,-0.5067,0.828,1.6527,4.0286,2.1295,5.3084,4.8076,3.5812,4.42,1.7195,0.0512,3.2191,1.8654,-2.4971,-7.8937
0.9446,0.3712,0.6395,2.9947,4.5669,3.8685,4.0152,2.5076,1.9238,0.7437,0.5334,1.6834,4.808,5.0255,2.4444,-0.5196,0.8151,1.6732,3.9155,2.0868,5.228,4.6222,3.371,4.0924,1.5731,-0.1193,2.7205,1.6128,-2.5228,-7.8393
0.8805,0.3399,0.6023,2.9635,4.4944,3.7592,3.6381,2.324,1.6568,0.4744,0.3438,1.4439,4.4693,4.8884,2.4878,-0.4642,0.8692,1.7446,3.8743,2.1235,5.2279,4.5157,3.2518,3.8015,1.4213,-0.2491,2.2762,1.3665,-2.5435,-7.7843
0.8893,0.3876,0.6092,3.0058,4.5046,3.6935,3.4176,2.1882,1.4664,0.3219,0.2048,1.1898,4.2388,4.8674,2.5915,-0.3431,0.9941,1.8689,3.924,2.2438,5.3212,4.5153,3.2574,3.5949,1.2899,-0.3141,1.9476,1.1581,-2.5626,-7.74
0.9701,0.4991,0.6538,3.1047,4.5847,3.668,3.3669,2.1117,1.3667,0.289,0.1254,0.9472,4.1439,4.9667,2.743,-0.1726,1.1761,2.0343,4.062,2.4325,5.4981,4.6233,3.3936,3.5004,1.1975,-0.3014,1.7738,1.0117,-2.5806,-7.7139
1.1081,0.647,0.7257,3.2318,4.7059,3.6706,3.4634,2.0938,1.3547,0.3519,0.104,0.7394,4.181,5.1625,2.9212,0.0209,1.3881,2.2206,4.2659,2.6593,5.7285,4.8165,3.6364,3.5202,1.1525,-0.2127,1.7623,0.9385,-2.5951,-7.7078
1.2784,0.799,0.8136,3.3552,4.8303,3.6836,3.6536,2.1225,1.4104,0.4659,0.1287,0.581,4.3163,5.4079,3.1021,0.2081,1.5972,2.4049,4.4998,2.8866,5.969,5.053,3.9381,3.6309,1.1508,-0.065,1.8881,0.9336,-2.601,-7.7168
1.4519,0.925,0.9073,3.4457,4.9187,3.6876,3.8659,2.1769,1.5015,0.5761,0.1802,0.4751,4.4935,5.6435,3.2635,0.3637,1.7719,2.5673,4.723,3.0784,6.1731,5.2806,4.2368,3.7887,1.1772,0.1118,2.098,0.9773,-2.5918,-7.7291
1.602,1.003,0.9993,3.4838,4.9391,3.6657,4.026,2.2315,1.5902,0.6301,0.2358,0.4128,4.6467,5.8109,3.3883,0.4716,1.8893,2.6938,4.8988,3.2085,6.3018,5.4492,4.4701,3.9396,1.2093,0.2792,2.3219,1.0392,-2.5628,-7.7272
1.7093,1.0231,1.0842,3.4621,4.8741,3.6075,4.0737,2.2622,1.6416,0.5899,0.2742,0.3775,4.7155,5.8651,3.4657,0.5282,1.9392,2.7784,5.0017,3.2655,6.3323,5.5211,4.588,4.0314,1.223,0.3975,2.4886,1.0853,-2.5135,-7.6919
1.7655,0.988,1.1597,3.387,4.7242,3.5124,3.976,2.2519,1.6317,0.4398,0.2807,0.3502,4.6587,5.7843,3.4918,0.5421,1.9247,2.8221,5.0221,3.2545,6.2618,5.4794,4.5649,4.0254,1.1986,0.4329,2.5417,1.0873,-2.448,-7.6072
1.7737,0.911,1.2252,3.2757,4.5078,3.3894,3.7339,2.1943,1.5538,0.1902,0.2508,0.3166,4.464,5.5743,3.4695,0.5307,1.8599,2.8316,4.9663,3.1939,6.1076,5.3308,4.4053,3.9058,1.1259,0.3666,2.4527,1.03,-2.374,-7.4658
1.7476,0.8123,1.2814,3.1515,4.257,3.2559,3.3815,2.0959,1.42,-0.1254,0.1911,0.271,4.1508,5.2661,3.408,0.5142,1.7647,2.816,4.853,3.1099,5.9011,5.1033,4.1433,3.6824,1.0063,0.1994,2.2273,0.916,-2.2996,-7.2734
1.7066,0.7129,1.3293,3.0379,4.0095,3.132,2.9774,1.9736,1.2591,-0.4582,0.1175,0.2175,3.7653,4.9087,3.3221,0.5098,1.659,2.7848,4.708,3.0283,5.6794,4.8389,3.8338,3.3883,0.8526,-0.0462,1.9036,0.765,-2.231,-7.05
1.6719,0.6305,1.3693,2.952,3.7999,3.0352,2.5906,1.851,1.1085,-0.7557,0.0508,0.1678,3.3696,4.5578,3.2307,0.5267,1.5572,2.7455,4.5574,2.9684,5.4766,4.5831,3.5386,3.0717,0.6857,-0.3301,1.5421,0.6086,-2.1703,-6.8266
1.6617,0.5758,1.4013,2.9012,3.6513,2.9753,2.2843,1.7525,1.0053,-0.9736,0.0108,0.1365,3.0275,4.2634,3.1538,0.564,1.466,2.7025,4.4221,2.9385,5.3165,4.3745,3.3108,2.784,0.5297,-0.6033,1.2117,0.4813,-2.1158,-6.6384
1.6865,0.5511,1.4245,2.8817,3.5705,2.9512,2.1014,1.6975,0.9759,-1.086,0.0104,0.1371,2.7901,4.0604,3.1089,0.6121,1.3845,2.6575,4.3136,2.9356,5.2083,4.2361,3.1821,2.5682,0.4069,-0.8177,0.9727,0.4125,-2.0643,-6.5163
1.7477,0.5514,1.4379,2.8804,3.547,2.9518,2.0553,1.696,1.03,-1.0907,0.0524,0.1773,2.6842,3.9612,3.107,0.6559,1.3061,2.6102,4.2339,2.9475,5.1468,4.1718,3.1565,2.4492,0.3337,-0.9376,0.8636,0.4187,-2.0132,-6.4785
1.8365,0.5667,1.4405,2.879,3.5569,2.9586,2.1269,1.7463,1.1572,-1.0106,0.1273,0.2564,2.7072,3.9553,3.1496,0.6808,1.2237,2.5596,4.1771,2.9579,5.1152,4.1674,3.2122,2.4286,0.3179,-0.9466,0.8919,0.4998,-1.962,-6.5253
1.9356,0.5858,1.431,2.8595,3.5688,2.9506,2.2699,1.8344,1.3289,-0.8885,0.215,0.3645,2.8274,4.0121,3.2283,0.6765,1.1329,2.5053,4.133,2.9517,5.0912,4.1961,3.31,2.4849,0.3576,-0.8513,1.0329,0.6391,-1.913,-6.6389
2.0235,0.5997,1.408,2.8096,3.5529,2.9098,2.422,1.9369,1.505,-0.7778,0.2882,0.4837,2.9926,4.0904,3.3272,0.6417,1.0352,2.4478,4.0913,2.9199,5.0535,4.2269,3.4044,2.5798,0.4417,-0.6795,1.2353,0.8055,-1.8698,-6.7871
2.0799,0.6052,1.3712,2.7266,3.4894,2.8268,2.52,2.0263,1.6425,-0.7303,0.3195,0.5908,3.1422,4.1482,3.4269,0.5849,0.9396,2.3889,4.045,2.8628,4.9885,4.2327,3.456,2.6674,0.551,-0.4744,1.4329,0.9602,-1.8359,-6.9313
2.0915,0.6072,1.3234,2.6199,3.374,2.7042,2.5151,2.0774,1.7061,-0.7833,0.2876,0.6617,3.2225,4.1546,3.5111,0.5247,0.861,2.3318,3.9938,2.7917,4.8947,4.1985,3.4421,2.7058,0.6611,-0.2854,1.5599,1.0633,-1.8127,-7.036
2.0572,0.6194,1.2729,2.5107,3.2216,2.5588,2.3846,2.0738,1.6763,-0.9502,0.1835,0.6774,3.1997,4.0974,3.5722,0.4871,0.8192,2.2815,3.9452,2.7275,4.7853,4.1251,3.362,2.6673,0.7459,-0.1582,1.5656,1.0826,-1.7987,-7.077
1.9893,0.6627,1.2343,2.4293,3.0641,2.4198,2.1377,2.0115,1.5537,-1.2159,0.0139,0.628,3.0688,3.9871,3.6142,0.502,0.8346,2.2448,3.914,2.6979,4.6866,4.0296,3.2377,2.5447,0.7813,-0.1258,1.4248,0.9996,-1.79,-7.0465
1.9121,0.7611,1.2281,2.4094,2.9441,2.3238,1.8135,1.9,1.359,-1.5389,-0.1986,0.516,2.8541,3.8544,3.6533,0.5975,0.9252,2.2295,3.9201,2.7328,4.6328,3.9411,3.1079,2.3526,0.7502,-0.2025,1.1434,0.8148,-1.7819,-6.9545
1.8557,0.9362,1.2767,2.4813,2.9055,2.307,1.4722,1.7593,1.1278,-1.8593,-0.4189,0.3574,2.6042,3.743,3.7132,0.795,1.1022,2.2432,3.9837,2.8572,4.6588,3.8936,3.0187,2.1234,0.6456,-0.3816,0.7562,0.548,-1.7706,-6.8251
1.8479,1.2003,1.3986,2.6643,2.9829,2.3963,1.1804,1.6145,0.9024,-2.1121,-0.6054,0.1788,2.3794,3.6983,3.8181,1.1032,1.3665,2.2911,4.12,3.0856,4.7915,3.9167,3.0117,1.8994,0.4729,-0.638,0.3196,0.2362,-1.755,-6.6906
1.9059,1.5517,1.6021,2.96,3.1915,2.6004,0.9959,1.4888,0.7223,-2.2417,-0.7193,0.0121,2.2374,3.7556,3.9844,1.5149,1.7066,2.3735,4.3334,3.4166,5.0413,4.028,3.1128,1.7231,0.2493,-0.9343,-0.1014,-0.0733,-1.7368,-6.5835
2.0303,1.9712,1.881,3.3498,3.5218,2.906,0.9529,1.3968,0.6144,-2.2163,-0.7335,-0.1129,2.2186,3.93,4.2139,2.0057,2.0986,2.4849,4.6144,3.8304,5.3977,4.2272,3.3247,1.6272,0.0017,-1.2292,-0.4458,-0.332,-1.7193,-6.5287
2.2037,2.424,2.2131,3.7954,3.9389,3.2779,1.0539,1.3412,0.5867,-2.037,-0.6405,-0.1761,2.3368,4.2114,4.4906,2.5359,2.5089,2.6139,4.9392,4.2905,5.8289,4.4949,3.6247,1.6278,-0.2387,-1.4858,-0.6698,-0.5008,-1.7058,-6.5382
2.3936,2.8648,2.5628,4.2446,4.3878,3.6652,1.2686,1.3122,0.6267,-1.7388,-0.4554,-0.1715,2.5756,4.5653,4.7828,3.0563,2.8991,2.744,5.2726,4.7486,6.2856,4.7962,3.969,1.7209,-0.441,-1.6788,-0.7545,-0.5585,-1.6977,-6.6075
2.5598,3.245,2.8869,4.6402,4.8035,4.0107,1.541,1.2916,0.7049,-1.3842,-0.2135,-0.1088,2.8919,4.9392,5.0494,3.5148,3.2324,2.8566,5.5747,5.152,6.71,5.087,4.3022,1.8837,-0.5812,-1.7975,-0.7076,-0.5055,-1.6943,-6.7185
2.6633,3.5226,3.1425,4.9302,5.1232,4.2626,1.8019,1.2586,0.7826,-1.0481,0.0381,-0.0093,3.2264,5.2732,5.2489,3.8652,3.4794,2.9339,5.8081,5.4529,7.0458,5.3235,4.5699,2.0802,-0.6453,-1.8448,-0.5592,-0.3621,-1.6927,-6.8442
2.6746,3.6689,3.2948,5.0771,5.2982,4.3838,1.9854,1.1967,0.8225,-0.8005,0.2516,0.1013,3.5172,5.513,5.3489,4.0744,3.6222,2.9619,5.9451,5.6161,7.2493,5.471,4.73,2.2699,-0.6308,-1.8332,-0.3521,-0.1617,-1.6891,-6.9571
2.5802,3.6737,3.3234,5.065,5.304,4.3585,2.0435,1.0984,0.7976,-0.6889,0.3905,0.1998,3.7143,5.6214,5.3332,4.1272,3.6561,2.9339,5.9727,5.625,7.2974,5.511,4.761,2.4171,-0.5466,-1.7795,-0.1305,0.0584,-1.6799,-7.0372
2.3848,3.5462,3.2259,4.9015,5.144,4.1936,1.9573,0.9669,0.6984,-0.7277,0.4369,0.2714,3.7904,5.5865,5.2049,4.0287,3.5887,2.8516,5.8945,5.4846,7.1925,5.4441,4.6652,2.4989,-0.4096,-1.6996,0.0704,0.2653,-1.6625,-7.0778
2.1103,3.3125,3.0176,4.616,4.849,3.9171,1.7395,0.8145,0.5341,-0.8962,0.3941,0.3124,3.7463,5.4242,4.9856,3.8033,3.4377,2.7259,5.73,5.2206,6.9617,5.29,4.4669,2.5099,-0.2424,-1.6059,0.2308,0.4364,-1.6358,-7.0861
1.7912,3.0111,2.7292,4.2544,4.471,3.5729,1.432,0.6589,0.3299,-1.1443,0.2839,0.3297,3.6096,5.1748,4.7097,3.4907,3.228,2.5751,5.511,4.8758,6.6523,5.0825,4.2067,2.4632,-0.0691,-1.5066,0.3477,0.5616,-1.5999,-7.0805
1.4689,2.6861,2.4018,3.8707,4.0732,3.2128,1.0951,0.5182,0.1208,-1.4064,0.1403,0.3384,3.428,4.8946,4.4173,3.1402,2.9887,2.4224,5.2763,4.503,6.323,4.8635,3.9332,2.3865,0.0888,-1.4064,0.433,0.643,-1.5559,-7.0827
1.1841,2.3806,2.0807,3.5183,3.7177,2.888,0.7941,0.4068,-0.057,-1.6166,0.0012,0.358,3.2578,4.6443,4.1464,2.8036,2.7506,2.292,5.0656,4.1573,6.0328,4.6741,3.6933,2.3156,0.2152,-1.3079,0.507,0.6915,-1.5048,-7.1098
0.97,2.131,1.8088,3.2402,3.4543,2.6401,0.5858,0.3326,-0.174,-1.7241,-0.0997,0.4073,3.1517,4.4761,3.9263,2.5271,2.5429,2.2047,4.913,3.8874,5.8308,4.5475,3.5238,2.2855,0.3024,-1.2137,0.5912,0.7228,-1.4482,-7.1678
0.8476,1.9618,1.6204,3.0633,3.3111,2.4943,0.5061,0.2954,-0.2134,-1.7034,-0.1391,0.4999,3.1464,4.4238,3.7749,2.3454,2.3903,2.175,4.8416,3.7278,5.7473,4.5025,3.4452,2.3218,0.3506,-1.128,0.7012,0.753,-1.3877,-7.2496
0.8232,1.8837,1.5357,2.9945,3.2913,2.456,0.5643,0.2874,-0.1737,-1.5585,-0.1087,0.6403,3.2547,4.4959,3.6988,2.2766,2.3094,2.2076,4.8597,3.6941,5.7898,4.5413,3.46,2.434,0.366,-1.0563,0.8408,0.7941,-1.3259,-7.3374
0.8886,1.893,1.559,3.0216,3.3748,2.5119,0.7422,0.296,-0.0684,-1.32,-0.0157,0.8213,3.4619,4.6751,3.6957,2.3208,2.3069,2.2968,4.9604,3.7815,5.9423,4.6504,3.5552,2.612,0.3577,-1.006,0.9997,0.8505,-1.2666,-7.4083
1.0243,1.9741,1.6779,3.1181,3.5242,2.6339,1,0.3065,0.0785,-1.0366,0.12,1.024,3.7287,4.923,3.757,2.461,2.3778,2.4279,5.1232,3.9673,6.1704,4.804,3.7074,2.8271,0.3334,-0.9844,1.1541,0.9183,-1.2142,-7.441
1.2032,2.103,1.8673,3.2501,3.6951,2.7864,1.2857,0.306,0.2381,-0.7641,0.2701,1.2207,3.9995,5.1884,3.8699,2.668,2.5074,2.5801,5.3179,4.2159,6.4289,4.9699,3.8885,3.0368,0.2973,-0.9978,1.2713,0.9854,-1.1727,-7.4209
1.3955,2.2531,2.095,3.3841,3.8464,2.9351,1.5459,0.2861,0.382,-0.5547,0.4042,1.3789,4.2144,5.4184,4.0196,2.9066,2.6733,2.7316,5.51,4.4867,6.6711,5.1152,4.0704,3.1938,0.248,-1.05,1.3166,1.0337,-1.1443,-7.3429
1.5741,2.4001,2.3285,3.4946,3.9489,3.0537,1.7358,0.2445,0.4865,-0.4482,0.4949,1.4679,4.322,5.569,4.19,3.1427,2.8496,2.8636,5.6668,4.7416,6.8582,5.2122,4.2285,3.2545,0.1803,-1.1418,1.2606,1.0432,-1.1284,-7.212
1.7188,2.5263,2.5417,3.5676,3.9904,3.1292,1.8257,0.1843,0.5355,-0.4681,0.5222,1.464,4.2904,5.6135,4.3649,3.3493,3.0123,2.9636,5.7636,4.952,6.9663,5.2428,4.343,3.1894,0.0869,-1.2708,1.087,0.9959,-1.1207,-7.0405
1.8197,2.6227,2.7187,3.6016,3.9752,3.1622,1.8039,0.1129,0.5207,-0.6205,0.4753,1.3556,4.1143,5.5471,4.5294,3.5109,3.1428,3.0262,5.7875,5.1028,6.9896,5.2008,4.4009,2.9895,-0.037,-1.4303,0.7977,0.8804,-1.1143,-6.8459
1.8782,2.689,2.8555,3.6051,3.9203,3.1643,1.6759,0.0397,0.442,-0.8954,0.3548,1.1464,3.8161,5.3863,4.6719,3.6239,3.2309,3.0524,5.7396,5.1935,6.9398,5.0926,4.3961,2.6701,-0.1897,-1.6096,0.4147,0.6962,-1.1002,-6.6473
1.9057,2.731,2.9574,3.5916,3.8478,3.1517,1.461,-0.0263,0.3064,-1.2702,0.1718,0.8555,3.441,5.1649,4.7856,3.6951,3.2758,3.048,5.6336,5.2354,6.8423,4.9347,4.3292,2.269,-0.3615,-1.7935,-0.0212,0.4551,-1.0703,-6.4637
1.9198,2.7576,3.0362,3.5745,3.7777,3.1391,1.1874,-0.079,0.1272,-1.7129,-0.0533,0.5154,3.0483,4.9263,4.8693,3.7372,3.2837,3.0205,5.4919,5.2471,6.7289,4.7505,4.2073,1.8408,-0.5349,-1.9642,-0.4564,0.1814,-1.0189,-6.3121
1.9395,2.7776,3.1051,3.5627,3.7226,3.1346,0.8869,-0.1165,-0.078,-2.1861,-0.2938,0.1668,2.6994,4.7146,4.9265,3.7646,3.2649,2.9777,5.3396,5.2488,6.631,4.5658,4.0427,1.447,-0.6879,-2.1034,-0.8334,-0.0922,-0.9445,-6.2064
1.9804,2.798,3.1751,3.5587,3.685,3.1369,0.5906,-0.1413,-0.2889,-2.6508,-0.5211,-0.148,2.4469,4.5658,4.964,3.7894,3.2304,2.9262,5.2002,5.2574,6.573,4.4039,3.8519,1.1453,-0.7987,-2.196,-1.0999,-0.3294,-0.8506,-6.1566
2.0505,2.8224,3.2525,3.5594,3.6584,3.1369,0.3258,-0.1597,-0.4851,-3.0696,-0.7086,-0.3923,2.3256,4.5019,4.9892,3.8191,3.1891,2.8708,5.091,5.2838,6.5679,4.283,3.6543,0.9793,-0.8502,-2.231,-1.2179,-0.4963,-0.745,-6.1669
2.149,2.8516,3.3379,3.5574,3.6304,3.1212,0.1133,-0.1788,-0.6481,-3.4103,-0.8361,-0.5409,2.3471,4.5274,5.0079,3.8561,3.1472,2.8152,5.0216,5.3312,6.6158,4.214,3.4709,0.9719,-0.8334,-2.2032,-1.1697,-0.5673,-0.6394,-6.2348
2.266,2.8833,3.4265,3.5442,3.5872,3.0763,-0.0337,-0.2055,-0.7643,-3.6494,-0.893,-0.5842,2.4996,4.6299,5.022,3.898,3.1074,2.761,4.9932,5.3957,6.7049,4.1996,3.3218,1.1214,-0.7485,-2.1133,-0.9608,-0.5292,-0.5472,-6.35
2.3851,2.9128,3.5089,3.5121,3.5177,2.9931,-0.1105,-0.2442,-0.8266,-3.7757,-0.8803,-0.5302,2.7508,4.7829,5.0289,3.9384,3.0698,2.7078,5.0001,5.4675,6.8144,4.2346,3.2234,1.4024,-0.6052,-1.9683,-0.6196,-0.3849,-0.4814,-6.4953
2.4861,2.9333,3.5731,3.4565,3.4169,2.8699,-0.1213,-0.2972,-0.8362,-3.7923,-0.8106,-0.4033,3.0542,4.9521,5.0219,3.9685,3.0323,2.6526,5.0306,5.5332,6.9189,4.3063,3.1849,1.7705,-0.4203,-1.7808,-0.193,-0.1539,-0.452,-6.6482
2.5481,2.9364,3.6063,3.376,3.2865,2.7133,-0.0776,-0.3642,-0.8022,-3.7171,-0.7062,-0.2396,3.3578,5.1015,4.9913,3.9784,2.9909,2.5899,5.0689,5.5774,6.9928,4.396,3.2047,2.1701,-0.2151,-1.5686,0.2601,0.1301,-0.4642,-6.7851
2.5517,2.9129,3.5958,3.2727,3.1348,2.5363,0.0037,-0.4428,-0.7401,-3.58,-0.5935,-0.0809,3.6119,5.1994,4.9265,3.9582,2.9406,2.5122,5.0965,5.5855,7.0144,4.4804,3.2685,2.5427,-0.0123,-1.3526,0.6787,0.4242,-0.5165,-6.8844
2.4815,2.854,3.5319,3.1506,2.9741,2.3551,0.1031,-0.5289,-0.6683,-3.4182,-0.4981,0.034,3.7771,5.2237,4.8182,3.8993,2.8751,2.4105,5.0949,5.5452,6.9687,4.534,3.3506,2.8373,0.1671,-1.1543,1.0081,0.6835,-0.6002,-6.9308
2.3278,2.7528,3.409,3.0146,2.8175,2.1843,0.2017,-0.6166,-0.604,-3.2699,-0.4382,0.0762,3.8296,5.1637,4.6605,3.7964,2.7885,2.2759,5.048,5.4484,6.8488,4.5338,3.4187,3.0173,0.3065,-0.9931,1.2092,0.8695,-0.7007,-6.9176
2.0886,2.6058,3.2278,2.8697,2.6759,2.0351,0.2847,-0.6977,-0.5592,-3.1675,-0.421,0.032,3.7643,5.0218,4.4528,3.6479,2.6763,2.1015,4.9453,5.2933,6.656,4.4623,3.4406,3.0655,0.3958,-0.8833,1.2638,0.9564,-0.8004,-6.8475
1.7707,2.4144,2.9957,2.7199,2.5561,1.9131,0.343,-0.7632,-0.5391,-3.132,-0.4425,-0.0953,3.5938,4.8111,4.2005,3.4573,2.5371,1.8842,4.7843,5.0841,6.3999,4.3124,3.393,2.9853,0.4328,-0.8318,1.1763,0.9356,-0.8823,-6.7323
1.3901,2.1852,2.7267,2.5685,2.4591,1.8197,0.3736,-0.8039,-0.5417,-3.1694,-0.4891,-0.2884,3.3445,4.5527,3.9149,3.2322,2.3731,1.627,4.5718,4.8313,6.0955,4.0889,3.2665,2.7981,0.4226,-0.8379,0.9708,0.8159,-0.9334,-6.59
0.9704,1.9296,2.4391,2.4176,2.3805,1.7531,0.379,-0.8131,-0.5601,-3.2705,-0.5424,-0.5205,3.0506,4.2707,3.6113,2.9837,2.1901,1.339,4.3226,4.5497,5.7618,3.8084,3.0684,2.5363,0.3743,-0.8943,0.6847,0.6197,-0.9466,-6.4414
0.5406,1.6624,2.1536,2.2677,2.3117,1.71,0.3646,-0.7879,-0.5853,-3.4142,-0.5837,-0.7621,2.7464,3.9881,3.3068,2.725,1.9966,1.0342,4.0578,4.2558,5.4186,3.4968,2.8211,2.2367,0.2975,-0.9905,0.3599,0.3776,-0.9204,-6.3063
0.1313,1.3998,1.89,2.1189,2.2421,1.6865,0.3368,-0.7314,-0.6095,-3.5731,-0.5979,-0.9867,2.4606,3.7233,3.0179,2.4694,1.8024,0.7287,3.8007,3.9661,5.0848,3.1843,2.5566,1.9321,0.1985,-1.116,0.0341,0.1211,-0.8571,-6.2
-0.2292,1.1581,1.6655,1.9716,2.1625,1.6783,0.3011,-0.6525,-0.6286,-3.7207,-0.5763,-1.1756,2.2125,3.4887,2.7584,2.2302,1.6172,0.4381,3.5731,3.6955,4.7773,2.9004,2.3093,1.6464,0.0796,-1.2622,-0.2652,-0.1227,-0.761,-6.1311
-0.5176,0.9518,1.4926,1.8284,2.0675,1.681,0.2605,-0.5656,-0.6442,-3.8382,-0.5185,-1.3198,2.0109,3.2909,2.5383,2.0191,1.4493,0.175,3.3919,3.4566,4.5096,2.669,2.1097,1.3925,-0.0601,-1.4233,-0.5226,-0.3354,-0.6376,-6.1013
-0.7189,0.7924,1.3783,1.6943,1.9576,1.6893,0.2151,-0.4881,-0.6634,-3.9184,-0.4322,-1.421,1.8561,3.1319,2.363,1.8462,1.305,-0.0516,3.2676,3.2597,4.2918,2.5056,1.9794,1.1735,-0.2208,-1.595,-0.7343,-0.5085,-0.4938,-6.1056
-0.8281,0.6862,1.323,1.5764,1.8388,1.6966,0.1623,-0.4379,-0.6982,-3.967,-0.3317,-1.4893,1.7426,3.0109,2.2331,1.7188,1.1878,-0.236,3.2025,3.1122,4.1299,2.4162,1.9288,0.9864,-0.3995,-1.7719,-0.9031,-0.6422,-0.3384,-6.1352
-0.8512,0.6333,1.3203,1.4822,1.7208,1.6948,0.0979,-0.4294,-0.7615,-3.9994,-0.2345,-1.5394,1.6633,2.926,2.145,1.6403,1.0988,-0.3748,3.1912,3.0184,4.0257,2.3969,1.9559,0.8264,-0.5866,-1.946,-1.0337,-0.7424,-0.1826,-6.1799
-0.8052,0.627,1.3569,1.417,1.614,1.6751,0.0182,-0.4704,-0.8635,-4.0363,-0.1565,-1.5853,1.613,2.8753,2.092,1.6101,1.0372,-0.466,3.2215,2.9788,3.9774,2.4359,2.0468,0.692,-0.7651,-2.105,-1.1274,-0.8155,-0.0388,-6.2306
-0.7153,0.6551,1.415,1.3817,1.5264,1.6288,-0.0782,-0.5604,-1.0071,-4.0968,-0.1076,-1.634,1.591,2.8586,2.0659,1.6237,1.0017,-0.5076,3.2766,2.9898,3.9807,2.5153,2.1762,0.5886,-0.9106,-2.2314,-1.1784,-0.8634,0.0823,-6.2811
-0.6119,0.7012,1.4747,1.3725,1.4615,1.5489,-0.1883,-0.6898,-1.1851,-4.1935,-0.0878,-1.6815,1.6027,2.8772,2.0586,1.6731,0.9913,-0.4983,3.3378,3.0449,4.0305,2.6136,2.3101,0.5297,-0.994,-2.3033,-1.1727,-0.8789,0.1743,-6.329
-0.5252,0.7485,1.5182,1.3806,1.4177,1.431,-0.3049,-0.8417,-1.3807,-4.3288,-0.0864,-1.7125,1.6581,2.9339,2.0638,1.7487,1.0059,-0.4376,3.3876,3.1344,4.1217,2.7092,2.4113,0.535,-0.9866,-2.296,-1.0905,-0.8449,0.2381,-6.3755
-0.4808,0.7817,1.532,1.3945,1.389,1.274,-0.4172,-0.9958,-1.57,-4.4956,-0.0843,-1.7033,1.7687,3.0311,2.077,1.8398,1.0458,-0.3267,3.4115,3.2469,4.2496,2.7829,2.4449,0.6263,-0.8656,-2.1867,-0.9101,-0.7374,0.2815,-6.424
-0.4957,0.7899,1.5092,1.4024,1.3665,1.0799,-0.5142,-1.1327,-1.728,-4.6798,-0.0583,-1.6288,1.9436,3.1698,2.0949,1.9363,1.1109,-0.1697,3.4003,3.3707,4.4096,2.8208,2.3857,0.8209,-0.6194,-1.9589,-0.615,-0.5325,0.317,-6.4786
-0.576,0.7678,1.4495,1.3949,1.341,0.8532,-0.5876,-1.2383,-1.8355,-4.8658,0.0115,-1.4708,2.186,3.3478,2.1152,2.03,1.1996,0.0263,3.3506,3.4955,4.5965,2.816,2.2233,1.1254,-0.2508,-1.6082,-0.1996,-0.2148,0.3579,-6.5423
-0.7164,0.716,1.3583,1.3673,1.306,0.6003,-0.6344,-1.3075,-1.8852,-5.0412,0.1353,-1.2256,2.4902,3.5591,2.1358,2.1157,1.3079,0.2519,3.2655,3.6145,4.8042,2.7701,1.9649,1.5317,0.2227,-1.1462,0.3267,0.2146,0.4138,-6.6163
-0.9022,0.6407,1.2448,1.3204,1.2586,0.3297,-0.6585,-1.3443,-1.8843,-5.2012,0.3093,-0.9072,2.8418,3.7942,2.1553,2.1923,1.4301,0.496,3.1539,3.7248,5.0257,2.6923,1.6333,2.0158,0.7709,-0.6006,0.9377,0.7342,0.4879,-6.6996
-1.1119,0.5519,1.1204,1.26,1.2008,0.0509,-0.6693,-1.3606,-1.8527,-5.3485,0.5161,-0.5458,3.2187,4.0408,2.1732,2.2617,1.5584,0.7473,3.0284,3.8276,5.2526,2.5974,1.2628,2.5412,1.3552,-0.0126,1.5939,1.3044,0.5765,-6.7895
