FP1,F3,F7,FC3,C3,C5,P3,P7,PO7,PO3,O1,Oz,Pz,CPz,FP2,Fz,F4,F8,FC4,FCz,Cz,C4,C6,P4,P8,PO8,PO4,O2,(corr) HEOG,(corr) VEOG
-0.1152,0.0405,0.1759,0.1712,-0.5389,0.2366,-0.5044,-0.2696,-0.0084,-0.3574,-0.2649,-0.0347,-0.3677,-0.5501,0.5303,0.1232,0.162,0.1059,-0.0985,-0.2214,-0.5168,-0.0815,-0.1789,-0.3376,0.007,0.0584,0.2454,-0.0172,-0.0884,0.5363
-0.0659,0.1667,0.2723,0.3267,-0.4055,0.3431,-0.4955,-0.2245,0.0071,-0.3741,-0.327,-0.1048,-0.4441,-0.5708,0.6313,0.3072,0.1972,0.1543,-0.0586,-0.118,-0.4561,-0.0991,-0.2019,-0.4888,-0.0788,-0.0631,0.1723,-0.126,-0.0043,0.5622
-0.0189,0.272,0.3533,0.46,-0.2831,0.4449,-0.4965,-0.1897,0.0285,-0.4039,-0.4004,-0.1878,-0.5322,-0.6014,0.7233,0.4823,0.2183,0.1984,-0.0401,-0.0347,-0.4066,-0.1406,-0.2475,-0.6574,-0.1888,-0.2035,0.0807,-0.2418,0.0714,0.588
0.018,0.3434,0.4096,0.5513,-0.1881,0.5256,-0.5126,-0.1737,0.0524,-0.4451,-0.4774,-0.2765,-0.6196,-0.6369,0.8021,0.6368,0.2234,0.2324,-0.0468,0.0167,-0.3754,-0.205,-0.3104,-0.8219,-0.3088,-0.3467,-0.0162,-0.3512,0.137,0.6054
0.0396,0.3728,0.4358,0.5868,-0.1335,0.5725,-0.5468,-0.1832,0.0734,-0.4948,-0.5504,-0.3643,-0.6944,-0.6715,0.8663,0.7642,0.2131,0.2534,-0.077,0.0307,-0.3659,-0.2846,-0.3807,-0.9599,-0.4214,-0.4752,-0.105,-0.4411,0.1913,0.6069
0.0455,0.3601,0.433,0.5629,-0.1246,0.5793,-0.5978,-0.2213,0.0866,-0.5485,-0.6124,-0.4443,-0.7471,-0.698,0.9187,0.8639,0.1905,0.2631,-0.1228,0.0106,-0.3753,-0.3658,-0.4458,-1.0514,-0.5091,-0.5728,-0.1736,-0.4996,0.2348,0.5872
0.0404,0.3135,0.4088,0.4884,-0.1571,0.5481,-0.6592,-0.2862,0.0891,-0.6,-0.6575,-0.5095,-0.7708,-0.7084,0.9651,0.9417,0.1615,0.2667,-0.1713,-0.0315,-0.3949,-0.431,-0.4927,-1.0825,-0.558,-0.6272,-0.2126,-0.5182,0.2699,0.5443
0.0331,0.2486,0.3756,0.3831,-0.2174,0.4887,-0.7208,-0.3719,0.0804,-0.6426,-0.6814,-0.5535,-0.763,-0.6957,1.0127,1.0068,0.1336,0.2714,-0.208,-0.0777,-0.4124,-0.4639,-0.5112,-1.0485,-0.5607,-0.6326,-0.2174,-0.4936,0.3008,0.4804
0.0332,0.1838,0.3466,0.2725,-0.2869,0.4155,-0.7713,-0.4693,0.0621,-0.6709,-0.682,-0.5715,-0.7264,-0.6568,1.0683,1.0688,0.1138,0.2841,-0.2208,-0.1092,-0.416,-0.4536,-0.4967,-0.9562,-0.519,-0.5909,-0.1891,-0.4292,0.3325,0.4017
0.0476,0.1359,0.3323,0.1813,-0.3464,0.3431,-0.8018,-0.5672,0.0364,-0.6822,-0.6601,-0.5617,-0.6693,-0.5944,1.1359,1.1332,0.1062,0.3084,-0.204,-0.112,-0.3996,-0.3996,-0.452,-0.8229,-0.4435,-0.5124,-0.1353,-0.3356,0.3698,0.317
0.077,0.1153,0.3367,0.1267,-0.3822,0.2827,-0.8085,-0.655,0.0062,-0.6773,-0.6197,-0.5268,-0.605,-0.5188,1.215,1.1995,0.1108,0.3437,-0.1602,-0.0817,-0.3656,-0.3125,-0.387,-0.675,-0.3526,-0.4144,-0.0694,-0.2293,0.4159,0.2366
0.115,0.1232,0.3559,0.1141,-0.3887,0.2392,-0.7935,-0.7229,-0.0254,-0.661,-0.5673,-0.4737,-0.5506,-0.4472,1.2996,1.2602,0.1222,0.3841,-0.1008,-0.0246,-0.3259,-0.2136,-0.3174,-0.5431,-0.2692,-0.3186,-0.0083,-0.1307,0.4718,0.1703
0.1481,0.151,0.3792,0.1367,-0.3701,0.2109,-0.7645,-0.7639,-0.054,-0.6401,-0.5104,-0.4131,-0.5234,-0.4002,1.3786,1.3025,0.1311,0.42,-0.0435,0.0433,-0.2993,-0.1303,-0.2622,-0.4568,-0.2161,-0.2468,0.0296,-0.0605,0.5359,0.1257
0.1593,0.1828,0.3913,0.178,-0.3379,0.191,-0.7324,-0.7734,-0.0733,-0.6226,-0.4564,-0.3577,-0.5379,-0.3976,1.437,1.3116,0.1257,0.4388,-0.0088,0.1007,-0.3066,-0.0911,-0.2396,-0.4394,-0.2124,-0.2177,0.0284,-0.0365,0.6047,0.1064
0.1314,0.1995,0.3771,0.217,-0.3073,0.1703,-0.7076,-0.7493,-0.0752,-0.6144,-0.4104,-0.3198,-0.6024,-0.4532,1.4594,1.2742,0.0943,0.428,-0.0161,0.1261,-0.3648,-0.1195,-0.2648,-0.503,-0.2698,-0.2432,-0.023,-0.07,0.6734,0.1118
0.0518,0.1834,0.3251,0.2336,-0.2927,0.1406,-0.6973,-0.6921,-0.0505,-0.6182,-0.3735,-0.3091,-0.7161,-0.5711,1.4326,1.1817,0.028,0.3768,-0.0795,0.1032,-0.4827,-0.2287,-0.3466,-0.6468,-0.3903,-0.3263,-0.1287,-0.1637,0.7366,0.136
-0.0851,0.1222,0.2301,0.2136,-0.3043,0.0961,-0.7037,-0.604,0.0091,-0.6321,-0.3417,-0.3294,-0.8693,-0.7441,1.3499,1.0316,-0.0779,0.2777,-0.2059,0.024,-0.6586,-0.4184,-0.4865,-0.8567,-0.5658,-0.46,-0.2845,-0.3104,0.7892,0.1683
-0.2764,0.0108,0.0937,0.1501,-0.3463,0.0349,-0.7232,-0.4894,0.1097,-0.6489,-0.3059,-0.3774,-1.0441,-0.955,1.2122,0.8276,-0.2238,0.1273,-0.3936,-0.1105,-0.8811,-0.675,-0.6776,-1.1075,-0.7787,-0.6278,-0.4778,-0.4926,0.8273,0.1946
-0.5117,-0.1486,-0.0768,0.044,-0.4172,-0.0416,-0.7473,-0.3549,0.2539,-0.6575,-0.2522,-0.4416,-1.218,-1.1797,1.0282,0.5785,-0.4062,-0.0736,-0.6333,-0.2917,-1.1321,-0.9738,-0.9063,-1.3668,-1.0044,-0.8045,-0.6886,-0.6842,0.8492,0.2002
-0.7758,-0.3482,-0.2717,-0.0985,-0.5116,-0.1307,-0.7647,-0.209,0.4395,-0.6444,-0.1654,-0.5027,-1.3673,-1.3924,0.8121,0.2956,-0.6194,-0.3205,-0.9103,-0.5065,-1.3915,-1.2846,-1.1541,-1.6,-1.2141,-0.9591,-0.8915,-0.8531,0.8563,0.1732
-1.0515,-0.5768,-0.4817,-0.2692,-0.6229,-0.2295,-0.7644,-0.0618,0.6595,-0.596,-0.0315,-0.5361,-1.4714,-1.5704,0.5799,-0.0093,-0.8562,-0.6061,-1.2067,-0.7407,-1.641,-1.5769,-1.4012,-1.7753,-1.3788,-1.0585,-1.0584,-0.965,0.854,0.1082
-1.3224,-0.8221,-0.6991,-0.4596,-0.7455,-0.3375,-0.7378,0.0759,0.9019,-0.5017,0.1575,-0.5151,-1.5155,-1.698,0.3456,-0.3259,-1.1093,-0.9205,-1.5044,-0.981,-1.867,-1.826,-1.6292,-1.8687,-1.4729,-1.0712,-1.1621,-0.9885,0.8511,0.009
-1.5743,-1.0715,-0.9183,-0.662,-0.8748,-0.4555,-0.6804,0.1942,1.1508,-0.3556,0.4016,-0.4158,-1.492,-1.7675,0.1195,-0.6449,-1.37,-1.2516,-1.7856,-1.2152,-2.0602,-2.0152,-1.8234,-1.866,-1.4773,-0.9727,-1.1793,-0.8993,0.859,-0.1115
-1.7946,-1.3111,-1.1327,-0.868,-1.0055,-0.584,-0.5914,0.2851,1.3871,-0.1579,0.6911,-0.2209,-1.3997,-1.7775,-0.0914,-0.9559,-1.6263,-1.5839,-2.0334,-1.4306,-2.2134,-2.1357,-1.9729,-1.7635,-1.3813,-0.7493,-1.0931,-0.6845,0.8903,-0.233
-1.97,-1.5237,-1.3309,-1.0645,-1.1284,-0.7186,-0.4725,0.3438,1.5918,0.0862,1.0077,0.0769,-1.2404,-1.7293,-0.2801,-1.2441,-1.8606,-1.8971,-2.2298,-1.6111,-2.3172,-2.1834,-2.0682,-1.5656,-1.183,-0.3997,-0.8945,-0.3434,0.9567,-0.3324
-2.0831,-1.6862,-1.4937,-1.2308,-1.2267,-0.8462,-0.3249,0.3696,1.7482,0.3676,1.3277,0.4741,-1.0157,-1.6214,-0.4352,-1.4858,-2.0477,-2.1643,-2.3535,-1.7344,-2.3564,-2.1531,-2.0982,-1.2802,-0.888,0.0647,-0.5815,0.1126,1.0674,-0.3879
-2.1106,-1.7686,-1.5913,-1.3363,-1.2733,-0.9425,-0.1474,0.3659,1.8445,0.6767,1.6259,0.9573,-0.7228,-1.4451,-0.5371,-1.6472,-2.1542,-2.3516,-2.3784,-1.7707,-2.3074,-2.0341,-2.0461,-0.9138,-0.5061,0.6229,-0.1579,0.6631,1.2282,-0.3849
-2.0226,-1.735,-1.5856,-1.3414,-1.232,-0.9715,0.0656,0.3402,1.8757,1.0052,1.8803,1.505,-0.3531,-1.1827,-0.5569,-1.685,-2.1409,-2.4199,-2.2741,-1.6838,-2.1385,-1.807,-1.8881,-0.4685,-0.0491,1.2481,0.3689,1.2817,1.4402,-0.3191
-1.7854,-1.5472,-1.4341,-1.2015,-1.0604,-0.89,0.3237,0.3033,1.8441,1.348,2.0755,2.091,0.107,-0.8081,-0.458,-1.5515,-1.9666,-2.3282,-2.0082,-1.4348,-1.8135,-1.4448,-1.5946,0.0596,0.4712,1.9115,0.9885,1.94,1.7002,-0.1989
-1.367,-1.1708,-1.0976,-0.8737,-0.7171,-0.6544,0.6392,0.2688,1.7586,1.7026,2.2052,2.6866,0.6727,-0.2916,-0.202,-1.2022,-1.5947,-2.0405,-1.5517,-0.9871,-1.2969,-0.9181,-1.1353,0.6776,1.0432,2.5848,1.6876,2.6091,2.0005,-0.0446
-0.7436,-0.5813,-0.548,-0.3251,-0.169,-0.2287,1.0238,0.2517,1.6336,2.0682,2.2719,3.2628,1.3547,0.3923,0.2442,-0.6048,-0.9993,-1.5326,-0.885,-0.3136,-0.5612,-0.2031,-0.4871,1.391,1.6539,3.2409,2.4476,3.2613,2.3305,0.1145
0.0933,0.229,0.2239,0.4594,0.6001,0.4064,1.4851,0.267,1.4862,2.4432,2.2852,3.7907,2.1537,1.2574,0.8998,0.2529,-0.1715,-0.7983,-0.004,0.5969,0.4053,0.7099,0.358,2.1973,2.286,3.8531,3.2431,3.8694,2.6762,0.2458
1.1317,1.2462,1.2037,1.471,1.5831,1.2471,2.0223,0.3269,1.3336,2.8221,2.2587,4.2432,3.055,2.2976,1.7636,1.3564,0.8759,0.1463,1.0751,1.7342,1.5924,1.8091,1.3852,3.0802,2.9166,4.3938,4.0402,4.4064,3.022,0.3191
2.3359,2.4335,2.3515,2.6741,2.7468,2.2629,2.6231,0.4375,1.1897,3.1941,2.206,4.5948,4.026,3.4829,2.8097,2.6623,2.1064,1.262,2.3135,3.0632,2.9644,3.0574,2.5546,4.0078,3.5157,4.8346,4.797,4.8456,3.3502,0.3132
3.6483,3.731,3.6046,4.0069,4.0318,3.3973,3.2623,0.5961,1.0633,3.5423,2.1376,4.8238,5.0171,4.7587,3.9876,4.1005,3.4605,2.4886,3.651,4.523,4.459,4.3932,3.8029,4.9326,4.0488,5.1477,5.4667,5.1616,3.6424,0.2201
4.9933,5.0614,4.8828,5.3865,5.3574,4.5735,3.9031,0.7903,0.9571,3.8449,2.0594,4.9144,5.967,6.0504,5.2263,5.5799,4.8592,3.751,5.0106,6.0309,5.9924,5.7367,5.05,5.7967,4.4805,5.3098,6.0024,5.3329,3.8809,0.0464
6.2851,6.3366,6.0973,6.7178,6.6307,5.7026,4.5007,0.999,0.8689,4.0785,1.9731,4.8593,6.8097,7.2715,6.4411,6.9989,6.2117,4.9667,6.3054,7.4895,7.4662,6.9989,6.2094,6.5397,4.7802,5.3065,6.3636,5.3452,4.0498,-0.1883
7.4376,7.4674,7.1612,7.9039,7.7571,6.6958,5.0084,1.1958,0.7933,4.2225,1.8775,4.6629,7.4841,8.3353,7.5444,8.2566,7.4236,6.0545,7.4485,8.7974,8.7795,8.0937,7.1999,7.1075,4.9276,5.1365,6.5227,5.1947,4.1377,-0.4558
8.3739,8.3736,7.9993,8.8575,8.6525,7.4751,5.3847,1.3541,0.7245,4.2634,1.7716,4.342,7.9431,9.1662,8.4551,9.2648,8.4082,6.9432,8.3629,9.8615,9.8409,8.949,7.9554,7.4606,4.9166,4.814,6.4696,4.8907,4.1389,-0.7263
9.0352,8.9929,8.5565,9.5109,9.2542,7.9835,5.6004,1.4525,0.6581,4.1981,1.656,3.9257,8.1599,9.7102,9.1088,9.9573,9.0959,7.578,8.9898,10.6083,10.58,9.5146,8.4329,7.5794,4.7563,4.3683,6.214,4.4564,4.055,-0.9746
9.3873,9.2874,8.8032,9.824,9.5278,8.1909,5.6425,1.4782,0.5925,4.0353,1.5352,3.4524,8.1322,9.9416,9.4642,10.2964,9.4421,7.9252,9.2951,10.9932,10.9563,9.7675,8.6154,7.466,4.4696,3.8405,5.7845,3.9273,3.8949,-1.1858
9.4223,9.2471,8.7369,9.7873,9.471,8.0961,5.5165,1.4292,0.5297,3.7946,1.4169,2.9653,7.8806,9.8645,9.5072,10.2745,9.432,7.9738,9.2718,11.0046,10.963,9.7118,8.5111,7.1426,4.0886,3.2782,5.2247,3.3476,3.6743,-1.3578
9.1586,8.8897,8.3805,9.4224,9.1122,7.7241,5.244,1.3133,0.4735,3.5032,1.3114,2.5068,7.4444,9.5105,9.2509,9.9122,9.0811,7.7345,8.939,10.6641,10.6259,9.3749,8.149,6.6465,3.6495,2.7289,4.5865,2.766,3.4145,-1.5009
8.6357,8.257,7.777,8.7772,8.504,7.1214,4.8586,1.1453,0.4293,3.1914,1.2295,2.1129,6.8742,8.9323,8.7325,9.2538,8.4322,7.2368,8.3379,10.021,9.9976,8.8024,7.5732,6.0245,3.1881,2.2346,3.9244,2.2293,3.1391,-1.6332
7.9087,7.4089,6.9839,7.9186,7.7146,6.3474,4.4004,0.943,0.4017,2.8882,1.1809,1.8095,6.2244,8.1947,8.007,8.3605,7.5481,6.5246,7.5254,9.1448,9.1494,8.0507,6.8359,5.327,2.7355,1.8277,3.2884,1.7784,2.8716,-1.7749
7.0415,6.4154,6.0652,6.9234,6.8176,5.4672,3.9096,0.7241,0.3944,2.618,1.1726,1.61,5.5466,7.3662,7.1398,7.3031,6.5038,5.6516,6.5674,8.1147,8.1603,7.1808,5.9918,4.6033,2.3164,1.5285,2.7201,1.444,2.6317,-1.9416
6.0993,5.3488,5.0851,5.8689,5.8826,4.544,3.4218,0.5027,0.4088,2.3974,1.2085,1.5158,4.8843,6.511,6.1989,6.1548,5.3766,4.6762,5.5313,7.01,7.1079,6.2529,5.0938,3.8974,1.9481,1.3454,2.2496,1.2442,2.4332,-2.14
5.1437,4.2758,4.102,4.8241,4.9675,3.6327,2.9646,0.2892,0.4442,2.2349,1.2886,1.5181,4.2703,5.683,5.2475,4.9849,4.2383,3.6566,4.4801,5.9015,6.0607,5.3217,4.19,3.2462,1.6417,1.2762,1.8942,1.1835,2.2819,-2.3657
4.2277,3.2524,3.1639,3.8441,4.1154,2.7768,2.5565,0.0894,0.4978,2.1309,1.4096,1.6009,3.7267,4.9232,4.3389,3.8538,3.1489,2.6473,3.4678,4.8462,5.0727,4.4339,3.3221,2.6775,1.4029,1.3097,1.6599,1.2534,2.1761,-2.6051
3.3932,2.3204,2.3067,2.9671,3.3535,2.0063,2.2082,-0.0933,0.5652,2.0804,1.5651,1.744,3.2658,4.2593,3.5139,2.81,2.1539,1.6951,2.5371,3.8849,4.1826,3.6265,2.525,2.2102,1.2332,1.4295,1.5423,1.4345,2.108,-2.8395
2.6699,1.5069,1.5535,2.2145,2.6957,1.339,1.9244,-0.2563,0.6414,2.0746,1.7467,1.9268,2.894,3.7075,2.7992,1.8885,1.2834,0.8376,1.7185,3.0432,3.4143,2.926,1.8263,1.8544,1.1315,1.6162,1.5302,1.6996,2.0667,-3.0498
2.0751,0.8254,0.9159,1.5931,2.1464,0.7824,1.7077,-0.3965,0.7224,2.1049,1.9454,2.1303,2.6143,3.2755,2.2082,1.1109,0.5539,0.1011,1.0308,2.3338,2.7803,2.3494,1.2463,1.6124,1.0951,1.8498,1.6077,2.0172,2.0415,-3.2207
1.6148,0.2788,0.396,1.0994,1.7045,0.3372,1.5603,-0.5084,0.8061,2.1645,2.1524,2.3394,2.4293,2.9651,1.7429,0.4868,-0.029,-0.4993,0.4829,1.7595,2.2843,1.9044,0.7974,1.4805,1.1201,2.1119,1.7569,2.356,2.0247,-3.3437
1.2854,-0.1379,-0.0104,0.7231,1.3666,0.0004,1.4855,-0.5856,0.8919,2.2493,2.3599,2.5425,2.3415,2.7741,1.3958,0.0157,-0.4676,-0.9591,0.0758,1.3166,1.9245,1.5908,0.4846,1.4504,1.2019,2.3858,1.9598,2.6874,2.0123,-3.4176
1.0759,-0.4347,-0.3117,0.4508,1.1285,-0.2324,1.4863,-0.6212,0.9809,2.3576,2.5603,2.7311,2.3519,2.6971,1.153,-0.311,-0.7705,-1.2827,-0.1961,0.9968,1.6951,1.4018,0.305,1.5103,1.3343,2.6572,2.1983,2.9876,2.0041,-3.448
0.9701,-0.6241,-0.5177,0.2685,0.9858,-0.3662,1.5638,-0.6111,1.0736,2.4879,2.7454,2.8978,2.4584,2.7255,0.9982,-0.507,-0.9501,-1.4805,-0.3427,0.7889,1.587,1.3252,0.2486,1.6466,1.5089,2.9131,2.4548,3.2388,2.001,-3.4461
0.9496,-0.7195,-0.6381,0.163,0.9329,-0.4061,1.7144,-0.555,1.1689,2.6372,2.9056,3.0351,2.6531,2.8474,0.9154,-0.5897,-1.0218,-1.5665,-0.3767,0.6798,1.5879,1.3451,0.3,1.8437,1.7149,3.1419,2.7124,3.4289,2.0031,-3.4259
0.9962,-0.7337,-0.6811,0.1228,0.9623,-0.3585,1.9282,-0.4577,1.2634,2.7995,3.0302,3.1349,2.9216,3.0472,0.8922,-0.5774,-1.0024,-1.5551,-0.3123,0.6558,1.6823,1.4438,0.4402,2.0858,1.9392,3.3331,2.9552,3.5515,2.0077,-3.4022
1.0942,-0.6788,-0.6533,0.1382,1.0637,-0.2315,2.1892,-0.3287,1.3507,2.9658,3.1096,3.1899,3.2438,3.3064,0.9212,-0.4886,-0.9089,-1.4598,-0.1643,0.7034,1.8522,1.6041,0.649,2.3573,2.1673,3.4782,3.1702,3.6065,2.0096,-3.3874
1.2313,-0.5655,-0.5607,0.201,1.2242,-0.0369,2.4764,-0.1799,1.4235,3.1253,3.1374,3.195,3.5959,3.6049,0.9993,-0.341,-0.7563,-1.2921,0.053,0.81,2.0777,1.8102,0.9069,2.6439,2.385,3.572,3.3489,3.5996,2.0022,-3.3901
1.3992,-0.4047,-0.4098,0.3035,1.4285,0.2105,2.7668,-0.0234,1.4752,3.2677,3.1134,3.1507,3.9534,3.9227,1.1263,-0.151,-0.5572,-1.0626,0.3253,0.9643,2.3389,2.0493,1.1963,2.9331,2.58,3.6136,3.4883,3.5424,1.9793,-3.4138
1.5927,-0.2075,-0.2099,0.4377,1.6598,0.4919,3.039,0.1311,1.5019,3.3851,3.0448,3.0642,4.2951,4.2417,1.302,0.0662,-0.3209,-0.7823,0.6383,1.1567,2.6176,2.311,1.5019,3.2154,2.7431,3.6067,3.5921,3.4509,1.9379,-3.4582
1.8078,0.0134,0.0261,0.5945,1.9013,0.7861,3.2762,0.2777,1.5041,3.4743,2.9459,2.9496,4.6047,4.5475,1.5237,0.2974,-0.0546,-0.4645,0.9773,1.3786,2.899,2.5872,1.8097,3.4839,2.8692,3.5599,3.6694,3.3439,1.8788,-3.5204
2.0402,0.2444,0.2813,0.7637,2.138,1.0717,3.469,0.4149,1.4869,3.5374,2.8354,2.826,4.8733,4.8301,1.7839,0.5311,0.2358,-0.1253,1.3263,1.622,3.1728,2.8701,2.1068,3.7345,2.9569,3.4851,3.7328,3.2398,1.8074,-3.5974
2.2837,0.4717,0.5366,0.9348,2.358,1.3289,3.6161,0.5441,1.4583,3.5814,2.7331,2.7141,5.0984,5.0844,2.0698,0.7582,0.5431,0.2159,1.669,1.8788,3.4337,3.1519,2.3813,3.9649,3.009,3.396,3.7959,3.1538,1.7317,-3.6877
2.5291,0.6832,0.7728,1.098,2.5533,1.543,3.724,0.6685,1.4281,3.6164,2.6553,2.6308,5.2833,5.3098,2.3633,0.9718,0.8583,0.5384,1.989,2.1407,3.6808,3.4239,2.6226,4.1741,3.0308,3.3057,3.8705,3.0963,1.6613,-3.7916
2.7651,0.8698,0.9738,1.2458,2.7207,1.7051,3.8043,0.7913,1.4057,3.6534,2.6121,2.5866,5.4348,5.5085,2.6433,1.1674,1.1698,0.8229,2.2716,2.3989,3.9158,3.6767,2.8222,4.3615,3.0297,3.2257,3.9636,3.0709,1.6052,-3.9104
2.9788,1.0269,1.1291,1.374,2.86,1.8141,3.871,0.915,1.3986,3.7017,2.6057,2.5823,5.5604,5.684,2.8881,1.3421,1.464,1.054,2.5049,2.6449,4.141,3.9008,2.9745,4.5259,3.0134,3.1638,4.0762,3.0756,1.5701,-4.0449
3.1571,1.1534,1.2342,1.4815,2.9723,1.8746,3.9366,1.0404,1.4117,3.7667,2.6309,2.6107,5.6657,5.8388,3.0774,1.4933,1.7266,1.2216,2.6816,2.8702,4.3561,4.0872,3.0773,4.665,2.9888,3.1239,4.2023,3.1038,1.5602,-4.1936
3.2879,1.2504,1.2901,1.5685,3.0574,1.895,4.0089,1.1663,1.4463,3.848,2.6772,2.6583,5.7523,5.9718,3.1949,1.6177,1.9433,1.3212,2.7978,3.0659,4.5565,4.2277,3.1303,4.7745,2.9606,3.1056,4.3296,3.1463,1.577,-4.3516
3.3602,1.318,1.3004,1.6346,3.1115,1.8841,4.0889,1.2899,1.5006,3.9397,2.7317,2.7095,5.8165,6.0776,3.2286,1.7093,2.1008,1.3528,2.8531,3.222,4.7312,4.3144,3.134,4.8476,2.9303,3.1045,4.4412,3.1933,1.6203,-4.5108
3.3652,1.3528,1.2693,1.6767,3.1268,1.8481,4.1704,1.407,1.5701,4.031,2.7826,2.7502,5.8495,6.1456,3.1715,1.759,2.1876,1.3183,2.8479,3.327,4.8636,4.34,3.0876,4.8761,2.8961,3.1128,4.5187,3.2359,1.6879,-4.6603
3.2962,1.3473,1.1999,1.6886,3.0934,1.7894,4.2419,1.5132,1.6487,4.1094,2.822,2.7706,5.8401,6.1623,3.0212,1.7551,2.1946,1.2201,2.783,3.3679,4.9343,4.2979,2.9889,4.8509,2.8533,3.1201,4.5453,3.2673,1.7765,-4.7887
3.1501,1.2914,1.0939,1.6622,3.0027,1.7066,4.2902,1.6051,1.7297,4.1632,2.847,2.7658,5.7779,6.1147,2.7802,1.6858,2.1165,1.0601,2.659,3.3331,4.9253,4.1841,2.8348,4.7651,2.7965,3.1153,4.5097,3.283,1.8816,-4.886
2.9281,1.1755,0.9523,1.5906,2.8517,1.5975,4.3035,1.6803,1.8065,4.1844,2.8591,2.7353,5.6569,5.9944,2.4561,1.5424,1.9529,0.8402,2.4776,3.2153,4.826,3.999,2.6238,4.6164,2.7213,3.0884,4.4091,3.2807,1.9974,-4.9462
2.6377,0.9946,0.7765,1.4711,2.6459,1.4612,4.2751,1.7381,1.872,4.1694,2.8612,2.6815,5.4786,5.8014,2.0624,1.3222,1.7103,0.5642,2.2436,3.0154,4.637,3.75,2.3589,4.4091,2.6261,3.0327,4.2496,3.2599,2.1167,-4.9692
2.2931,0.7516,0.5697,1.3075,2.3997,1.3005,4.204,1.7777,1.918,4.1184,2.8543,2.6072,5.2518,5.5454,1.6184,1.0317,1.4027,0.2392,1.967,2.7449,4.3722,3.4525,2.0505,4.1552,2.5139,2.9459,4.0459,3.2203,2.2319,-4.9611
1.9149,0.4587,0.3376,1.111,2.1345,1.1222,4.0944,1.797,1.9341,4.0333,2.8342,2.5131,4.9911,5.2454,1.1484,0.6875,1.0517,-0.1218,1.6642,2.4261,4.0583,3.1299,1.717,3.8729,2.3913,2.8301,3.8177,3.161,2.335,-4.9338
1.5279,0.1362,0.089,0.8988,1.8744,0.9355,3.9529,1.7921,1.908,3.9153,2.7899,2.3964,4.7134,4.9262,0.6798,0.3151,0.685,-0.4996,1.3574,2.0898,3.7298,2.8101,1.3837,3.584,2.2675,2.6899,3.5849,3.0785,2.4187,-4.9029
1.158,-0.1902,-0.1644,0.6914,1.6419,0.7504,3.7859,1.7575,1.8263,3.7625,2.7048,2.2502,4.4344,4.614,0.2405,-0.054,0.3335,-0.8691,1.0731,1.7706,3.4234,2.5223,1.0797,3.3097,2.1518,2.5306,3.3631,2.9669,2.477,-4.885
0.829,-0.4936,-0.4086,0.5091,1.4537,0.5753,3.5986,1.6874,1.6782,3.5705,2.5601,2.0638,4.1651,4.3318,-0.1444,-0.3872,0.0281,-1.2021,0.8384,1.5017,3.1718,2.2924,0.8334,3.0675,2.0509,2.3554,3.1595,2.8177,2.5059,-4.8951
0.5588,-0.7493,-0.628,0.3698,1.3193,0.4166,3.394,1.5789,1.4583,3.334,2.339,1.8251,3.9119,4.0967,-0.4547,-0.6551,-0.2037,-1.47,0.678,1.3105,2.999,2.1395,0.6682,2.8685,1.9672,2.1639,2.9722,2.621,2.5039,-4.9446
0.3584,-0.9373,-0.8064,0.2867,1.2418,0.2797,3.1756,1.4343,1.1705,3.0499,2.033,1.5234,3.6766,3.9189,-0.6775,-0.8352,-0.3406,-1.648,0.6109,1.2151,2.9187,2.0744,0.5992,2.7172,1.8988,1.9531,2.7918,2.3683,2.4721,-5.0406
0.2307,-1.044,-0.9287,0.268,1.2193,0.17,2.9492,1.2626,0.8297,2.7211,1.6452,1.1531,3.4588,3.8022,-0.8075,-0.9142,-0.3697,-1.7193,0.648,1.2228,2.9341,2.0986,0.6312,2.6121,1.8403,1.7188,2.6058,2.0556,2.4146,-5.1848
0.1717,-1.0628,-0.9833,0.3161,1.2467,0.0939,2.7241,1.0794,0.4608,2.3583,1.193,0.7175,3.2584,3.7455,-0.8477,-0.8886,-0.2887,-1.6779,0.7896,1.3304,3.0393,2.205,0.7581,2.5481,1.7854,1.4601,2.4034,1.6866,2.3378,-5.3742
0.1717,-0.995,-0.9641,0.4275,1.3172,0.0585,2.5132,0.904,0.095,1.9802,0.7057,0.2305,3.0768,3.7438,-0.8083,-0.7641,-0.1064,-1.5306,1.0253,1.5251,3.2214,2.3792,0.9638,2.5182,1.7295,1.1823,2.1806,1.2749,2.2504,-5.6008
0.2175,-0.8501,-0.8728,0.5925,1.4227,0.0692,2.3305,0.7553,-0.2357,1.6113,0.2206,-0.2826,2.9179,3.79,-0.7061,-0.5548,0.1577,-1.2973,1.3344,1.7868,3.4615,2.6012,1.2244,2.5156,1.6722,0.8997,1.9433,0.8446,2.1621,-5.8523
0.2944,-0.6451,-0.7193,0.7956,1.5533,0.1281,2.1883,0.6472,-0.5053,1.2779,-0.223,-0.7874,2.7872,3.8747,-0.5618,-0.2812,0.4754,-1.0085,1.6878,2.0913,3.7375,2.8482,1.5113,2.5347,1.6181,0.635,1.7078,0.4288,2.0831,-6.1138
0.3888,-0.4033,-0.5217,1.017,1.6981,0.2319,2.0944,0.5862,-0.6981,1.0044,-0.5901,-1.2443,2.691,3.9882,-0.3979,0.0319,0.8136,-0.701,2.0528,2.4128,4.0263,3.0969,1.7956,2.5725,1.577,0.4167,1.4984,0.0654,2.022,-6.3698
0.4895,-0.1506,-0.3032,1.2351,1.8458,0.3711,2.0506,0.57,-0.8107,0.8089,-0.8547,-1.6136,2.6348,4.1207,-0.2351,0.3577,1.1394,-0.4119,2.3976,2.7281,4.3068,3.3277,2.0522,2.6281,1.5613,0.2743,1.3436,-0.2075,1.9858,-6.6064
0.5893,0.0873,-0.089,1.4295,1.986,0.532,2.0525,0.5898,-0.8512,0.7017,-1.0026,-1.8613,2.6223,4.2629,-0.091,0.6708,1.4243,-0.1727,2.6958,3.0183,4.5619,3.5263,2.2625,2.7024,1.583,0.2321,1.2698,-0.3583,1.9783,-6.8131
0.6851,0.2895,0.0981,1.5843,2.1103,0.698,2.0907,0.6326,-0.8362,0.6833,-1.032,-1.9648,2.6544,4.407,0.0224,0.9493,1.648,-0.0042,2.9305,3.2704,4.7802,3.6856,2.4168,2.7966,1.6504,0.3038,1.2961,-0.3673,1.9997,-6.9838
0.7768,0.4419,0.2412,1.6904,2.2125,0.8532,2.1519,0.6843,-0.7866,0.7443,-0.9538,-1.9165,2.7281,4.5454,0.0988,1.1769,1.7998,0.086,3.0949,3.4771,4.956,3.8045,2.5141,2.9101,1.7646,0.4881,1.4287,-0.2311,2.0465,-7.1154
0.8665,0.5393,0.332,1.7459,2.2887,0.9847,2.2209,0.7321,-0.7241,0.8666,-0.7897,-1.7262,2.8357,4.6714,0.1375,1.3445,1.8795,0.1038,3.1921,3.6361,5.088,3.8866,2.5602,3.0394,1.9188,0.7682,1.6588,0.0357,2.1119,-7.2071
0.957,0.5851,0.3711,1.7565,2.3373,1.0843,2.2821,0.7656,-0.6688,1.0245,-0.5703,-1.4208,2.9653,4.7786,0.143,1.4502,1.8951,0.0657,3.2324,3.7487,5.1785,3.938,2.5658,3.1774,2.0985,1.1134,1.9624,0.4019,2.1867,-7.258
1.0502,0.5899,0.3676,1.733,2.3585,1.1491,2.3211,0.7772,-0.6375,1.1887,-0.3318,-1.0415,3.1022,4.8616,0.1234,1.4985,1.8608,-0.0057,3.2308,3.819,5.2315,3.9651,2.5432,3.3132,2.2841,1.4837,2.3035,0.8232,2.2611,-7.2664
1.1473,0.5689,0.3364,1.6893,2.3542,1.1815,2.3262,0.7621,-0.6431,1.3296,-0.112,-0.6382,3.2305,4.9167,0.0896,1.4995,1.7941,-0.0868,3.2032,3.8529,5.2521,3.9736,2.5045,3.4344,2.4543,1.8362,2.6394,1.2492,2.3253,-7.2299
1.2479,0.5387,0.2952,1.64,2.3292,1.1879,2.2907,0.7188,-0.6937,1.4221,0.0546,-0.2618,3.337,4.9429,0.0538,1.4669,1.7132,-0.1581,3.1645,3.8585,5.2471,3.9682,2.4597,3.5287,2.5898,2.1321,2.9283,1.631,2.3719,-7.1469
1.3509,0.5151,0.2618,1.5986,2.291,1.1777,2.2142,0.6493,-0.7911,1.4497,0.142,0.0434,3.4134,4.9429,0.028,1.4167,1.6346,-0.2069,3.1266,3.8456,5.2247,3.9534,2.4165,3.5866,2.6771,2.3425,3.1362,1.9281,2.3963,-7.0192
1.455,0.5111,0.2515,1.5763,2.2508,1.1621,2.1036,0.5598,-0.9302,1.4076,0.1368,0.2465,3.4587,4.9237,0.0229,1.3655,1.5722,-0.2281,3.0985,3.8259,5.1955,3.934,2.3805,3.603,2.7099,2.4519,3.2424,2.1143,2.3976,-6.8541
1.5591,0.5358,0.2751,1.5817,2.222,1.1529,1.9729,0.4603,-1.0982,1.3031,0.0401,0.3341,3.4787,4.8955,0.0472,1.3302,1.5366,-0.2227,3.0855,3.8127,5.1718,3.9157,2.356,3.5783,2.6901,2.4593,3.2423,2.18,2.3785,-6.6651
1.6631,0.5945,0.3378,1.6199,2.2192,1.1606,1.8404,0.3634,-1.2759,1.1535,-0.1334,0.31,3.4847,4.8705,0.1065,1.3258,1.5347,-0.1952,3.0902,3.8185,5.1661,3.9046,2.346,3.5173,2.6261,2.3767,3.147,2.1315,2.3445,-6.4702
1.7675,0.6883,0.4387,1.6924,2.2544,1.1929,1.7257,0.2827,-1.4404,0.9827,-0.3582,0.1928,3.4896,4.8602,0.2032,1.364,1.5698,-0.1505,3.1123,3.8531,5.189,3.9064,2.3528,3.4283,2.5307,2.2247,2.9792,1.988,2.3026,-6.2887
1.8733,0.815,0.5716,1.7975,2.3346,1.2538,1.6454,0.2306,-1.5695,0.8155,-0.6031,0.01,3.5039,4.8732,0.3365,1.4513,1.6417,-0.0924,3.15,3.9219,5.2468,3.9254,2.3772,3.3209,2.4182,2.0286,2.7684,1.7766,2.2596,-6.137
1.9813,0.9691,0.7265,1.9305,2.4599,1.3426,1.6096,0.2158,-1.6454,0.6735,-0.8363,-0.2072,3.5332,4.9129,0.502,1.5876,1.7472,-0.0221,3.2,4.0239,5.3399,3.9636,2.4191,3.2047,2.3024,1.8138,2.544,1.5284,2.2207,-6.0247
2.0916,1.1429,0.8921,2.085,2.6226,1.4549,1.6203,0.2414,-1.6581,0.5706,-1.0304,-0.429,3.576,4.9767,0.6924,1.7657,1.8804,0.0615,3.259,4.1524,5.4623,4.0203,2.4772,3.0885,2.1951,1.6025,2.3314,1.2735,2.1887,-5.9534
2.2025,1.3277,1.0577,2.2534,2.809,1.5833,1.671,0.3045,-1.6073,0.5122,-1.1664,-0.6307,3.6244,5.0562,0.8982,1.9725,2.0335,0.1606,3.3239,4.2958,5.6024,4.0919,2.5492,2.9791,2.1046,1.4113,2.1476,1.0378,2.164,-5.916
2.3108,1.5145,1.2157,2.4281,3.0017,1.7192,1.7487,0.396,-1.502,0.495,-1.2352,-0.7951,3.6661,5.1391,1.109,2.1907,2.1977,0.2782,3.3926,4.4404,5.7451,4.1732,2.6324,2.8817,2.0359,1.2507,2.0011,0.8412,2.1452,-5.8991
2.4123,1.6954,1.3618,2.6015,3.1836,1.8534,1.8366,0.5029,-1.3583,0.5094,-1.2385,-0.9127,3.6871,5.2115,1.3141,2.4018,2.364,0.4161,3.4639,4.5727,5.8746,4.2578,2.7233,2.7994,1.9908,1.1251,1.8917,0.696,2.1303,-5.8855
2.5021,1.8638,1.4957,2.7671,3.3405,1.9777,1.918,0.61,-1.1968,0.5416,-1.1873,-0.9818,3.6754,5.2608,1.5046,2.5888,2.5245,0.5744,3.5369,4.6819,5.9771,4.3393,2.8182,2.7338,1.9683,1.0339,1.8132,0.6066,2.1167,-5.8582
2.5759,2.0148,1.6193,2.9193,3.4632,2.0848,1.9791,0.7032,-1.0393,0.577,-1.0993,-1.0071,3.6232,5.2778,1.673,2.7375,2.6722,0.751,3.61,4.7606,6.0425,4.4116,2.9123,2.6843,1.9647,0.9732,1.7556,0.5701,2.1015,-5.8039
2.6296,2.1443,1.735,3.0531,3.5483,2.1696,2.0109,0.7714,-0.9055,0.6024,-0.9953,-0.9984,3.5286,5.2575,1.8141,2.8379,2.8011,0.9407,3.6801,4.8047,6.0652,4.4692,2.9999,2.6485,1.9742,0.9371,1.7074,0.5776,2.0808,-5.7155
2.6603,2.2491,1.8444,3.1639,3.597,2.2291,2.0101,0.8079,-0.8099,0.6078,-0.8954,-0.9676,3.3952,5.1993,1.9242,2.8845,2.9063,1.1357,3.7416,4.8129,6.0435,4.507,3.0742,2.6223,1.9897,0.9193,1.6575,0.6162,2.0493,-5.5928
2.6665,2.326,1.9472,3.2473,3.6137,2.2627,1.9779,0.8114,-0.7601,0.588,-0.8153,-0.9272,3.2315,5.1061,2.0015,2.8765,2.9837,1.3265,3.7872,4.7848,5.9784,4.5208,3.1285,2.6005,2.0034,0.9144,1.597,0.6718,2.0009,-5.4416
2.6485,2.372,2.04,3.2986,3.6038,2.2722,1.9192,0.7853,-0.7552,0.5425,-0.7636,-0.887,3.0491,4.9832,2.0456,2.8174,3.0301,1.5033,3.8083,4.7209,5.8726,4.5076,3.1563,2.5772,2.0077,0.9183,1.5198,0.7314,1.9297,-5.272
2.6086,2.3856,2.1168,3.3138,3.5723,2.2608,1.8404,0.7366,-0.7864,0.4753,-0.7416,-0.8536,2.8604,4.8372,2.0581,2.715,3.0437,1.6574,3.798,4.6225,5.7297,4.4657,3.1532,2.5469,1.9963,0.9287,1.4236,0.7847,1.8311,-5.0961
2.5516,2.3665,2.1701,3.2898,3.5228,2.2323,1.7485,0.6746,-0.8387,0.3943,-0.7438,-0.8289,2.6774,4.6756,2.0432,2.5809,3.0252,1.7829,3.7521,4.492,5.5545,4.3959,3.1172,2.5053,1.9649,0.9442,1.3099,0.8256,1.7043,-4.9269
2.4835,2.317,2.1921,3.2258,3.4578,2.1903,1.65,0.6089,-0.8939,0.3091,-0.761,-0.8108,2.5104,4.5065,2.0076,2.429,2.9774,1.8773,3.6713,4.3345,5.3542,4.3017,3.0497,2.4498,1.9118,0.9636,1.1838,0.8515,1.5521,-4.7776
2.4118,2.2423,2.1766,3.1243,3.3797,2.1375,1.5512,0.5481,-0.9344,0.2298,-0.7829,-0.7944,2.3677,4.3386,1.9604,2.2746,2.906,1.9412,3.5615,4.158,5.1383,4.1892,2.9549,2.3801,1.8376,0.9851,1.0532,0.8625,1.3821,-4.6616
2.3439,2.1497,2.1207,2.9922,3.292,2.0763,1.4577,0.4988,-0.947,0.1654,-0.8009,-0.7737,2.2552,4.1806,1.9119,2.1322,2.8184,1.9775,3.4328,3.9735,4.9198,4.0675,2.8402,2.2982,1.7454,1.0053,0.927,0.8603,1.2053,-4.592
2.2863,2.0492,2.0263,2.8411,3.1999,2.0097,1.3748,0.4651,-0.9249,0.122,-0.8098,-0.7435,2.1763,4.0415,1.8724,2.0145,2.723,1.9908,3.2978,3.7953,4.7135,3.9471,2.7149,2.208,1.6398,1.0196,0.8135,0.8466,1.0347,-4.5797
2.244,1.9517,1.8999,2.6862,3.1106,1.9417,1.3077,0.4484,-0.8686,0.1028,-0.8083,-0.7018,2.132,3.929,1.8504,1.9312,2.6286,1.9865,3.17,3.6388,4.535,3.8393,2.5894,2.1153,1.5265,1.0225,0.719,0.8226,0.8828,-4.6326
2.2206,1.8686,1.7525,2.5449,3.0327,1.8785,1.2606,0.4477,-0.7855,0.1077,-0.7983,-0.6502,2.1208,3.8494,1.8523,1.8885,2.5433,1.9702,3.0615,3.5197,4.3988,3.7545,2.4745,2.0265,1.4116,1.0087,0.6465,0.7887,0.7596,-4.7534
2.2177,1.8108,1.5983,2.4346,2.9743,1.8277,1.2368,0.4607,-0.687,0.1337,-0.7843,-0.5942,2.1391,3.8067,1.8809,1.8901,2.4744,1.9477,2.9821,3.4513,4.3161,3.7009,2.3802,1.9482,1.3008,0.9745,0.5954,0.7445,0.6706,-4.9388
2.2358,1.7869,1.4525,2.3694,2.9426,1.7977,1.2372,0.4837,-0.5863,0.1756,-0.7717,-0.5428,2.1815,3.8022,1.9366,1.9374,2.4283,1.9245,2.9387,3.443,4.2933,3.6829,2.3148,1.8861,1.199,0.9179,0.5621,0.6895,0.6157,-5.1801
2.2743,1.8031,1.3299,2.3583,2.9417,1.7957,1.2603,0.513,-0.4949,0.2269,-0.7663,-0.5061,2.242,3.8344,2.0174,2.0303,2.4103,1.9065,2.9351,3.4984,4.3318,3.7011,2.2842,1.8444,1.1101,0.8395,0.5413,0.6234,0.5898,-5.4639
2.3316,1.8619,1.2425,2.4037,2.9728,1.8261,1.3019,0.5451,-0.4208,0.2806,-0.7728,-0.4941,2.3142,3.8995,2.1199,2.1668,2.4246,1.9001,2.9722,3.615,4.4272,3.7527,2.2911,1.8251,1.0363,0.7421,0.5261,0.5464,0.584,-5.7731
2.406,1.9623,1.1987,2.5013,3.0337,1.8886,1.3554,0.5767,-0.3678,0.33,-0.7947,-0.514,2.3918,3.9915,2.2404,2.343,2.4739,1.9121,3.0489,3.7842,4.5704,3.8319,2.3344,1.828,0.9787,0.6305,0.5104,0.4595,0.5868,-6.0887
2.4948,2.0999,1.2022,2.6412,3.1195,1.9777,1.4126,0.6052,-0.3357,0.3692,-0.8322,-0.5689,2.4696,4.1026,2.375,2.5516,2.5594,1.9494,3.1619,3.9926,4.7481,3.931,2.4098,1.85,0.9372,0.5113,0.4887,0.3647,0.5869,-6.3907
2.5949,2.267,1.252,2.8099,3.2234,2.0831,1.4648,0.6285,-0.322,0.3947,-0.8826,-0.6563,2.543,4.2236,2.5201,2.7826,2.6798,2.018,3.3062,4.2239,4.9448,4.0418,2.5097,1.8861,0.9111,0.3928,0.4581,0.2649,0.5743,-6.6598
2.7028,2.4543,1.3425,2.9928,3.3381,2.1918,1.5048,0.6456,-0.323,0.4051,-0.9396,-0.7683,2.6085,4.3447,2.6721,3.0232,2.8319,2.1209,3.475,4.4619,5.1442,4.1556,2.6245,1.9298,0.8993,0.2848,0.4184,0.1641,0.5417,-6.88
2.8146,2.6513,1.4644,3.176,3.4569,2.2898,1.5274,0.6566,-0.3346,0.4026,-0.9937,-0.892,2.6643,4.4569,2.8273,3.2601,3.01,2.2572,3.6597,4.692,5.331,4.2648,2.7442,1.9744,0.9003,0.1974,0.3723,0.0677,0.4854,-7.0407
2.9266,2.8474,1.606,3.3478,3.5743,2.3659,1.5314,0.663,-0.3524,0.3919,-1.0346,-1.0114,2.7101,4.5528,2.9821,3.4809,3.2068,2.4211,3.8506,4.9031,5.4933,4.3632,2.8595,2.0136,0.912,0.1395,0.3246,-0.0178,0.4051,-7.1394
3.0361,3.0329,1.7545,3.4996,3.6869,2.414,1.5195,0.6679,-0.3714,0.3802,-1.0521,-1.1103,2.748,4.6281,3.1335,3.6757,3.4136,2.6023,4.0373,5.088,5.6233,4.4467,2.9636,2.0426,0.9319,0.1174,0.2816,-0.0857,0.3039,-7.1824
3.1409,3.1993,1.8981,3.6252,3.7926,2.4346,1.4983,0.6755,-0.3855,0.3756,-1.0385,-1.1741,2.7814,4.6822,3.2792,3.8388,3.6211,2.788,4.2099,5.2431,5.7187,4.5141,3.0528,2.0586,0.957,0.1327,0.2492,-0.1294,0.1881,-7.1839
3.2397,3.3397,2.0269,3.7211,3.8907,2.4346,1.4769,0.6903,-0.3882,0.3858,-0.9896,-1.1922,2.8152,4.7179,3.4181,3.9678,3.8205,2.9652,4.3595,5.367,5.7821,4.5667,3.1266,2.0614,0.9839,0.1822,0.2322,-0.1438,0.0669,-7.1628
3.3315,3.4491,2.1345,3.7858,3.9804,2.4257,1.4655,0.7162,-0.373,0.4167,-0.9054,-1.1591,2.8546,4.7401,3.5491,4.0636,4.0032,3.1233,4.4799,5.4591,5.8197,4.6088,3.187,2.0529,1.0097,0.2577,0.2332,-0.1264,-0.0478,-7.139
3.4143,3.5245,2.2175,3.8192,4.0603,2.421,1.4735,0.7555,-0.3349,0.4714,-0.7901,-1.0748,2.9044,4.7547,3.6712,4.1283,4.1624,3.2553,4.5674,5.519,5.8394,4.6458,3.2375,2.0378,1.0323,0.3479,0.2532,-0.0776,-0.1431,-7.1277
3.4853,3.5657,2.2759,3.8229,4.128,2.4318,1.507,0.8083,-0.2718,0.5494,-0.6512,-0.945,2.9677,4.767,3.7822,4.1644,4.2925,3.358,4.621,5.546,5.8484,4.6839,3.2821,2.0228,1.051,0.4406,0.292,-0.001,-0.2067,-7.1369
3.5403,3.5754,2.3121,3.7993,4.1794,2.464,1.5674,0.872,-0.1854,0.647,-0.499,-0.7798,3.0456,4.781,3.8781,4.1741,4.3897,3.4313,4.6425,5.5391,5.8517,4.7278,3.3243,2.0161,1.0672,0.5254,0.3489,0.0972,-0.2294,-7.1658
3.5756,3.5592,2.3305,3.7522,4.2102,2.5168,1.6511,0.9417,-0.0815,0.7574,-0.345,-0.5934,3.1362,4.7985,3.9541,4.1596,4.4526,3.4771,4.636,5.4988,5.8514,4.7805,3.3666,2.026,1.0837,0.5953,0.4227,0.2095,-0.207,-7.2053
3.5889,3.5253,2.3368,3.6865,4.2167,2.5831,1.7495,1.0112,0.0304,0.8719,-0.2008,-0.4018,3.2353,4.8203,4.0053,4.1247,4.4824,3.498,4.6074,5.4282,5.8474,4.8424,3.4106,2.0592,1.104,0.648,0.5117,0.3272,-0.1423,-7.2418
3.5814,3.484,2.3382,3.6089,4.1972,2.6521,1.8514,1.0738,0.1384,0.9811,-0.0766,-0.2216,3.337,4.8466,4.0285,4.0759,4.483,3.4973,4.564,5.3344,5.8392,4.9111,3.4567,2.1193,1.1319,0.6853,0.6129,0.4419,-0.044,-7.2605
3.5581,3.4465,2.3421,3.5275,4.1536,2.7127,1.9451,1.1241,0.2301,1.0767,0.0199,-0.0676,3.4356,4.8781,4.024,4.0232,4.4614,3.4784,4.5144,5.2286,5.8271,4.9823,3.5042,2.2053,1.1696,0.712,0.7217,0.546,0.0744,-7.2502
3.5277,3.4236,2.3559,3.4516,4.0918,2.7566,2.0211,1.1592,0.2954,1.1532,0.0844,0.0494,3.527,4.9162,3.9963,3.9784,4.4268,3.4454,4.4671,5.1247,5.8132,5.0498,3.5518,2.3115,1.2168,0.7339,0.8315,0.6332,0.1979,-7.206
3.5008,3.4237,2.3851,3.39,4.0206,2.781,2.0747,1.1791,0.3281,1.2083,0.1167,0.1239,3.6097,4.963,3.9534,3.9535,4.389,3.4025,4.4298,5.0369,5.8011,5.1068,3.5967,2.4277,1.2704,0.7554,0.9338,0.699,0.3124,-7.1313
3.4874,3.4514,2.4325,3.3493,3.9505,2.7882,2.1063,1.1871,0.328,1.2436,0.1203,0.1558,3.6848,5.0199,3.9051,3.9576,4.3574,3.3541,4.4084,4.9773,5.7947,5.147,3.6354,2.5408,1.3237,0.7776,1.0194,0.7405,0.4076,-7.0371
3.4944,3.5068,2.4963,3.3326,3.891,2.7843,2.121,1.1893,0.3012,1.2636,0.1022,0.1504,3.7551,5.0872,3.861,3.9947,4.3388,3.3046,4.4058,4.9528,5.7973,5.1651,3.6631,2.6367,1.3679,0.7976,1.0796,0.7569,0.4775,-6.9392
3.5249,3.5848,2.5708,3.3384,3.8489,2.7766,2.1268,1.1927,0.2587,1.2743,0.0712,0.1165,3.8232,5.1629,3.8279,4.0623,4.3365,3.2572,4.4216,4.9643,5.8105,5.1582,3.6749,2.703,1.3928,0.8088,1.1077,0.7488,0.5207,-6.8547
3.5776,3.6764,2.6467,3.3616,3.8266,2.7711,2.132,1.204,0.214,1.2815,0.0369,0.065,3.8895,5.2428,3.8086,4.1519,4.3498,3.2147,4.452,5.0066,5.834,5.1262,3.6668,2.7309,1.3893,0.803,1.1001,0.7188,0.5396,-6.7982
3.648,3.7701,2.7134,3.3943,3.8221,2.771,2.1426,1.2276,0.1801,1.2894,0.0073,0.0064,3.9515,5.3211,3.8016,4.2507,4.3749,3.1789,4.4909,5.0699,5.8656,5.0723,3.6364,2.7165,1.3509,0.7725,1.058,0.6708,0.5386,-6.7781
3.7298,3.8541,2.7609,3.4287,3.8301,2.7757,2.1606,1.2641,0.1657,1.2998,-0.0125,-0.0501,4.0031,5.3911,3.8016,4.3445,4.4058,3.1505,4.531,5.1425,5.9016,5.0026,3.5845,2.6618,1.2759,0.7132,0.9871,0.6099,0.5236,-6.7951
3.8166,3.9184,2.7823,3.4588,3.8433,2.7816,2.183,1.3102,0.1731,1.3118,-0.0206,-0.0976,4.0361,5.4466,3.8013,4.4206,4.4359,3.1299,4.5654,5.2132,5.9369,4.9251,3.5154,2.5741,1.1683,0.6263,0.8977,0.5422,0.5004,-6.8414
3.9027,3.9563,2.7753,3.4817,3.8538,2.7832,2.2028,1.3592,0.1974,1.3225,-0.0186,-0.131,4.0428,5.4828,3.793,4.47,4.4595,3.1166,4.5893,5.2737,5.966,4.8492,3.437,2.465,1.0384,0.5194,0.803,0.4745,0.4742,-6.9022
3.984,3.9658,2.7422,3.4974,3.8549,2.7745,2.2111,1.4021,0.2278,1.328,-0.0101,-0.1472,4.0179,5.4964,3.7705,4.4897,4.4726,3.1101,4.6006,5.3196,5.9841,4.7837,3.3597,2.3484,0.9023,0.4058,0.7178,0.4138,0.4495,-6.9579
4.0572,3.9486,2.6891,3.5077,3.8416,2.75,2.199,1.4296,0.2499,1.3244,0,-0.1441,3.961,5.4866,3.7306,4.4816,4.4735,3.1102,4.6005,5.3504,5.9875,4.7358,3.2947,2.2386,0.7794,0.3032,0.6557,0.3672,0.43,-6.9879
4.1203,3.9096,2.624,3.5141,3.8109,2.7057,2.1601,1.4341,0.2506,1.3086,0.0066,-0.1208,3.8768,5.4543,3.6732,4.4523,4.463,3.1171,4.5924,5.3686,5.9749,4.7093,3.2521,2.1475,0.6894,0.2301,0.6272,0.3408,0.4181,-6.9737
4.1714,3.8552,2.555,3.5164,3.7619,2.6397,2.0926,1.4109,0.2212,1.2795,0.0058,-0.0772,3.7749,5.4022,3.6018,4.4103,4.4433,3.1311,4.5813,5.378,5.9478,4.7037,3.2382,2.0825,0.6481,0.2027,0.6377,0.3395,0.4156,-6.9034
4.2089,3.792,2.488,3.5119,3.6955,2.5525,1.9994,1.3595,0.161,1.2379,-0.0046,-0.0146,3.6673,5.3343,3.5218,4.3641,4.4169,3.1525,4.5717,5.382,5.9094,4.714,3.2537,2.0459,0.6645,0.2309,0.6867,0.3659,0.4234,-6.773
4.2306,3.7249,2.4263,3.4956,3.6141,2.4476,1.8879,1.2839,0.0782,1.1872,-0.0245,0.0643,3.5663,5.2553,3.4391,4.32,4.3852,3.1801,4.5659,5.3821,5.8639,4.731,3.2927,2.0341,0.7385,0.3168,0.7677,0.4205,0.4414,-6.5881
4.2346,3.6569,2.3702,3.4618,3.5208,2.3308,1.7688,1.1916,-0.012,1.1322,-0.0515,0.1555,3.4822,5.1695,3.3586,4.2808,4.3478,3.21,4.563,5.3766,5.8147,4.7438,3.3441,2.0394,0.8609,0.4536,0.8704,0.5014,0.4683,-6.3624
4.2187,3.5882,2.3177,3.4055,3.4188,2.2098,1.6538,1.0922,-0.0907,1.0786,-0.0814,0.254,3.4215,5.0808,3.282,4.2456,4.3013,3.2363,4.5585,5.3613,5.7628,4.741,3.3932,2.0522,1.0154,0.6263,0.9819,0.6044,0.5012,-6.1156
4.1813,3.5172,2.2659,3.324,3.3108,2.0926,1.553,0.9955,-0.1405,1.0319,-0.1096,0.3541,3.3862,4.9917,3.2077,4.2096,4.2404,3.2511,4.545,5.3295,5.707,4.7141,3.425,2.063,1.1812,0.815,1.0893,0.7233,0.535,-5.8698
4.1217,3.4408,2.2113,3.2176,3.198,1.9856,1.4723,0.9096,-0.15,0.9952,-0.1327,0.45,3.3738,4.9036,3.1306,4.1657,4.1594,3.2465,4.5145,5.2744,5.6441,4.6582,3.4275,2.0641,1.3371,0.9974,1.181,0.8502,0.5639,-5.6467
4.0411,3.3558,2.1506,3.0898,3.0806,1.8923,1.4122,0.8386,-0.1172,0.9688,-0.1496,0.5361,3.3781,4.8163,3.0432,4.1062,4.0537,3.2165,4.46,5.1907,5.5703,4.5735,3.3945,2.0512,1.4645,1.1529,1.2481,0.9755,0.5817,-5.4636
3.9423,3.2596,2.0811,2.9464,2.9575,1.8125,1.3675,0.7825,-0.0501,0.9497,-0.1616,0.6074,3.3904,4.729,2.9381,4.0249,3.9219,3.1584,4.3777,5.0768,5.4824,4.4644,3.3263,2.0235,1.5505,1.2657,1.2851,1.089,0.5835,-5.3315
3.8304,3.1518,2.0016,2.7946,2.8275,1.7425,1.3287,0.7368,0.0352,0.9326,-0.1722,0.6598,3.4019,4.6409,2.8106,3.9193,3.767,3.0741,4.268,4.9359,5.3793,4.3389,3.2295,1.9831,1.5888,1.3271,1.2896,1.1805,0.5666,-5.2541
3.712,3.0342,1.9121,2.6418,2.6901,1.6762,1.2852,0.695,0.1188,0.9113,-0.1855,0.6911,3.4043,4.5517,2.661,3.7915,3.5969,2.9697,4.1358,4.776,5.2627,4.2064,3.1154,1.9344,1.5803,1.3369,1.263,1.2419,0.531,-5.2284
3.5954,2.9108,1.8144,2.4946,2.5459,1.6066,1.228,0.6506,0.1816,0.8804,-0.2051,0.7009,3.3922,4.462,2.4965,3.6489,3.4233,2.8546,3.9901,4.6085,5.1369,4.0766,2.9971,1.8826,1.5318,1.3027,1.2103,1.2684,0.4784,-5.2456
3.4889,2.7873,1.712,2.3576,2.3965,1.5279,1.1522,0.5988,0.2097,0.8369,-0.2335,0.6912,3.3624,4.3731,2.3303,3.5028,3.2602,2.74,3.8429,4.4461,5.008,3.9574,2.8873,1.8325,1.4541,1.2383,1.1396,1.2596,0.4114,-5.2939
3.3999,2.6697,1.6087,2.2335,2.2441,1.4362,1.0576,0.5379,0.1962,0.7805,-0.2714,0.6659,3.3143,4.2863,2.1794,3.3671,3.1212,2.637,3.7071,4.3004,4.8824,3.8538,2.7956,1.7878,1.3606,1.161,1.061,1.2199,0.3329,-5.3597
3.3342,2.5629,1.5084,2.122,2.0903,1.3307,0.9484,0.4695,0.1417,0.7128,-0.3188,0.6298,3.2488,4.2025,2.0614,3.255,3.0171,2.5544,3.5944,4.1794,4.7652,3.7676,2.7274,1.7494,1.2641,1.0878,0.9854,1.1572,0.2456,-5.4298
3.2946,2.4701,1.4143,2.0214,1.9362,1.2131,0.8309,0.3972,0.0521,0.6367,-0.3748,0.5872,3.1675,4.1214,1.9901,3.1778,2.9542,2.4975,3.5141,4.087,4.6593,3.6976,2.6831,1.7158,1.1759,1.0323,0.922,1.0816,0.1518,-5.4933
3.2809,2.3924,1.3286,1.9289,1.7829,1.0877,0.7118,0.3256,-0.0638,0.5554,-0.4384,0.5418,3.0723,4.0424,1.9726,3.142,2.9335,2.4678,3.4706,4.0229,4.5648,3.6406,2.6592,1.6837,1.1037,1.0023,0.8769,1.0036,0.0544,-5.5428
3.2907,2.3295,1.2527,1.843,1.6319,0.9603,0.597,0.2588,-0.1967,0.4721,-0.5083,0.4955,2.9657,3.965,2.0083,3.1484,2.9509,2.4628,3.463,3.9841,4.4805,3.5929,2.6489,1.6486,1.0513,0.9987,0.8527,0.9323,-0.0432,-5.5755
3.3191,2.281,1.1884,1.7641,1.4867,0.8376,0.4912,0.1993,-0.3383,0.3899,-0.5827,0.4495,2.8513,3.8904,2.0889,3.1922,2.9985,2.4767,3.485,3.9655,4.4045,3.5513,2.6445,1.6068,1.0188,1.0164,0.8477,0.8745,-0.1367,-5.5935
3.3603,2.2468,1.1375,1.695,1.3525,0.7259,0.3975,0.1476,-0.482,0.3117,-0.6588,0.4046,2.7338,3.8214,2.2007,3.2631,3.0664,2.5017,3.5256,3.9621,4.3356,3.5141,2.6381,1.5564,1.0033,1.0457,0.858,0.8347,-0.2209,-5.6027
3.4074,2.2277,1.1028,1.6402,1.2361,0.6303,0.3187,0.1026,-0.6223,0.2413,-0.7323,0.3619,2.6196,3.7631,2.3268,3.3474,3.1442,2.5296,3.5721,3.9688,4.2736,3.4807,2.6245,1.499,1.0004,1.0761,0.8789,0.8151,-0.2898,-5.6112
3.4536,2.225,1.087,1.6041,1.1447,0.5544,0.2573,0.0624,-0.754,0.1826,-0.7977,0.3243,2.5165,3.7211,2.4507,3.4301,3.2223,2.5535,3.6121,3.9816,4.2192,3.4519,2.6015,1.4395,1.006,1.0984,0.9063,0.8164,-0.3367,-5.626
3.4922,2.2397,1.0921,1.5894,1.0846,0.5,0.2165,0.0256,-0.8708,0.1403,-0.8487,0.2959,2.4326,3.7006,2.5577,3.4982,3.293,2.5689,3.6363,3.997,4.1728,3.429,2.5711,1.386,1.0175,1.1082,0.9384,0.8387,-0.3552,-5.6512
3.5176,2.2712,1.1188,1.5958,1.0594,0.4675,0.1995,-0.0079,-0.9655,0.1187,-0.8787,0.2823,2.3759,3.7047,2.6369,3.542,3.3512,2.5743,3.6404,4.0118,4.1342,3.4131,2.5384,1.3482,1.0349,1.1062,0.9757,0.8821,-0.339,-5.6854
3.5251,2.3161,1.1646,1.6187,1.0684,0.4556,0.2087,-0.0366,-1.03,0.1209,-0.8824,0.2896,2.3525,3.7333,2.6811,3.5566,3.3932,2.5708,3.6248,4.0225,4.1013,3.4039,2.5106,1.3358,1.0599,1.0984,1.0207,0.9469,-0.2837,-5.7219
3.5111,2.3676,1.2235,1.6494,1.1052,0.4607,0.2436,-0.0584,-1.0571,0.1479,-0.8567,0.3227,2.3648,3.7818,2.6854,3.5414,3.4164,2.5598,3.5927,4.0244,4.0704,3.3992,2.4938,1.3554,1.0954,1.0941,1.0763,1.033,-0.1878,-5.7502
3.473,2.4154,1.2854,1.6762,1.1576,0.4769,0.2996,-0.0714,-1.0428,0.1969,-0.8024,0.3838,2.4102,3.8412,2.6469,3.4983,3.4174,2.5415,3.5482,4.0118,4.036,3.3944,2.4912,1.4084,1.143,1.1029,1.144,1.1393,-0.0541,-5.7591
3.409,2.4467,1.3368,1.6854,1.208,0.4957,0.3669,-0.0759,-0.9874,0.261,-0.7245,0.4716,2.4806,3.8989,2.5628,3.43,3.3914,2.5133,3.4932,3.978,3.9913,3.3823,2.5007,1.4896,1.2023,1.1326,1.2222,1.2628,0.1096,-5.739
3.3176,2.4474,1.363,1.6643,1.2365,0.5066,0.4312,-0.0744,-0.8972,0.3297,-0.6322,0.5805,2.5631,3.9397,2.431,3.3376,3.3327,2.4697,3.4265,3.9158,3.9292,3.3542,2.5151,1.5878,1.2699,1.1867,1.306,1.3983,0.2904,-5.6847
3.1978,2.4048,1.3501,1.6029,1.2241,0.4985,0.4767,-0.0717,-0.7836,0.3904,-0.5374,0.7019,2.6423,3.9485,2.2509,3.2201,3.2357,2.4032,3.344,3.8197,3.8432,3.302,2.5237,1.6872,1.3401,1.2638,1.3871,1.5388,0.4723,-5.5964
3.0502,2.3097,1.2882,1.4965,1.1573,0.4615,0.4893,-0.073,-0.6613,0.4311,-0.4522,0.8248,2.7033,3.9132,2.0245,3.0753,3.0971,2.3067,3.2403,3.6865,3.7295,3.2198,2.5151,1.7711,1.4061,1.3582,1.4556,1.6762,0.638,-5.4797
2.8776,2.1593,1.1737,1.3471,1.031,0.3895,0.4609,-0.083,-0.546,0.4433,-0.3862,0.9376,2.7352,3.8282,1.7581,2.9017,2.9179,2.1758,3.111,3.5176,3.5876,3.1063,2.4803,1.8251,1.4614,1.4603,1.502,1.802,0.7721,-5.3451
2.6866,1.9586,1.0105,1.164,0.8515,0.2821,0.3913,-0.1037,-0.4511,0.4238,-0.345,1.0289,2.7341,3.6967,1.4641,2.7019,2.7045,2.0111,2.9562,3.3202,3.4229,2.9657,2.4155,1.8404,1.5014,1.5589,1.5185,1.9088,0.8635,-5.2058
2.4893,1.7215,0.8108,0.964,0.6361,0.1462,0.2897,-0.1338,-0.3844,0.3762,-0.3283,1.0894,2.7044,3.5317,1.1607,2.4848,2.4703,1.8193,2.782,3.1082,3.2472,2.8078,2.3233,1.8152,1.5239,1.6421,1.5011,1.9905,0.9081,-5.076
2.3024,1.4703,0.5938,0.7697,0.4118,-0.0039,0.1729,-0.1686,-0.3464,0.3101,-0.3308,1.1128,2.658,3.3558,0.8711,2.2676,2.2342,1.6133,2.6017,2.9022,3.0785,2.6471,2.2129,1.7554,1.5298,1.6998,1.4498,2.0435,0.9087,-4.9677
2.1465,1.2336,0.3836,0.6071,0.2109,-0.1476,0.0627,-0.2004,-0.3304,0.24,-0.3436,1.0963,2.6122,3.1973,0.621,2.0732,2.0192,1.4103,2.4343,2.7271,2.9398,2.5003,2.0983,1.6733,1.5222,1.7244,1.3691,2.0666,0.8749,-4.8893
2.0423,1.0416,0.2055,0.5019,0.0661,-0.2616,-0.0187,-0.2204,-0.3239,0.1821,-0.3561,1.0421,2.5854,3.0854,0.4339,1.9269,1.8492,1.2295,2.3012,2.6089,2.8548,2.3842,1.9954,1.5849,1.5053,1.7127,1.2665,2.0614,0.8209,-4.8438
2.0064,0.9207,0.082,0.4741,0.0037,-0.3244,-0.0528,-0.2199,-0.3121,0.1514,-0.3589,0.9566,2.5929,3.0441,0.3269,1.8505,1.7443,1.0881,2.2221,2.5689,2.843,2.3117,1.9188,1.5068,1.4837,1.6657,1.1515,2.0322,0.7626,-4.8285
2.0467,0.8878,0.0282,0.5335,0.0383,-0.3215,-0.0287,-0.1933,-0.2814,0.1582,-0.3456,0.8508,2.643,3.0865,0.306,1.8561,1.7163,0.9971,2.2091,2.6182,2.9144,2.2895,1.8783,1.4532,1.4605,1.5892,1.0339,1.9854,0.7151,-4.8354
2.1592,0.9457,0.0488,0.6759,0.1687,-0.2498,0.0547,-0.1389,-0.2224,0.2065,-0.3135,0.7388,2.7344,3.2113,0.3637,1.9422,1.765,0.9586,2.2633,2.7534,3.0657,2.3162,1.8766,1.4327,1.4374,1.493,0.9223,1.9291,0.6907,-4.8522
2.3277,1.0812,0.137,0.8822,0.3775,-0.1195,0.189,-0.0598,-0.1312,0.2932,-0.2641,0.6366,2.8567,3.4026,0.4795,2.0928,1.8765,0.9647,2.3735,2.9553,3.2788,2.3815,1.9084,1.4483,1.4143,1.3897,0.8232,1.8726,0.6978,-4.8644
2.5258,1.2672,0.2751,1.1213,0.6338,0.0469,0.358,0.0367,-0.0087,0.4093,-0.2014,0.5589,2.9918,3.6335,0.6232,2.2803,2.0251,0.9981,2.5175,3.1914,3.5245,2.4684,1.9615,1.4964,1.3901,1.2929,0.7405,1.8246,0.74,-4.8577
2.7225,1.4685,0.4393,1.3562,0.9002,0.2201,0.5421,0.1407,0.1411,0.5422,-0.1306,0.5178,3.1191,3.8717,0.7609,2.4714,2.1779,1.0365,2.667,3.4229,3.7678,2.5565,2.0197,1.5695,1.363,1.215,0.6753,1.7926,0.8172,-4.8206
2.8884,1.6497,0.6045,1.5525,1.1414,0.3708,0.7228,0.2422,0.313,0.679,-0.0569,0.5195,3.2196,4.0873,0.862,2.6348,2.3025,1.0574,2.7942,3.613,3.9766,2.6267,2.0664,1.6576,1.3315,1.1653,0.6264,1.7812,0.926,-4.7463
3.003,1.7834,0.7503,1.6859,1.3316,0.4768,0.8862,0.3337,0.5014,0.8093,0.0157,0.5642,3.2809,4.259,0.9056,2.7484,2.3747,1.0434,2.8784,3.7358,4.1283,2.665,2.0888,1.7513,1.2945,1.1477,0.5904,1.7917,1.0608,-4.634
3.0589,1.8568,0.8651,1.7483,1.4605,0.5291,1.0256,0.4114,0.7017,0.9268,0.0849,0.6456,3.2996,4.3787,0.8851,2.804,2.3842,0.9866,2.9109,3.7825,4.2154,2.6663,2.081,1.8432,1.2518,1.1602,0.5627,1.8215,1.2147,-4.4888
3.0634,1.8742,0.9482,1.7489,1.5344,0.5327,1.1421,0.4759,0.9088,1.0306,0.1498,0.7525,3.2822,4.452,0.8091,2.808,2.3371,0.8904,2.8964,3.7628,4.2465,2.6347,2.0451,1.9292,1.2041,1.1956,0.5384,1.8651,1.3799,-4.3199
3.0356,1.8541,1.0083,1.7114,1.5726,0.5047,1.2426,0.5315,1.1176,1.124,0.211,0.8711,3.2428,4.4953,0.6981,2.7788,2.2536,0.7676,2.8514,3.7019,4.2428,2.5818,1.9903,2.0082,1.1531,1.2428,0.5133,1.9152,1.5484,-4.1389
