FP1,F3,F7,FC3,C3,C5,P3,P7,PO7,PO3,O1,Oz,Pz,CPz,FP2,Fz,F4,F8,FC4,FCz,Cz,C4,C6,P4,P8,PO8,PO4,O2,(corr) HEOG,(corr) VEOG
0.5946,0.2942,0.045,0.2028,0.0508,-0.024,0.2512,0.1203,0.7261,0.4678,0.4851,0.2982,0.6155,0.446,0.7134,0.715,1.0096,0.6555,0.9387,0.5046,0.1971,0.5903,0.5616,0.3331,0.0826,0.5989,0.5253,0.3853,0.4956,0.2709
0.5011,0.2318,-0.0484,0.1238,-0.0221,-0.1369,0.253,0.0627,0.7584,0.4866,0.5177,0.3106,0.6478,0.4591,0.6879,0.6581,1.0108,0.643,0.9254,0.4611,0.188,0.614,0.5853,0.4039,0.1633,0.6728,0.6149,0.4306,0.5816,0.2891
0.4405,0.2265,-0.1021,0.098,-0.0413,-0.2052,0.2977,0.0228,0.8012,0.5295,0.5487,0.3293,0.7223,0.5209,0.6849,0.6397,1.0403,0.6547,0.9366,0.4538,0.226,0.6614,0.6,0.4993,0.2437,0.745,0.7166,0.4894,0.6594,0.3242
0.4119,0.266,-0.1201,0.1199,-0.0113,-0.231,0.3766,0.002,0.8472,0.5879,0.5712,0.3494,0.8281,0.6229,0.6978,0.6526,1.085,0.679,0.9609,0.4767,0.3044,0.7202,0.594,0.6033,0.3115,0.8041,0.8146,0.553,0.7266,0.3738
0.4069,0.3297,-0.1121,0.1752,0.0543,-0.2243,0.4745,-0.0022,0.8867,0.6506,0.5794,0.3664,0.948,0.75,0.7135,0.6829,1.1273,0.698,0.9829,0.5184,0.4099,0.7737,0.557,0.697,0.3555,0.84,0.8937,0.6129,0.7794,0.4324
0.4132,0.3948,-0.0899,0.2447,0.1374,-0.1995,0.5731,0.0044,0.9101,0.7058,0.5699,0.3776,1.0629,0.8836,0.7164,0.7144,1.1494,0.6926,0.9875,0.5657,0.5258,0.8051,0.483,0.7622,0.3682,0.8456,0.9417,0.6623,0.8134,0.4921
0.4189,0.442,-0.0641,0.31,0.2187,-0.1713,0.6548,0.0146,0.9106,0.7441,0.5425,0.3825,1.1555,1.0055,0.6937,0.7335,1.1389,0.6483,0.9641,0.607,0.6354,0.801,0.3725,0.785,0.347,0.8187,0.9519,0.6966,0.8248,0.5441
0.415,0.4596,-0.0421,0.3567,0.2824,-0.152,0.706,0.021,0.8858,0.7594,0.4999,0.3822,1.2136,1.1006,0.6388,0.732,1.0912,0.5593,0.9093,0.6349,0.7245,0.7542,0.232,0.7578,0.2942,0.7613,0.923,0.7139,0.811,0.5799
0.3975,0.4447,-0.0275,0.3769,0.3176,-0.1492,0.7185,0.0179,0.8382,0.7492,0.4465,0.3778,1.231,1.1583,0.5527,0.7072,1.0096,0.4291,0.8261,0.6459,0.7828,0.6648,0.0725,0.6798,0.2158,0.6788,0.8588,0.7138,0.7715,0.5932
0.3652,0.4005,-0.0222,0.3677,0.3184,-0.166,0.6892,0.0016,0.7748,0.7132,0.387,0.3684,1.2066,1.1723,0.4415,0.6607,0.9025,0.268,0.7217,0.6386,0.8034,0.5386,-0.0929,0.5559,0.1196,0.5783,0.7653,0.6959,0.708,0.5817
0.3176,0.3327,-0.0286,0.3291,0.2826,-0.2033,0.6188,-0.0294,0.7048,0.6523,0.3244,0.3506,1.1412,1.1394,0.3132,0.5939,0.7781,0.089,0.6035,0.6104,0.7812,0.3847,-0.2526,0.3956,0.0142,0.4679,0.6494,0.6593,0.6248,0.5481
0.2518,0.2448,-0.0524,0.2605,0.2086,-0.2622,0.5094,-0.0752,0.6377,0.5661,0.2587,0.3174,1.0349,1.0574,0.1725,0.5055,0.6404,-0.0974,0.4757,0.5549,0.7109,0.2128,-0.3989,0.2103,-0.0918,0.3563,0.5171,0.6023,0.5291,0.4998
0.1603,0.1351,-0.1029,0.1584,0.0944,-0.3456,0.363,-0.1348,0.5812,0.4532,0.1875,0.2596,0.8853,0.9231,0.0174,0.3887,0.4868,-0.2864,0.3368,0.4613,0.5861,0.0301,-0.5301,0.0115,-0.1905,0.2529,0.3731,0.523,0.4302,0.4492
0.032,-0.0042,-0.1927,0.0159,-0.0638,-0.4586,0.1813,-0.2057,0.5408,0.3107,0.1072,0.1684,0.6866,0.732,-0.1609,0.2314,0.3071,-0.48,0.1793,0.3148,0.3988,-0.1608,-0.6507,-0.1909,-0.2741,0.1681,0.2208,0.4209,0.3383,0.4118
-0.1461,-0.1852,-0.3346,-0.1762,-0.2703,-0.6072,-0.0338,-0.2837,0.5207,0.1372,0.0155,0.0384,0.4323,0.4791,-0.3769,0.019,0.0871,-0.6862,-0.0086,0.0994,0.1406,-0.3618,-0.7708,-0.39,-0.3354,0.1133,0.0633,0.2983,0.2632,0.404
-0.3854,-0.4211,-0.5392,-0.4266,-0.5285,-0.7956,-0.2781,-0.3617,0.5246,-0.0658,-0.0862,-0.1294,0.1175,0.1605,-0.646,-0.2628,-0.1883,-0.9156,-0.2403,-0.1982,-0.1952,-0.5794,-0.9032,-0.5823,-0.368,0.1,-0.0951,0.1624,0.2122,0.44
-0.6925,-0.7227,-0.8121,-0.7413,-0.8391,-1.0252,-0.5442,-0.4296,0.5573,-0.2909,-0.1911,-0.3257,-0.2572,-0.2245,-0.9801,-0.6245,-0.5309,-1.1788,-0.5276,-0.586,-0.612,-0.8225,-1.0613,-0.7672,-0.3675,0.1386,-0.2484,0.0248,0.1889,0.5285
-1.0671,-1.0948,-1.151,-1.1209,-1.1987,-1.2922,-0.8195,-0.4756,0.6242,-0.5247,-0.2878,-0.5334,-0.6835,-0.6705,-1.3835,-1.0696,-0.9462,-1.4826,-0.8778,-1.0637,-1.1072,-1.0999,-1.2561,-0.9461,-0.3326,0.2349,-0.3893,-0.1,0.1921,0.6707
-1.4993,-1.5327,-1.5454,-1.558,-1.5972,-1.5873,-1.0864,-0.4872,0.7304,-0.7469,-0.3616,-0.7294,-1.1425,-1.164,-1.8494,-1.5917,-1.4299,-1.8274,-1.2909,-1.6205,-1.6699,-1.4167,-1.4933,-1.1202,-0.266,0.3877,-0.5097,-0.1966,0.2165,0.8586
-1.9693,-2.0201,-1.9752,-2.0344,-2.0157,-1.8945,-1.3211,-0.4532,0.8794,-0.9314,-0.3966,-0.888,-1.603,-1.6799,-2.3579,-2.172,-1.9662,-2.2046,-1.7556,-2.2329,-2.2767,-1.7693,-1.7695,-1.2877,-0.175,0.5859,-0.6009,-0.2518,0.254,1.0753
-2.4454,-2.5266,-2.4106,-2.5193,-2.4244,-2.1899,-1.494,-0.3658,1.0716,-1.0477,-0.3782,-0.9835,-2.0206,-2.1793,-2.875,-2.7762,-2.5244,-2.5942,-2.2464,-2.8624,-2.8896,-2.1411,-2.0702,-1.44,-0.0703,0.8091,-0.6535,-0.2558,0.2952,1.2965
-2.8849,-3.0068,-2.8122,-2.9682,-2.781,-2.4413,-1.5709,-0.2211,1.3025,-1.0629,-0.2943,-0.9924,-2.3387,-2.6091,-3.3537,-3.3542,-3.0594,-2.964,-2.7222,-3.455,-3.4543,-2.4995,-2.3683,-1.5594,0.0358,1.0285,-0.6566,-0.2031,0.3318,1.4936
-3.2346,-3.4024,-3.1331,-3.3243,-3.0327,-2.6094,-1.5163,-0.0214,1.5616,-0.9456,-0.137,-0.8961,-2.493,-2.9046,-3.7365,-3.8409,-3.5119,-3.2699,-3.1268,-3.9435,-3.9022,-2.7966,-2.6245,-1.6191,0.1311,1.2117,-0.5977,-0.0918,0.3576,1.6372
-3.4352,-3.6462,-3.3217,-3.5232,-3.1208,-2.6503,-1.2988,0.224,1.8306,-0.6721,0.0957,-0.6823,-2.419,-2.9958,-3.9603,-4.162,-3.8137,-3.459,-3.3935,-4.2522,-4.1566,-2.9729,-2.7905,-1.5852,0.2069,1.3276,-0.4636,0.0765,0.3694,1.7011
-3.4272,-3.6712,-3.3276,-3.5016,-2.9902,-2.5226,-0.8985,0.4978,2.0824,-0.232,0.3978,-0.3483,-2.0632,-2.8187,-3.9631,-4.2419,-3.8947,-3.4759,-3.452,-4.306,-4.1428,-2.9651,-2.8145,-1.4225,0.2593,1.3522,-0.2425,0.2973,0.368,1.6661
-3.1604,-3.4217,-3.1095,-3.208,-2.5998,-2.1953,-0.3143,0.7749,2.2825,0.3656,0.7536,0.097,-1.3953,-2.3274,-3.6939,-4.0163,-3.6938,-3.271,-3.2403,-4.0428,-3.8013,-2.7172,-2.6484,-1.1021,0.2905,1.273,0.0724,0.5626,0.3574,1.5238
-2.6039,-2.8653,-2.6439,-2.6151,-1.9337,-1.6564,0.4308,1.0242,2.392,1.0888,1.1379,0.6323,-0.4183,-1.507,-3.1232,-3.4457,-3.1711,-2.8106,-2.7161,-3.4266,-3.1021,-2.1928,-2.2579,-0.61,0.3076,1.0911,0.4782,0.8597,0.3441,1.2789
-1.7563,-2.0037,-1.9333,-1.7287,-1.0098,-0.9206,1.289,1.2123,2.374,1.8845,1.5176,1.2238,0.8248,-0.3821,-2.2522,-2.5269,-2.3191,-2.087,-1.8695,-2.4585,-2.0556,-1.3857,-1.6313,0.0463,0.3215,0.8209,0.9596,1.1713,0.3358,0.9498
-0.6518,-0.8775,-1.0113,-0.5931,0.118,-0.0312,2.1906,1.3092,2.2011,2.6833,1.8555,1.8282,2.252,0.9803,-1.1193,-1.3,-1.17,-1.1246,-0.7301,-1.1834,-0.7169,-0.327,-0.787,0.8346,0.3428,0.4874,1.4873,1.4753,0.34,0.5661
0.639,0.4347,0.0578,0.7114,1.3632,0.9424,3.0526,1.2936,1.8622,3.4088,2.1156,2.3962,3.7496,2.4763,0.1999,0.1512,0.2024,0.0179,0.6301,0.3109,0.816,0.9139,0.2239,1.6984,0.3792,0.122,2.0198,1.7468,0.3626,0.1659
2.0146,1.8251,1.1845,2.077,2.6169,1.9129,3.79,1.1575,1.3678,3.9885,2.2688,2.8789,5.1869,3.9766,1.5985,1.7077,1.6886,1.2523,2.1029,1.9016,2.4136,2.2355,1.321,2.5636,0.4322,-0.2427,2.5078,1.9603,0.4075,-0.2103
3.3544,3.1696,2.2653,3.3822,3.7623,2.7875,4.328,0.9084,0.7511,4.3647,2.2973,3.2335,6.4334,5.3442,2.9508,3.229,3.156,2.4711,3.5566,3.4461,3.9308,3.5171,2.4038,3.3481,0.4966,-0.5774,2.9009,2.0934,0.4757,-0.5247
4.5341,4.3446,3.1961,4.5075,4.6909,3.4816,4.6127,0.5685,0.0647,4.5022,2.1982,3.4292,7.3774,6.4525,4.1289,4.572,4.4664,3.5619,4.853,4.8001,5.2264,4.635,3.3661,3.9741,0.5613,-0.8594,3.1558,2.1304,0.5651,-0.7483
5.4425,5.243,3.8868,5.3507,5.3168,3.9298,4.6187,0.1712,-0.6258,4.393,1.983,3.4511,7.9408,7.2022,5.0201,5.6102,5.4938,4.4223,5.8672,5.8367,6.1811,5.4807,4.1112,4.3795,0.6122,-1.0736,3.2429,2.0646,0.6705,-0.8639
5.9956,5.7868,4.2724,5.8392,5.5875,4.0954,4.351,-0.2437,-1.2516,4.0553,1.6761,3.301,8.0876,7.5336,5.5413,6.2491,6.142,4.9734,6.504,6.4625,6.7122,5.9754,4.5658,4.5269,0.6357,-1.2131,3.151,1.8997,0.7842,-0.8673
6.1468,5.9354,4.3212,5.937,5.489,3.9726,3.8423,-0.6366,-1.7506,3.5286,1.3092,2.9966,7.8255,7.4315,5.649,6.437,6.3552,5.1696,6.7101,6.628,6.7826,6.0802,4.6902,4.4078,0.6223,-1.2776,2.888,1.6484,0.8974,-0.7662
5.8907,5.688,4.0361,5.6475,5.0444,3.5845,3.1465,-0.9726,-2.0767,2.8661,0.916,2.5667,7.2001,6.924,5.3421,6.1694,6.1242,5.0021,6.479,6.3319,6.4022,5.7994,4.4822,4.0424,0.5691,-1.2712,2.4788,1.3306,1.0013,-0.5763
5.2612,5.0807,3.4525,5.0098,4.3084,2.9774,2.329,-1.2263,-2.2063,2.1249,0.5257,2.0455,6.2841,6.0747,4.6591,5.4857,5.4838,4.4975,5.8492,5.618,5.624,5.1773,3.9754,3.4749,0.4812,-1.201,1.9603,0.9691,1.0889,-0.3173
4.3245,4.179,2.6306,4.0922,3.3577,2.2119,1.4571,-1.3834,-2.14,1.3574,0.1587,1.467,5.1638,4.9718,3.6689,4.4611,4.5049,3.7107,4.8953,4.5669,4.5341,4.2894,3.2319,2.7651,0.3698,-1.0757,1.3745,0.5863,1.1553,-0.0088
3.1687,3.0679,1.6462,2.9815,2.2798,1.3546,0.5919,-1.4409,-1.9001,0.606,-0.1751,0.8603,3.9263,3.7148,2.4596,3.1943,3.2824,2.7151,3.7151,3.2829,3.2387,3.2296,2.3308,1.9788,0.2507,-0.9047,0.7625,0.2012,1.1978,0.3327
1.8914,1.8403,0.5797,1.7719,1.1621,0.47,-0.2167,-1.4052,-1.5248,-0.0998,-0.4745,0.2474,2.65,2.4022,1.1264,1.7946,1.9218,1.5931,2.4161,1.8801,1.8504,2.0974,1.3573,1.1795,0.1405,-0.6982,0.1603,-0.172,1.2148,0.6947
0.5889,0.5869,-0.493,0.5542,0.083,-0.3854,-0.9326,-1.2898,-1.0598,-0.7423,-0.7442,-0.3564,1.3991,1.1218,-0.239,0.3685,0.5265,0.4254,1.1017,0.4686,0.4748,0.9855,0.3908,0.4213,0.054,-0.4663,-0.4038,-0.5236,1.2049,1.0677
-0.6543,-0.613,-1.508,-0.5936,-0.895,-1.1665,-1.5325,-1.1112,-0.5501,-1.3113,-0.9893,-0.9393,0.2224,-0.0562,-1.5568,-0.9912,-0.8129,-0.7156,-0.1392,-0.8571,-0.7994,-0.0297,-0.5022,-0.2544,0.0019,-0.2185,-0.9082,-0.8463,1.1668,1.444
-1.7715,-1.6979,-2.4175,-1.6125,-1.7292,-1.8416,-2.0035,-0.8874,-0.0335,-1.7994,-1.211,-1.489,-0.8444,-1.082,-2.7638,-2.2126,-2.0257,-1.7717,-1.2394,-2.0266,-1.9079,-0.8931,-1.2737,-0.8197,-0.0094,0.0377,-1.3364,-1.1329,1.0991,1.8157
-2.7184,-2.6275,-3.1914,-2.4657,-2.3968,-2.392,-2.3397,-0.6348,0.4637,-2.1968,-1.4032,-1.9887,-1.7747,-1.9259,-3.8162,-3.2496,-3.0648,-2.7007,-2.1566,-2.9973,-2.8134,-1.5733,-1.8956,-1.2584,0.0223,0.2984,-1.6736,-1.373,1.0015,2.1735
-3.4736,-3.3833,-3.8169,-3.1386,-2.8933,-2.8113,-2.5396,-0.368,0.9279,-2.4884,-1.5508,-2.4144,-2.5469,-2.5757,-4.689,-4.0819,-3.9074,-3.4778,-2.8734,-3.7546,-3.504,-2.0611,-2.3582,-1.5627,0.0968,0.5642,-1.9037,-1.5512,0.8759,2.5057
-4.0375,-3.9667,-4.297,-3.6366,-3.2285,-3.1038,-2.6033,-0.0979,1.3572,-2.653,-1.631,-2.7347,-3.1407,-3.0323,-5.3752,-4.713,-4.5524,-4.0939,-3.3936,-4.3079,-3.9894,-2.3653,-2.6673,-1.73,0.2125,0.8402,-2.0082,-1.6465,0.7272,2.7986
-4.4283,-4.3956,-4.6474,-3.9803,-3.4218,-3.2824,-2.5318,0.1677,1.7582,-2.665,-1.6162,-2.9135,-3.5354,-3.3044,-5.8833,-5.1648,-5.0162,-4.5539,-3.7365,-4.6847,-4.2938,-2.507,-2.8398,-1.7601,0.3675,1.1348,-1.9674,-1.6341,0.5629,3.0385
-4.6757,-4.6978,-4.8919,-4.1993,-3.4961,-3.3654,-2.3266,0.4251,2.1417,-2.4993,-1.4797,-2.9161,-3.7102,-3.4033,-6.2331,-5.4705,-5.3259,-4.8727,-3.9298,-4.9215,-4.4476,-2.5126,-2.8977,-1.6537,0.5599,1.4574,-1.7625,-1.4898,0.3924,3.2138
-4.8137,-4.9054,-5.0575,-4.3256,-3.4738,-3.3728,-1.9902,0.6743,2.5182,-2.1368,-1.2014,-2.7158,-3.646,-3.3392,-6.4507,-5.6656,-5.512,-5.0708,-4.0016,-5.0553,-4.4801,-2.4074,-2.8635,-1.412,0.7879,1.8149,-1.3803,-1.1952,0.2258,3.3178
-4.8732,-5.0475,-5.1688,-4.3871,-3.3723,-3.3224,-1.5276,0.9181,2.8946,-1.5704,-0.7733,-2.3019,-3.3301,-3.1194,-6.5626,-5.7811,-5.601,-5.1691,-3.9753,-5.1157,-4.4135,-2.2116,-2.7557,-1.0376,1.0494,2.2089,-0.8183,-0.7443,0.0735,3.3501
-4.8771,-5.1456,-5.2437,-4.4037,-3.2028,-3.2265,-0.9483,1.1607,3.2714,-0.811,-0.2046,-1.685,-2.761,-2.7491,-6.5906,-5.8372,-5.6116,-5.1848,-3.8664,-5.121,-4.2606,-1.938,-2.5873,-0.5375,1.3409,2.6329,-0.0891,-0.1486,-0.0544,3.3174
-4.8386,-5.2112,-5.292,-4.3855,-2.9714,-3.0914,-0.2688,1.4057,3.6415,0.1097,0.4769,-0.8994,-1.9538,-2.2347,-6.5489,-5.8423,-5.552,-5.1293,-3.6821,-5.0769,-4.0254,-1.5929,-2.3654,0.0746,1.6564,3.0719,0.7762,0.5613,-0.1476,3.2323
-4.7622,-5.246,-5.3158,-4.3342,-2.6821,-2.9185,0.4849,1.6533,3.9907,1.1384,1.2257,-0.0017,-0.9445,-1.588,-6.4439,-5.7943,-5.4223,-5.0074,-3.4236,-4.9789,-3.7073,-1.179,-2.0933,0.7764,1.987,3.5033,1.7287,1.3366,-0.1969,3.1109
-4.6474,-5.2447,-5.3124,-4.2469,-2.34,-2.7078,1.2769,1.899,4.2997,2.204,1.9831,0.9344,0.2099,-0.8306,-6.2765,-5.6847,-5.2175,-4.8196,-3.0899,-4.818,-3.3056,-0.6987,-1.7724,1.5357,2.3208,3.9007,2.7053,2.1165,-0.1943,2.9701
-4.4933,-5.1991,-5.278,-4.1194,-1.9547,-2.4613,2.0626,2.1329,4.547,3.2251,2.6846,1.8272,1.4344,0.0044,-6.0466,-5.5047,-4.9331,-4.5647,-2.6817,-4.5857,-2.8247,-0.1587,-1.405,2.3125,2.6438,4.237,3.6347,2.8357,-0.1358,2.825
-4.3023,-5.1022,-5.2108,-3.9504,-1.5416,-2.1848,2.7929,2.341,4.7134,4.1205,3.269,2.5977,2.6434,0.8737,-5.7567,-5.2506,-4.5697,-4.2432,-2.2052,-4.2793,-2.2775,0.4282,-0.9953,3.0617,2.9413,4.4889,4.4471,3.4334,-0.0217,2.6872
-4.0821,-4.952,-5.1134,-3.7435,-1.1212,-1.8891,3.4206,2.5086,4.786,4.8213,3.688,3.1803,3.7514,1.7277,-5.4149,-4.9272,-4.1364,-3.8604,-1.6743,-3.9052,-1.6861,1.0417,-0.5509,3.7391,3.1995,4.6404,5.0834,3.8627,0.1426,2.563
-3.8458,-4.7535,-4.9934,-3.5084,-0.7169,-1.589,3.9074,2.6233,4.7608,5.2818,3.9137,3.5328,4.6849,2.5174,-5.0361,-4.5492,-3.6512,-3.4276,-1.1102,-3.4794,-1.0795,1.6563,-0.0826,4.3071,3.4078,4.6852,5.504,4.0968,0.3467,2.4542
-3.6101,-4.5203,-4.8622,-3.2599,-0.3518,-1.3013,4.2304,2.6779,4.6453,5.4866,3.9431,3.6423,5.3931,3.2022,-4.6403,-4.1397,-3.14,-2.9627,-0.5395,-3.0254,-0.49,2.2439,0.3962,4.7404,3.5598,4.6278,5.6955,4.1332,0.5771,2.3581
-3.3921,-4.2725,-4.7334,-3.0163,-0.0453,-1.0427,4.3862,2.673,4.4576,5.4537,3.7994,3.5275,5.8551,3.7556,-4.25,-3.7267,-2.6323,-2.4882,0.0094,-2.5714,0.052,2.7787,0.8702,5.03,3.6547,4.4833,5.672,3.9945,0.8185,2.2697
-3.2062,-4.0345,-4.6207,-2.7969,0.1893,-0.828,4.3916,2.6172,4.2247,5.2312,3.5275,3.235,6.0827,4.1695,-3.8859,-3.3385,-2.1571,-2.0282,0.511,-2.1453,0.5227,3.2408,1.3234,5.1846,3.697,4.2757,5.4738,3.7238,1.0562,2.183
-3.0619,-3.8305,-4.5352,-2.6194,0.3465,-0.6681,4.2806,2.5257,3.9788,4.8887,3.1871,2.8319,6.1165,4.4533,-3.5636,-2.9996,-1.7377,-1.6043,0.9456,-1.7705,0.9081,3.6192,1.7398,5.2287,3.6962,4.0342,5.1603,3.3785,1.2788,2.093
-2.9627,-3.6811,-4.4849,-2.4976,0.4282,-0.57,4.099,2.4177,3.7529,4.5061,2.8424,2.3945,6.0177,4.6314,-3.2921,-2.7271,-1.3896,-1.2322,1.302,-1.4637,1.2058,3.9124,2.1043,5.1978,3.6646,3.7894,4.8008,3.0204,1.4799,1.9967
-2.907,-3.6001,-4.4737,-2.4391,0.4434,-0.5355,3.8957,2.313,3.5761,4.1597,2.5524,1.9957,5.8574,4.737,-3.0734,-2.5298,-1.1185,-0.9206,1.5778,-1.2327,1.4236,4.1275,2.4048,5.1315,3.6158,3.5691,4.4633,2.706,1.6587,1.8944
-2.8898,-3.5921,-4.5019,-2.4437,0.4065,-0.5615,3.716,2.2279,3.4693,3.9114,2.3612,1.6947,5.7039,4.8061,-2.905,-2.4079,-0.9214,-0.6708,1.7784,-1.0769,1.5773,4.278,2.6335,5.0677,3.5629,3.3952,4.2046,2.4791,1.8201,1.7894
-2.9047,-3.6526,-4.5674,-2.5036,0.3353,-0.6402,3.5943,2.1732,3.443,3.8004,2.2927,1.529,5.6127,4.8712,-2.7815,-2.3542,-0.7886,-0.4774,1.9151,-0.9882,1.6874,4.3811,2.7891,5.0364,3.5174,3.2819,4.0636,2.3651,1.9729,1.6873
-2.9457,-3.7686,-4.6664,-2.6037,0.2491,-0.7593,3.551,2.1523,3.4958,3.8399,2.3488,1.5114,5.6204,4.9576,-2.6969,-2.356,-0.7061,-0.3305,2.0031,-0.9528,1.775,4.4548,2.8776,5.0564,3.4886,3.2353,4.0579,2.3701,2.1281,1.5942
-3.0084,-3.9209,-4.7948,-2.7245,0.1665,-0.904,3.5912,2.1619,3.6165,4.0192,2.5123,1.6324,5.7415,5.0809,-2.6465,-2.3976,-0.6596,-0.2186,2.0578,-0.9543,1.8586,4.5151,2.9112,5.1346,3.4829,3.2547,4.1844,2.4837,2.2959,1.5151
-3.0904,-4.0877,-4.949,-2.8463,0.103,-1.0581,3.7065,2.1941,3.7868,4.3088,2.7527,1.8645,5.9702,5.2463,-2.628,-2.4637,-0.6373,-0.1314,2.092,-0.9764,1.9506,4.5737,2.9051,5.2667,3.5039,3.3336,4.4228,2.6831,2.4824,1.4521
-3.192,-4.249,-5.126,-2.9526,0.0686,-1.2069,3.8783,2.2391,3.9857,4.6675,3.0338,2.1703,6.2841,5.4488,-2.6415,-2.5417,-0.6324,-0.0641,2.114,-1.0056,2.0562,4.6371,2.8748,5.4397,3.5518,3.4616,4.7411,2.9392,2.6875,1.404
-3.316,-4.3909,-5.3233,-3.0341,0.0664,-1.3388,4.0821,2.2882,4.1935,5.0504,3.3197,2.5078,6.6494,5.6748,-2.6908,-2.6245,-0.6444,-0.0192,2.1264,-1.0341,2.1726,4.7051,2.8314,5.6345,3.623,3.6244,5.1003,3.2211,2.9033,1.3661
-3.4674,-4.5079,-5.5386,-3.0898,0.0926,-1.4465,4.2918,2.3359,4.3946,5.4148,3.5803,2.8366,7.0268,5.9046,-2.7824,-2.7114,-0.679,-0.007,2.1257,-1.0603,2.2899,4.772,2.78,5.8286,3.7099,3.8048,5.4592,3.499,3.1146,1.3324
-3.6523,-4.6043,-5.7686,-3.1262,0.137,-1.527,4.4838,2.3814,4.579,5.7256,3.7937,3.1212,7.3767,6.1155,-2.9252,-2.8073,-0.7462,-0.0431,2.1034,-1.0893,2.3934,4.8267,2.7178,5.9989,3.8011,3.9825,5.7782,3.746,3.3014,1.2972
-3.8762,-4.6918,-6.0091,-3.155,0.1868,-1.5805,4.6407,2.428,4.7422,5.959,3.9479,3.3349,7.6647,6.2857,-3.1279,-2.9214,-0.8578,-0.144,2.0482,-1.1308,2.4669,4.8548,2.6359,6.124,3.8823,4.1355,6.0234,3.9401,3.4441,1.2561
-4.1421,-4.7864,-6.2553,-3.1886,0.2292,-1.6093,4.7531,2.4823,4.8843,6.1049,4.0413,3.4628,7.8671,6.3989,-3.3962,-3.0632,-1.0235,-0.321,1.9491,-1.1956,2.4969,4.8421,2.5224,6.1875,3.9384,4.2416,6.1699,4.0659,3.5286,1.2062
-4.4485,-4.9036,-6.5023,-3.2372,0.2553,-1.6162,4.8214,2.5519,5.0081,6.1676,4.0826,3.5047,7.974,6.4477,-3.7301,-3.2396,-1.2481,-0.5766,1.7986,-1.2923,2.4762,4.7777,2.3674,6.1806,3.9552,4.2819,6.2056,4.117,3.5503,1.1457
-4.7887,-5.0546,-6.7457,-3.306,0.2622,-1.604,4.8549,2.6433,5.1172,6.1639,4.0888,3.4754,7.9911,6.436,-4.1223,-3.4526,-1.5294,-0.9019,1.5956,-1.4245,2.4066,4.6575,2.1672,6.1043,3.922,4.2436,6.1331,4.0972,3.5157,1.0728
-5.1511,-5.2433,-6.9813,-3.3937,0.2539,-1.5748,4.869,2.7594,5.2147,6.1195,4.0819,3.4033,7.9382,6.378,-4.5576,-3.6971,-1.8573,-1.2778,1.3474,-1.5885,2.2996,4.487,1.9275,5.9697,3.8336,4.1235,5.9693,4.0204,3.4416,0.9853
-5.5203,-5.4643,-7.2053,-3.4932,0.2402,-1.5297,4.8822,2.8985,5.3013,6.0636,4.0843,3.3236,7.845,6.2968,-5.0141,-3.9617,-2.2142,-1.6774,1.0694,-1.7733,2.1748,4.2816,1.6649,5.7972,3.6925,3.9294,5.7434,3.9079,3.3514,0.8802
-5.8799,-5.7039,-7.4138,-3.5921,0.2349,-1.4685,4.9121,3.054,5.375,6.0225,4.1122,3.2705,7.7453,6.2195,-5.4655,-4.229,-2.5767,-2.0708,0.7839,-1.9611,2.0572,4.0655,1.4042,5.6138,3.5096,3.6804,5.492,3.7848,3.2703,0.7547
-6.2148,-5.9417,-7.6024,-3.6756,0.2531,-1.39,4.9725,3.2159,5.4317,6.0143,4.1714,3.2682,7.671,6.1724,-5.8849,-4.479,-2.9194,-2.4289,0.5165,-2.1309,1.9724,3.8676,1.1755,5.4489,3.3037,3.4038,5.2526,3.6735,3.2207,0.6078
-6.5135,-6.154,-7.7659,-3.7277,0.3084,-1.2917,5.0705,3.3725,5.4653,6.0453,4.2541,3.3236,7.6464,6.1768,-6.249,-4.6917,-3.2174,-2.7274,0.2923,-2.2614,1.9422,3.7168,1.0079,5.3292,3.0998,3.1309,5.0575,3.5894,3.2187,0.4416
-6.7698,-6.3182,-7.8984,-3.7343,0.4106,-1.1706,5.2062,3.5132,5.4696,6.1089,4.3399,3.424,7.6846,6.2444,-6.5411,-4.8499,-3.4506,-2.9488,0.1323,-2.3343,1.9814,3.6365,0.9241,5.2745,2.9246,2.8912,4.9283,3.5376,3.2722,0.2617
-6.9811,-6.4152,-7.9933,-3.6841,0.5645,-1.0232,5.3733,3.63,5.4394,6.188,4.4006,3.5397,7.7855,6.3765,-6.7534,-4.941,-3.6052,-3.083,0.0505,-2.3374,2.0954,3.641,0.9364,5.2939,2.8024,2.7061,4.8729,3.512,3.3802,0.0779
-7.1474,-6.4317,-8.0432,-3.5692,0.7705,-0.8457,5.561,3.7197,5.3723,6.2596,4.4069,3.6322,7.9376,6.5647,-6.8867,-4.9578,-3.6746,-3.1273,0.0531,-2.2643,2.2813,3.7329,1.0453,5.3842,2.7501,2.5851,4.8841,3.4981,3.5341,-0.0975
-7.2673,-6.3604,-8.0399,-3.3848,1.0258,-0.6348,5.7569,3.7837,5.2706,6.3022,4.3376,3.6644,8.1213,6.7937,-6.9488,-4.8976,-3.6586,-3.085,0.1396,-2.1148,2.5298,3.9049,1.2405,5.5311,2.7733,2.5232,4.9426,3.4769,3.7183,-0.2521
-7.3368,-6.199,-7.9749,-3.1291,1.3253,-0.3872,5.95,3.8278,5.1416,6.3015,4.1858,3.6118,8.3138,7.046,-6.9513,-4.7614,-3.562,-2.964,0.3041,-1.8925,2.828,4.1415,1.5047,5.7123,2.8642,2.5021,5.0213,3.4306,3.913,-0.3758
-7.3485,-5.9501,-7.8402,-2.8033,1.6636,-0.1012,6.1326,3.8612,4.9981,6.2552,3.9631,3.4693,8.4946,7.3053,-6.9062,-4.5529,-3.3926,-2.7757,0.537,-1.6042,3.1626,4.4232,1.8173,5.902,3.0031,2.4947,5.0914,3.347,4.0959,-0.4634
-7.2927,-5.6203,-7.6304,-2.412,2.0344,0.2232,6.3017,3.8946,4.856,6.1734,3.6972,3.253,8.649,7.5593,-6.8234,-4.2782,-3.1605,-2.5335,0.8259,-1.2593,3.5211,4.7297,2.157,6.0757,3.1616,2.4706,5.1284,3.2228,4.2457,-0.5156
-7.1604,-5.2204,-7.3439,-1.9641,2.4307,0.5827,6.4582,3.9379,4.7316,6.0761,3.4266,2.9965,8.7699,7.8007,-6.7093,-3.9463,-2.8774,-2.2523,1.1562,-0.8691,3.8924,5.0416,2.5035,6.2139,3.3081,2.4036,5.1167,3.0642,4.3443,-0.5382
-6.9461,-4.7646,-6.9842,-1.4726,2.8441,0.971,6.6054,3.9984,4.638,5.9876,3.1915,2.7422,8.8579,8.0259,-6.5663,-3.5685,-2.5558,-1.9469,1.5115,-0.4474,4.2665,5.3427,2.8387,6.3049,3.4137,2.2768,5.0518,2.8851,4.3788,-0.5402
-6.65,-4.27,-6.5603,-0.9544,3.2646,1.3784,6.7471,4.0793,4.5818,5.93,3.0249,2.5313,8.9185,8.2341,-6.3941,-3.158,-2.2089,-1.6314,1.8746,-0.0094,4.6343,5.6203,3.1473,6.3457,3.4574,2.0861,4.9407,2.7042,4.3426,-0.5314
-6.2795,-3.7552,-6.0858,-0.4284,3.6812,1.7932,6.8853,4.1787,4.5614,5.9182,2.946,2.395,8.9596,8.4249,-6.1915,-2.729,-1.8496,-1.3181,2.2292,0.4289,4.9873,5.8656,3.4175,6.3414,3.4291,1.8402,4.7993,2.5405,4.2349,-0.5203
-5.8496,-3.2389,-5.5785,0.0867,4.0828,2.2032,7.0196,4.2907,4.5677,5.9562,2.957,2.3487,8.9892,8.5981,-5.9597,-2.2956,-1.4895,-1.0168,2.5614,0.8529,5.3179,6.0745,3.6422,6.3035,3.3302,1.5576,4.6483,2.4092,4.0603,-0.5124
-5.3816,-2.7385,-5.0582,0.5746,4.4592,2.5972,7.146,4.4059,4.5866,6.0369,3.0442,2.3902,9.0132,8.753,-5.7029,-1.8709,-1.1388,-0.7353,2.8617,1.2505,5.6201,6.247,3.8197,6.2468,3.1734,1.2625,4.5086,2.319,3.8283,-0.5109
-4.9017,-2.2689,-4.5457,1.023,4.8027,2.966,7.2585,4.5133,4.6029,6.1439,3.1822,2.502,9.0346,8.8888,-5.4303,-1.466,-0.8052,-0.4791,3.1261,1.6134,5.89,6.3878,3.9541,6.1871,2.9793,0.9789,4.3968,2.2708,3.5532,-0.5175
-4.4388,-1.8419,-4.0603,1.4244,5.1084,3.303,7.3498,4.6033,4.6042,6.2554,3.34,2.6553,9.0529,9.005,-5.1547,-1.0901,-0.4946,-0.2518,3.356,1.9376,6.1266,6.5038,4.0545,6.138,2.7728,0.7271,4.3223,2.2573,3.2538,-0.5328
-4.0207,-1.4658,-3.6179,1.776,5.3747,3.6044,7.4128,4.6692,4.5835,6.348,3.4866,2.8162,9.0645,9.101,-4.8915,-0.7508,-0.2115,-0.0555,3.5556,2.2216,6.3304,6.6033,4.1327,6.1081,2.5788,0.5198,4.2849,2.2645,2.9525,-0.5568
-3.671,-1.1455,-3.2295,2.0786,5.6023,3.8686,7.442,4.709,4.5406,6.4007,3.5963,2.9515,9.0626,9.1756,-4.6566,-0.4545,0.0398,0.1095,3.7306,2.4658,6.5032,6.6931,4.2013,6.0998,2.4187,0.3618,4.2753,2.2746,2.6736,-0.5881
-3.4063,-0.8829,-2.9007,2.3347,5.7932,4.0956,7.4342,4.7253,4.4807,6.3981,3.6521,3.0338,9.0379,9.2265,-4.4635,-0.2067,0.255,0.2449,3.8847,2.6699,6.6457,6.7779,4.2717,6.1097,2.3075,0.2513,4.2776,2.2699,2.4414,-0.6228
-3.2344,-0.6784,-2.633,2.5463,5.9486,4.2852,7.3882,4.724,4.4126,6.3317,3.6466,3.0456,8.9799,9.2493,-4.3221,-0.0123,0.4291,0.3539,4.0188,2.8318,6.7567,6.8592,4.3526,6.1293,2.2533,0.1823,4.2732,2.2363,2.2775,-0.6543
-3.1545,-0.5327,-2.4257,2.7123,6.067,4.4355,7.3042,4.7117,4.3456,6.2004,3.5821,2.9811,8.8776,9.2373,-4.2377,0.1238,0.5565,0.4411,4.1293,2.9464,6.8314,6.935,4.4486,6.1477,2.2569,0.1477,4.2451,2.1667,2.1976,-0.6734
-3.1586,-0.4488,-2.2792,2.8267,6.143,4.5422,7.1828,4.6934,4.2864,6.0099,3.4681,2.8461,8.7211,9.1821,-4.2112,0.1961,0.6311,0.5108,4.2083,3.0053,6.861,7.0002,4.5602,6.1538,2.313,0.1416,4.1817,2.0621,2.2085,-0.6696
-3.2346,-0.4325,-2.1955,2.8788,6.1672,4.5981,7.0245,4.67,4.2372,5.7707,3.3181,2.6556,8.503,9.0746,-4.2396,0.1986,0.6473,0.567,4.245,2.9975,6.8336,7.0474,4.684,6.1384,2.412,0.1606,4.0792,1.9309,2.3074,-0.6326
-3.3679,-0.4917,-2.1785,2.8544,6.1277,4.5947,6.8293,4.6377,4.1953,5.4967,3.1472,2.43,8.2198,8.9067,-4.3169,0.1262,0.6014,0.6121,4.2279,2.9119,6.7361,7.0676,4.8129,6.0957,2.5418,0.2035,3.9418,1.787,2.4811,-0.5551
-3.544,-0.6338,-2.2314,2.7401,6.0133,4.525,6.5974,4.5888,4.1529,5.203,2.9691,2.1914,7.8734,8.673,-4.435,-0.0241,0.4926,0.6475,4.1478,2.7395,6.5571,7.052,4.9376,6.0236,2.6898,0.2705,3.7806,1.6463,2.7082,-0.4338
-3.7491,-0.8617,-2.3538,2.5278,5.8173,4.3854,6.3302,4.5136,4.0999,4.9047,2.7952,1.9604,7.4718,8.3729,-4.5836,-0.2509,0.3246,0.6739,4.0005,2.477,6.2909,6.9936,5.0477,5.9235,2.8438,0.361,3.6108,1.5243,2.9625,-0.2713
-3.9696,-1.1702,-2.5386,2.2196,5.541,4.179,6.0319,4.4042,4.0263,4.6155,2.6341,1.7542,7.029,8.0115,-4.7508,-0.5464,0.1064,0.6922,3.7893,2.1296,5.9406,6.8887,5.1334,5.7997,2.9932,0.4728,3.449,1.4333,3.2173,-0.0762
-4.192,-1.543,-2.7711,1.831,5.1968,3.9173,5.7108,4.2568,3.9253,4.3468,2.4924,1.5854,6.5643,7.6013,-4.9221,-0.8941,-0.1467,0.7044,3.5268,1.7135,5.52,6.7396,5.1878,5.6591,3.1292,0.6014,3.3098,1.381,3.449,0.1375
-4.4017,-1.9525,-3.0288,1.3912,4.808,3.6206,5.3789,4.0738,3.7948,4.1074,2.3745,1.4617,6.1008,7.1613,-5.0811,-1.2696,-0.4134,0.7151,3.2343,1.2554,5.054,6.5555,5.2093,5.5097,3.2453,0.7399,3.2036,1.3699,3.6412,0.3529
-4.583,-2.362,-3.2837,0.9404,4.4068,3.3167,5.0518,3.8644,3.6379,3.9018,2.283,1.3858,5.6623,6.7163,-5.2101,-1.642,-0.6683,0.7316,2.9405,0.7904,4.5762,6.3532,5.2032,5.3608,3.337,0.88,3.1355,1.3975,3.786,0.5532
-4.7195,-2.7309,-3.5052,0.5235,4.0302,3.0379,4.7462,3.6424,3.4622,3.7308,2.2177,1.3554,5.2704,6.2939,-5.2918,-1.9777,-0.8844,0.7637,2.6767,0.3573,4.1239,6.1549,5.1814,5.2209,3.402,1.0127,3.1041,1.4566,3.8844,0.7249
-4.7952,-3.0213,-3.6648,0.183,3.7133,2.8158,4.4768,3.4237,3.277,3.5905,2.1747,1.3636,4.9415,5.921,-5.3103,-2.2446,-1.037,0.8226,2.4725,-0.0063,3.733,5.9839,5.1596,5.0974,3.4404,1.1294,3.1027,1.5364,3.9447,0.8596
-4.797,-3.2037,-3.7395,-0.0488,3.4836,2.6756,4.2534,3.2228,3.0915,3.4726,2.1462,1.3989,4.6843,5.6193,-5.2536,-2.4175,-1.1073,0.9186,2.3501,-0.2702,3.4319,5.8606,5.1534,4.9942,3.4542,1.2219,3.1197,1.6237,3.9797,0.9548
-4.7161,-3.2623,-3.7153,-0.155,3.3556,2.6313,4.0788,3.0496,2.9125,3.3659,2.1206,1.446,4.4983,5.4021,-5.1144,-2.481,-1.0854,1.0589,2.3208,-0.4155,3.2377,5.7973,5.1742,4.9115,3.4466,1.2831,3.1408,1.7033,4.0023,1.0133
-4.55,-3.1959,-3.5895,-0.1365,3.3287,2.6823,3.9481,2.908,2.7429,3.2573,2.0843,1.4873,4.3744,5.2717,-4.8916,-2.4318,-0.9715,1.2463,2.3839,-0.4365,3.1538,5.7966,5.2264,4.8456,3.4209,1.3074,3.1501,1.76,4.0234,1.0416
-4.3036,-3.0184,-3.3709,-0.0104,3.3875,2.8129,3.8495,2.7954,2.5819,3.1346,2.0236,1.5051,4.2967,5.2193,-4.5906,-2.2786,-0.7752,1.4785,2.5271,-0.3413,3.1702,5.8516,5.3078,4.79,3.3804,1.2915,3.1334,1.7801,4.0495,1.0476
-3.9892,-2.7554,-3.0783,0.1933,3.5054,2.9957,3.7673,2.704,2.4262,2.9887,1.9286,1.485,4.2463,5.2272,-4.223,-2.0401,-0.514,1.7483,2.7297,-0.1497,3.2663,5.9474,5.4103,4.737,3.328,1.2355,3.0801,1.7543,4.0828,1.0385
-3.626,-2.4401,-2.738,0.4382,3.6493,3.1962,3.6857,2.6233,2.2721,2.8164,1.7959,1.4186,4.2045,5.2723,-3.8063,-1.7425,-0.2109,2.0442,2.9663,0.1099,3.4146,6.0648,5.5222,4.6802,3.2659,1.144,2.9859,1.6792,4.1217,1.0201
-3.2378,-2.1082,-2.3797,0.6872,3.7861,3.3798,3.5918,2.5428,2.1179,2.6215,1.6305,1.306,4.1567,5.33,-3.362,-1.4161,0.1087,2.3509,3.2109,0.4045,3.5847,6.1835,5.6304,4.6152,3.1963,1.0254,2.8533,1.5593,4.1619,0.9954
-2.8501,-1.7934,-2.0319,0.9079,3.8877,3.5167,3.4786,2.4548,1.9652,2.415,1.446,1.1565,4.0939,5.378,-2.9143,-1.0914,0.4196,2.6503,3.4395,0.7002,3.7476,6.2852,5.7224,4.5408,3.1213,0.8922,2.692,1.4068,4.1981,0.9659
-2.4871,-1.5228,-1.7186,1.0764,3.9345,3.5872,3.3454,2.3557,1.8194,2.2125,1.2619,0.9874,4.0135,5.3988,-2.4872,-0.7955,0.6995,2.9235,3.6328,0.9667,3.879,6.3561,5.7876,4.4583,3.0429,0.7587,2.5171,1.2402,4.226,0.9322
-2.169,-1.3147,-1.4562,1.1793,3.9178,3.5826,3.1972,2.2459,1.6882,2.0318,1.0997,0.8201,3.9181,5.3816,-2.1022,-0.5504,0.9312,3.1526,3.7775,1.1796,3.9607,6.3878,5.8191,4.3715,2.9634,0.6393,2.3468,1.0809,4.244,0.8957
-1.9103,-1.1778,-1.253,1.2129,3.8392,3.5059,3.0429,2.129,1.5791,1.8886,0.9784,0.6768,3.8142,5.3216,-1.7762,-0.3705,1.1037,3.3235,3.8662,1.3221,3.982,6.3777,5.814,4.2853,2.8852,0.5465,2.1991,0.95,4.2537,0.8594
-1.7194,-1.1123,-1.1108,1.1819,3.708,3.3684,2.8925,2.0101,1.4969,1.793,0.9103,0.575,3.7094,5.2202,-1.5198,-0.2634,1.2119,3.4279,3.8968,1.3858,3.9393,6.3279,5.7738,4.2047,2.8109,0.489,2.0886,0.8639,4.2602,0.8271
-1.5997,-1.1134,-1.028,1.0948,3.538,3.1867,2.7544,1.8938,1.4417,1.7474,0.8982,0.5249,3.6108,5.0821,-1.3374,-0.231,1.2557,3.4633,3.871,1.3688,3.8348,6.2436,5.7031,4.1339,2.7429,0.4712,2.0246,0.8319,4.2705,0.8027
-1.5516,-1.1749,-1.0032,0.9604,3.3421,2.9773,2.6324,1.7828,1.4084,1.7445,0.9348,0.5267,3.522,4.9134,-1.2282,-0.2718,1.2368,3.4314,3.7915,1.2739,3.6738,6.1298,5.6082,4.0743,2.6832,0.492,2.0088,0.8542,4.2927,0.7888
-1.574,-1.2933,-1.0374,0.7837,3.1285,2.7528,2.5247,1.6773,1.387,1.7684,1.0041,0.5707,3.4406,4.7185,-1.1887,-0.3847,1.1564,3.3366,3.6596,1.105,3.4619,5.9894,5.4943,4.0234,2.6329,0.5457,2.0346,0.9218,4.3327,0.7867
-1.6665,-1.4692,-1.1342,0.564,2.8973,2.5184,2.4219,1.5738,1.3642,1.7959,1.0832,0.6387,3.3571,4.4978,-1.2154,-0.5703,1.0129,3.1838,3.4735,0.8644,3.2019,5.8207,5.3641,3.974,2.5915,0.6222,2.0874,1.0179,4.3927,0.7971
-1.829,-1.7079,-1.2987,0.2945,2.64,2.2715,2.3084,1.4661,1.3252,1.7991,1.1463,0.7073,3.2546,4.2462,-1.3065,-0.8322,0.8011,2.9774,3.2276,0.5521,2.8925,5.6174,5.2165,3.9146,2.5573,0.7087,2.1467,1.1211,4.4691,0.8213
-2.0616,-2.0169,-1.5347,-0.0357,2.3409,2.0019,2.1638,1.3457,1.256,1.75,1.1687,0.7527,3.1097,3.9535,-1.4635,-1.176,0.5137,2.7211,2.9142,0.1652,2.5282,5.3697,5.0468,3.8301,2.5272,0.7918,2.1885,1.2087,4.552,0.8622
-2.3631,-2.4031,-1.8426,-0.4377,1.9812,1.6953,1.9663,1.2035,1.1452,1.6241,1.1305,0.7543,2.8964,3.6062,-1.6906,-1.6069,0.1438,2.418,2.5255,-0.2997,2.1011,5.0668,4.848,3.7043,2.4966,0.8593,2.1882,1.2607,4.6268,0.9245
-2.7297,-2.8691,-2.2181,-0.9187,1.5441,1.3371,1.6972,1.0312,0.9865,1.4054,1.0202,0.6987,2.5907,3.1908,-1.9922,-2.1266,-0.3124,2.072,2.0576,-0.8439,1.6042,4.6995,4.6123,3.5219,2.4599,0.9014,2.1246,1.2626,4.6776,1.0129
-3.1534,-3.4106,-2.6513,-1.4782,1.0203,0.9169,1.3443,0.8233,0.7801,1.0887,0.8367,0.5811,2.1756,2.698,-2.3696,-2.7292,-0.8514,1.6887,1.5128,-1.4627,1.035,4.2638,4.3332,3.2717,2.4107,0.9121,1.9823,1.2073,4.6914,1.1306
-3.62,-4.0139,-3.1269,-2.1043,0.4126,0.4332,0.9056,0.5787,0.5333,0.6819,0.5896,0.406,1.6459,2.127,-2.8159,-3.3987,-1.4596,1.278,0.9026,-2.142,0.3999,3.7636,4.0084,2.9491,2.3427,0.8891,1.755,1.0957,4.6616,1.2761
-4.1081,-4.6545,-3.6237,-2.7726,-0.2614,-0.1041,0.3913,0.3013,0.2599,0.2049,0.2977,0.1858,1.0116,1.4887,-3.3128,-4.1071,-2.1116,0.8546,0.2492,-2.8564,-0.2837,3.2121,3.6415,2.5582,2.2516,0.8338,1.4462,0.9357,4.59,1.4415
-4.5896,-5.2978,-4.116,-3.4471,-0.9696,-0.6726,-0.1766,0.0002,-0.0215,-0.3124,-0.0141,-0.0617,0.2986,0.8072,-3.8296,-4.815,-2.7704,0.438,-0.4141,-3.5688,-0.9861,2.6325,3.244,2.1126,2.1355,0.7506,1.0696,0.7406,4.4862,1.6127
-5.0315,-5.9021,-4.5749,-4.084,-1.6683,-1.2402,-0.7662,-0.311,-0.2901,-0.8343,-0.3183,-0.3159,-0.4539,0.1183,-4.3251,-5.4752,-3.3907,0.0506,-1.046,-4.2338,-1.668,2.0567,2.8357,1.6347,1.9972,0.6464,0.6477,0.5273,4.3657,1.7708
-5.4001,-6.4231,-4.972,-4.6371,-2.3087,-1.7695,-1.3398,-0.616,-0.5267,-1.3237,-0.5894,-0.5563,-1.1971,-0.5344,-4.7535,-6.0378,-3.9237,-0.2857,-1.6007,-4.8022,-2.2843,1.5218,2.4427,1.154,1.8434,0.5296,0.2099,0.3135,4.2463,1.8949
-5.6662,-6.821,-5.283,-5.0658,-2.8445,-2.2241,-1.8587,-0.8975,-0.716,-1.7467,-0.8068,-0.7652,-1.8797,-1.106,-5.0723,-6.4581,-4.3252,-0.5527,-2.0353,-5.2295,-2.7916,1.0655,2.0937,0.7035,1.6847,0.4093,-0.2124,0.1155,4.1445,1.9672
-5.8103,-7.0666,-5.4914,-5.341,-3.2395,-2.5752,-2.2888,-1.1396,-0.8498,-2.0766,-0.9576,-0.9291,-2.4548,-1.5569,-5.2512,-6.7039,-4.563,-0.7391,-2.3173,-5.4833,-3.1546,0.7196,1.8156,0.3146,1.5331,0.2939,-0.5891,-0.0541,4.0727,1.976
-5.8265,-7.1465,-5.5923,-5.4506,-3.4736,-2.8055,-2.6048,-1.3299,-0.9268,-2.2968,-1.0371,-1.0399,-2.8868,-1.8597,-5.278,-6.7613,-4.623,-0.8421,-2.4306,-5.5495,-3.3527,0.5046,1.6274,0.0132,1.3998,0.19,-0.8964,-0.1869,4.0372,1.918
-5.7244,-7.0655,-5.5928,-5.4015,-3.5464,-2.9121,-2.7939,-1.4606,-0.9526,-2.4019,-1.0487,-1.095,-3.1559,-2.0036,-5.1615,-6.6376,-4.5127,-0.8677,-2.3793,-5.4353,-3.3837,0.4258,1.5374,-0.1848,1.2932,0.101,-1.1195,-0.2798,4.0365,1.7987
-5.5276,-6.8468,-5.5115,-5.2187,-3.4763,-2.9063,-2.8566,-1.53,-0.9371,-2.3982,-1.0028,-1.0971,-3.2606,-1.9958,-4.93,-6.3609,-4.2607,-0.8306,-2.188,-5.1689,-3.2637,0.4723,1.541,-0.2751,1.2168,0.0273,-1.2543,-0.3343,4.062,1.6303
-5.2705,-6.5287,-5.3755,-4.9416,-3.2976,-2.8109,-2.8061,-1.5416,-0.8921,-2.3023,-0.9143,-1.0534,-3.2172,-1.8601,-4.6274,-5.976,-3.9131,-0.7525,-1.8985,-4.795,-3.0254,0.6185,1.6213,-0.2661,1.1688,-0.0336,-1.3074,-0.3554,4.0988,1.4298
-4.9937,-6.1603,-5.217,-4.6183,-3.0543,-2.6574,-2.6658,-1.5034,-0.8287,-2.1382,-0.8008,-0.9745,-3.0567,-1.6329,-4.3052,-5.5388,-3.5263,-0.66,-1.5631,-4.3683,-2.7132,0.828,1.7517,-0.1764,1.1432,-0.0859,-1.2939,-0.3502,4.1293,1.2153
-4.7385,-5.7946,-5.0685,-4.2984,-2.7936,-2.4804,-2.4651,-1.4272,-0.756,-1.9345,-0.6797,-0.8734,-2.8192,-1.3568,-4.0145,-5.1077,-3.1594,-0.5814,-1.2368,-3.9456,-2.3763,1.06,1.9003,-0.0319,1.1313,-0.1339,-1.2344,-0.3266,4.1377,1.0038
-4.541,-5.4811,-4.9579,-4.0261,-2.5582,-2.313,-2.2357,-1.3262,-0.6807,-1.7207,-0.5674,-0.7642,-2.5482,-1.0752,-3.7982,-4.7357,-2.8644,-0.542,-0.9689,-3.5779,-2.0625,1.2756,2.0351,0.1384,1.1238,-0.1809,-1.1513,-0.2927,4.1144,0.8092
-4.4273,-5.2591,-4.9043,-3.8338,-2.3811,-2.1823,-2.0073,-1.2144,-0.608,-1.5241,-0.4771,-0.6614,-2.2843,-0.8259,-3.6847,-4.4632,-2.6791,-0.5604,-0.7955,-3.3041,-1.8115,1.443,2.1296,0.3068,1.113,-0.2285,-1.0656,-0.2559,4.0584,0.6421
-4.4096,-5.1509,-4.9147,-3.7383,-2.2812,-2.1051,-1.8045,-1.1046,-0.5421,-1.3672,-0.419,-0.5786,-2.0609,-0.6375,-3.6846,-4.3124,-2.6215,-0.6447,-0.7349,-3.1459,-1.65,1.5419,2.1675,0.4504,1.0944,-0.2769,-0.9943,-0.2236,3.9766,0.5097
-4.484,-5.1584,-4.9822,-3.7385,-2.2627,-2.0861,-1.6449,-1.007,-0.4872,-1.2652,-0.399,-0.5277,-1.9007,-0.527,-3.7901,-4.2846,-2.6883,-0.7906,-0.7859,-3.1067,-1.5887,1.5655,2.1449,0.5536,1.067,-0.3249,-0.9488,-0.2028,3.8811,0.4156
-4.6317,-5.2634,-5.0878,-3.8172,-2.3152,-2.1178,-1.5378,-0.9285,-0.4471,-1.2252,-0.4189,-0.5171,-1.8149,-0.4996,-3.9769,-4.3619,-2.8567,-0.9819,-0.9301,-3.172,-1.6225,1.5194,2.0705,0.6085,1.0337,-0.3713,-0.9346,-0.1996,3.7847,0.3601
-4.8215,-5.4314,-5.2038,-3.9449,-2.4181,-2.1822,-1.4852,-0.8719,-0.4253,-1.2457,-0.4759,-0.5508,-1.8037,-0.5502,-4.2092,-4.5113,-3.0902,-1.1943,-1.1368,-3.3139,-1.7328,1.4184,1.962,0.6147,0.9994,-0.4155,-0.9521,-0.2184,3.6966,0.3393
-5.0159,-5.6196,-5.2994,-4.0869,-2.5448,-2.2555,-1.4822,-0.8365,-0.4233,-1.3174,-0.5624,-0.627,-1.8591,-0.6663,-4.446,-4.6923,-3.3464,-1.3998,-1.3705,-3.4968,-1.8931,1.2816,1.8409,0.5767,0.9686,-0.4576,-0.9977,-0.2607,3.6208,0.3461
-5.1776,-5.7853,-5.3479,-4.2099,-2.6689,-2.3137,-1.5197,-0.8181,-0.4404,-1.4251,-0.6673,-0.7377,-1.9674,-0.8312,-4.6484,-4.8646,-3.5852,-1.5723,-1.5978,-3.6849,-2.0743,1.1273,1.7263,0.5017,0.944,-0.4991,-1.0655,-0.3246,3.5555,0.3704
-5.276,-5.894,-5.3316,-4.2885,-2.769,-2.3372,-1.5857,-0.8113,-0.4733,-1.55,-0.7771,-0.8697,-2.1125,-1.0271,-4.7855,-4.9953,-3.7747,-1.6923,-1.7933,-3.8476,-2.2504,0.9695,1.6302,0.397,0.9241,-0.5421,-1.1487,-0.4044,3.4954,0.4012
-5.2915,-5.9252,-5.2453,-4.3087,-2.8316,-2.3152,-1.6673,-0.8101,-0.5161,-1.6729,-0.8773,-1.0058,-2.2776,-1.2368,-4.8386,-5.0631,-3.8961,-1.7495,-1.9426,-3.9638,-2.4019,0.8159,1.5555,0.2693,0.9036,-0.5888,-1.2402,-0.4916,3.434,0.4278
-5.2173,-5.8729,-5.0952,-4.2686,-2.8523,-2.2464,-1.752,-0.81,-0.5611,-1.7761,-0.9548,-1.1272,-2.4462,-1.4445,-4.8023,-5.0597,-3.9429,-1.743,-2.0416,-4.0229,-2.5178,0.6692,1.4973,0.1249,0.8749,-0.6407,-1.3323,-0.5756,3.3664,0.4421
-5.0585,-5.7438,-4.8963,-4.1757,-2.834,-2.1379,-1.8283,-0.8082,-0.6,-1.8451,-0.9986,-1.2155,-2.6016,-1.6356,-4.6821,-4.9878,-3.9193,-1.679,-2.0938,-4.0228,-2.5938,0.5307,1.4475,-0.0287,0.8313,-0.697,-1.4167,-0.645,3.291,0.4393
-4.8276,-5.5524,-4.6665,-4.0427,-2.7839,-2.0029,-1.8861,-0.8045,-0.6258,-1.8701,-1.0021,-1.2556,-2.7272,-1.7958,-4.4908,-4.8562,-3.8347,-1.5674,-2.1054,-3.9666,-2.6295,0.4032,1.4002,-0.1807,0.7703,-0.7539,-1.4836,-0.6887,3.2114,0.4183
-4.5406,-5.3157,-4.4219,-3.8834,-2.7105,-1.8567,-1.9179,-0.8009,-0.6346,-1.846,-0.963,-1.2374,-2.8061,-1.9113,-4.2428,-4.6755,-3.6993,-1.4175,-2.0816,-3.8589,-2.6252,0.2939,1.3558,-0.3166,0.6959,-0.8045,-1.522,-0.6977,3.1365,0.3811
-4.2129,-5.0491,-4.1734,-3.7089,-2.6207,-1.7136,-1.9188,-0.8007,-0.6259,-1.7729,-0.8842,-1.1578,-2.8234,-1.969,-3.9508,-4.4543,-3.5209,-1.2353,-2.023,-3.7032,-2.5798,0.2142,1.3219,-0.4192,0.6188,-0.8395,-1.5214,-0.6658,3.0789,0.3331
-3.8564,-4.764,-3.9251,-3.5256,-2.5183,-1.5839,-1.8871,-0.8073,-0.6029,-1.6557,-0.7733,-1.0212,-2.7675,-1.9578,-3.6236,-4.1971,-3.3026,-1.0225,-1.9259,-3.5008,-2.4897,0.1786,1.3117,-0.4715,0.5545,-0.8496,-1.4734,-0.5914,3.0518,0.2812
-3.4797,-4.4672,-3.6763,-3.3355,-2.4047,-1.4733,-1.8243,-0.8224,-0.5708,-1.5032,-0.6408,-0.839,-2.6333,-1.8707,-3.2668,-3.9057,-3.0445,-0.7779,-1.7835,-3.2525,-2.3505,0.2011,1.3402,-0.4598,0.5191,-0.8273,-1.3745,-0.4779,3.0653,0.233
-3.0894,-4.1633,-3.4236,-3.1383,-2.2799,-1.3821,-1.7346,-0.8459,-0.5354,-1.3272,-0.4995,-0.6284,-2.424,-1.7076,-2.8853,-3.5811,-2.7468,-0.5003,-1.5901,-2.9609,-2.1599,0.2906,1.419,-0.3786,0.5246,-0.7699,-1.2275,-0.3335,3.1227,0.1955
-2.6926,-3.8568,-3.1652,-2.9342,-2.1452,-1.3074,-1.6249,-0.8752,-0.5019,-1.1415,-0.3627,-0.4105,-2.1526,-1.4777,-2.4871,-3.2289,-2.4148,-0.1936,-1.3464,-2.6345,-1.9217,0.4466,1.5516,-0.2329,0.5752,-0.6814,-1.0434,-0.1712,3.2179,0.1747
-2.2997,-3.5552,-2.9034,-2.7272,-2.0056,-1.2453,-1.5041,-0.9071,-0.4748,-0.961,-0.2435,-0.2075,-1.842,-1.2004,-2.0871,-2.8623,-2.0626,0.1297,-1.0634,-2.29,-1.6492,0.6564,1.7297,-0.0398,0.6648,-0.5725,-0.8406,-0.0076,3.3354,0.1749
-1.9258,-3.2709,-2.6464,-2.5267,-1.8714,-1.1934,-1.3834,-0.9386,-0.4585,-0.801,-0.1539,-0.0408,-1.5228,-0.9053,-1.707,-2.5039,-1.7144,0.4476,-0.7639,-1.9532,-1.3661,0.8951,1.9329,0.1737,0.7782,-0.4602,-0.6436,0.139,3.4531,0.1986
-1.5902,-3.0204,-2.4078,-2.348,-1.7574,-1.1527,-1.2752,-0.9686,-0.4575,-0.6758,-0.1038,0.0725,-1.2294,-0.6281,-1.3739,-2.1839,-1.4022,0.7299,-0.4805,-1.656,-1.1039,1.1283,2.1303,0.3748,0.8943,-0.3641,-0.4788,0.251,3.5473,0.2467
-1.3134,-2.8218,-2.2047,-2.2098,-1.6808,-1.1281,-1.1923,-0.9987,-0.4764,-0.597,-0.0997,0.1217,-0.9945,-0.4059,-1.1151,-1.9353,-1.1605,0.9442,-0.2504,-1.432,-0.8974,1.3176,2.2869,0.5307,0.9908,-0.303,-0.3702,0.3136,3.5971,0.3177
-1.1138,-2.6918,-2.0546,-2.131,-1.6583,-1.1282,-1.1465,-1.0332,-0.5193,-0.5718,-0.1436,0.1041,-0.8437,-0.2707,-0.9525,-1.7878,-1.0195,1.0624,-0.1085,-1.31,-0.7781,1.4278,2.3698,0.615,1.0492,-0.2907,-0.3349,0.318,3.5898,0.4084
-1.0041,-2.6417,-1.9718,-2.127,-1.7027,-1.1633,-1.1468,-1.078,-0.589,-0.6019,-0.2323,0.0255,-0.7908,-0.2441,-0.8977,-1.7612,-0.9989,1.0684,-0.0808,-1.3089,-0.768,1.4327,2.3552,0.6119,1.0584,-0.3334,-0.3792,0.2625,3.5232,0.5137
-0.9883,-2.6759,-1.965,-2.2069,-1.8199,-1.2433,-1.1981,-1.139,-0.6853,-0.683,-0.3574,-0.1012,-0.8358,-0.3335,-0.9493,-1.8619,-1.1041,0.9618,-0.1794,-1.434,-0.876,1.3195,2.2326,0.519,1.0159,-0.4276,-0.4974,0.154,3.4059,0.6264
-1.0617,-2.7906,-2.0352,-2.3712,-2.0082,-1.375,-1.3009,-1.221,-0.8055,-0.806,-0.5069,-0.2577,-0.966,-0.5318,-1.0929,-2.0809,-1.325,0.759,-0.4013,-1.6759,-1.0965,1.0902,2.0061,0.3468,0.9276,-0.5616,-0.6725,0.0067,3.2556,0.7383
-1.2108,-2.9752,-2.1751,-2.6114,-2.2582,-1.5596,-1.4506,-1.3262,-0.9437,-0.9582,-0.6666,-0.4237,-1.1587,-0.819,-1.3048,-2.3961,-1.6383,0.4889,-0.7286,-2.0126,-1.4106,0.7602,1.6924,0.1156,0.805,-0.7172,-0.8794,-0.1601,3.0946,0.8414
-1.4153,-3.2135,-2.369,-2.9106,-2.5539,-1.7903,-1.6389,-1.4534,-1.0921,-1.1255,-0.8226,-0.5798,-1.3867,-1.1661,-1.5563,-2.7751,-2.0115,0.1875,-1.1322,-2.4122,-1.79,0.3557,1.3171,-0.1483,0.6626,-0.8743,-1.0898,-0.325,2.9441,0.9285
-1.6502,-3.4849,-2.5946,-3.2447,-2.8746,-2.0527,-1.8536,-1.5975,-1.2414,-1.294,-0.9622,-0.7098,-1.6227,-1.5396,-1.8185,-3.1805,-2.4074,-0.1098,-1.5753,-2.8376,-2.2007,-0.0901,0.9114,-0.4175,0.5142,-1.0141,-1.2768,-0.4684,2.8193,0.9951
-1.8888,-3.766,-2.8257,-3.5856,-3.1973,-2.3251,-2.0804,-1.7502,-1.3827,-1.4513,-1.0753,-0.8025,-1.844,-1.9063,-2.0658,-3.5738,-2.7886,-0.3741,-2.0177,-3.2506,-2.6075,-0.5404,0.5069,-0.6669,0.3712,-1.123,-1.4193,-0.5756,2.7258,1.0392
-2.1054,-4.032,-3.035,-3.9031,-3.499,-2.5826,-2.3035,-1.8996,-1.5071,-1.5868,-1.1544,-0.8522,-2.0344,-2.2366,-2.2785,-3.9203,-3.1213,-0.5861,-2.4205,-3.6163,-2.9779,-0.9592,0.1329,-0.8775,0.2409,-1.1945,-1.5047,-0.6385,2.6588,1.0615
-2.2784,-4.259,-3.1981,-4.1689,-3.7585,-2.8002,-2.5062,-2.0317,-1.6066,-1.6916,-1.1944,-0.8583,-2.1851,-2.5073,-2.4428,-4.1915,-3.3783,-0.7379,-2.7496,-3.9059,-3.2849,-1.3146,-0.1865,-1.037,0.1268,-1.2299,-1.5302,-0.6566,2.605,1.064
-2.3923,-4.4254,-3.2962,-4.3591,-3.9585,-2.9571,-2.6725,-2.1321,-1.6735,-1.7583,-1.1927,-0.8242,-2.2935,-2.7026,-2.5505,-4.3674,-3.5407,-0.8312,-2.9792,-4.0992,-3.5083,-1.5819,-0.434,-1.1408,0.0292,-1.2365,-1.5016,-0.6354,2.547,1.0489
-2.4392,-4.515,-3.3194,-4.4576,-4.087,-3.0399,-2.7885,-2.1881,-1.7014,-1.7815,-1.1491,-0.7564,-2.3612,-2.8145,-2.5982,-4.4378,-3.5996,-0.8748,-3.0943,-4.186,-3.6365,-1.7458,-0.6006,-1.191,-0.0539,-1.2252,-1.4317,-0.5846,2.4682,1.0172
-2.4201,-4.5195,-3.2673,-4.4582,-4.1384,-3.0447,-2.8442,-2.1911,-1.6859,-1.7586,-1.0666,-0.6628,-2.3921,-2.8425,-2.5867,-4.4027,-3.5564,-0.8817,-3.093,-4.1663,-3.6663,-1.8024,-0.6854,-1.1947,-0.1253,-1.2075,-1.3373,-0.5163,2.3576,0.9686
-2.3435,-4.4399,-3.1498,-4.3655,-4.1143,-2.9773,-2.8348,-2.1383,-1.6259,-1.6902,-0.9518,-0.5523,-2.3902,-2.7928,-2.521,-4.2714,-3.4229,-0.8656,-2.9862,-4.0498,-3.6031,-1.7587,-0.6958,-1.1627,-0.188,-1.1931,-1.2365,-0.4421,2.212,0.9022
-2.2246,-4.2876,-2.9851,-4.1953,-4.0236,-2.8525,-2.7621,-2.0342,-1.5251,-1.5814,-0.8147,-0.4335,-2.3587,-2.6769,-2.4096,-4.0619,-3.2188,-0.8384,-2.7956,-3.8542,-3.4597,-1.6314,-0.6454,-1.107,-0.2433,-1.1872,-1.1449,-0.3713,2.038,0.817
-2.0823,-4.0829,-2.7974,-3.972,-3.8816,-2.6919,-2.6341,-1.8898,-1.3923,-1.4413,-0.6679,-0.3143,-2.2995,-2.5098,-2.2644,-3.7973,-2.9693,-0.8088,-2.5498,-3.6023,-3.2549,-1.4433,-0.5516,-1.038,-0.2903,-1.1896,-1.0732,-0.3099,1.8504,0.7139
-1.9366,-3.852,-2.6129,-3.7256,-3.7088,-2.5206,-2.465,-1.7216,-1.2406,-1.2823,-0.5258,-0.2019,-2.2141,-2.3085,-2.1,-3.5037,-2.7015,-0.7817,-2.2804,-3.3197,-3.0107,-1.2203,-0.4329,-0.9638,-0.3255,-1.1955,-1.0254,-0.2605,1.6703,0.5959
-1.8061,-3.6229,-2.4559,-3.4863,-3.5274,-2.3635,-2.2729,-1.5494,-1.0865,-1.1195,-0.4024,-0.1031,-2.1043,-2.0904,-1.9323,-3.2065,-2.441,-0.7587,-2.0173,-3.031,-2.7505,-0.9882,-0.3062,-0.8891,-0.3439,-1.1967,-0.9994,-0.2228,1.5216,0.4693
-1.7054,-3.4208,-2.3446,-3.2805,-3.3589,-2.2411,-2.0784,-1.393,-0.948,-0.9685,-0.3103,-0.0242,-1.974,-1.8715,-1.7771,-2.9275,-2.2087,-0.7386,-1.7859,-2.7577,-2.496,-0.7696,-0.1854,-0.8157,-0.3398,-1.1843,-0.9882,-0.1949,1.4267,0.3429
-1.6436,-3.2636,-2.2885,-3.1261,-3.2212,-2.1674,-1.9017,-1.2701,-0.8419,-0.8435,-0.2588,0.0294,-1.829,-1.6656,-1.648,-2.683,-2.0192,-0.7183,-1.6044,-2.5155,-2.2648,-0.5826,-0.0805,-0.7435,-0.3089,-1.15,-0.982,-0.174,1.4022,0.2267
-1.6236,-3.1601,-2.2868,-3.0305,-3.126,-2.1477,-1.7603,-1.1936,-0.7815,-0.7558,-0.2525,0.0546,-1.6769,-1.4832,-1.555,-2.4825,-1.8802,-0.6946,-1.4829,-2.3139,-2.0688,-0.4394,0.0025,-0.671,-0.2488,-1.0879,-0.9701,-0.1565,1.455,0.1305
-1.6427,-3.1092,-2.3289,-2.9908,-3.0782,-2.1793,-1.6665,-1.1701,-0.774,-0.7119,-0.2903,0.0518,-1.5263,-1.331,-1.504,-2.3294,-1.7924,-0.6659,-1.4233,-2.1563,-1.9141,-0.3461,0.0606,-0.5968,-0.1602,-0.9951,-0.943,-0.1383,1.5795,0.0622
-1.6941,-3.1016,-2.3981,-2.9954,-3.0763,-2.2528,-1.6263,-1.1988,-0.8191,-0.7128,-0.3659,0.0255,-1.3855,-1.2119,-1.4966,-2.222,-1.7514,-0.6334,-1.4196,-2.0412,-1.801,-0.3026,0.0931,-0.5198,-0.0464,-0.8717,-0.8939,-0.1154,1.7584,0.0262
-1.7686,-3.1235,-2.4752,-3.0281,-3.1133,-2.3548,-1.6387,-1.273,-0.9085,-0.7539,-0.4682,-0.0162,-1.2621,-1.1257,-1.53,-2.1555,-1.749,-0.6009,-1.4601,-1.9635,-1.7254,-0.3034,0.1018,-0.4405,0.0864,-0.7214,-0.819,-0.0838,1.9654,0.0233
-1.8557,-3.1594,-2.5435,-3.0718,-3.1782,-2.4705,-1.6959,-1.3803,-1.0273,-0.8255,-0.5832,-0.0626,-1.162,-1.0697,-1.5975,-2.1228,-1.7746,-0.5738,-1.5288,-1.9171,-1.6811,-0.3389,0.0909,-0.3607,0.2303,-0.5515,-0.7192,-0.0406,2.1702,0.0499
-1.9448,-3.1959,-2.5925,-3.1125,-3.2578,-2.5859,-1.7851,-1.5057,-1.1565,-0.9144,-0.6959,-0.102,-1.0894,-1.0395,-1.6886,-2.1162,-1.8168,-0.5575,-1.6079,-1.8951,-1.6604,-0.3966,0.0675,-0.284,0.3759,-0.3727,-0.5993,0.0155,2.3435,0.099
-2.0251,-3.2228,-2.619,-3.1405,-3.3378,-2.6889,-1.8898,-1.6332,-1.275,-1.0054,-0.7916,-0.1237,-1.0463,-1.0294,-1.7904,-2.1276,-1.8639,-0.5554,-1.6797,-1.8911,-1.6558,-0.4621,0.0424,-0.2154,0.5131,-0.198,-0.4681,0.084,2.4606,0.161
-2.087,-3.233,-2.6267,-3.1509,-3.404,-2.7702,-1.9926,-1.7485,-1.3634,-1.0829,-0.8576,-0.1186,-1.0325,-1.0327,-1.8887,-2.1488,-1.9052,-0.5683,-1.7273,-1.8983,-1.6598,-0.5203,0.0309,-0.1598,0.6327,-0.0405,-0.3365,0.1631,2.5032,0.2242
-2.1219,-3.2222,-2.6237,-3.1427,-3.4442,-2.823,-2.0775,-1.8404,-1.406,-1.1332,-0.8845,-0.0807,-1.0455,-1.0421,-1.9704,-2.1715,-1.9311,-0.5948,-1.7358,-1.9101,-1.6651,-0.5562,0.0513,-0.1206,0.7273,0.0887,-0.2153,0.2497,2.4601,0.2766
-2.1242,-3.188,-2.6199,-3.1172,-3.4493,-2.8434,-2.1325,-1.9025,-1.3932,-1.1466,-0.8675,-0.0073,-1.0805,-1.0506,-2.0255,-2.1881,-1.9346,-0.6319,-1.6945,-1.9198,-1.6656,-0.5572,0.1217,-0.0994,0.7926,0.1824,-0.1132,0.3408,2.327,0.3072
-2.092,-3.1299,-2.6237,-3.0771,-3.4152,-2.8307,-2.1513,-1.9331,-1.3227,-1.1187,-0.8065,0.1004,-1.1314,-1.0528,-2.0494,-2.1932,-1.9122,-0.6762,-1.5982,-1.922,-1.6568,-0.5159,0.2551,-0.0951,0.8284,0.2387,-0.0348,0.4336,2.1075,0.309
-2.0284,-3.0502,-2.6403,-3.0259,-3.3442,-2.7887,-2.1344,-1.9356,-1.2004,-1.0522,-0.7073,0.2372,-1.1918,-1.0452,-2.0436,-2.1843,-1.8651,-0.7248,-1.4502,-1.9138,-1.6367,-0.4321,0.454,-0.1044,0.8387,0.2618,0.0202,0.5263,1.8143,0.2808
-1.9418,-2.9545,-2.6706,-2.9682,-3.2451,-2.7256,-2.0895,-1.9181,-1.0401,-0.9562,-0.5809,0.3945,-1.2559,-1.028,-2.0151,-2.163,-1.7988,-0.7749,-1.2624,-1.8955,-1.6064,-0.3141,0.7074,-0.1226,0.8314,0.2613,0.0573,0.6183,1.4693,0.2277
-1.8441,-2.8519,-2.712,-2.9093,-3.1318,-2.6536,-2.0292,-1.8914,-0.8613,-0.845,-0.4424,0.5613,-1.319,-1.0039,-1.9746,-2.1339,-1.7226,-0.8245,-1.0542,-1.8706,-1.5697,-0.1774,0.992,-0.1442,0.8168,0.2499,0.0849,0.7095,1.1021,0.1603
