FP1,F3,F7,FC3,C3,C5,P3,P7,PO7,PO3,O1,Oz,Pz,CPz,FP2,Fz,F4,F8,FC4,FCz,Cz,C4,C6,P4,P8,PO8,PO4,O2,HEOG_left,HEOG_right
0.7681,1.4139,1.5862,1.4927,1.4258,0.9952,1.0647,0.0987,0.4012,1.1459,0.6648,0.8751,2.1475,2.6153,0.0566,1.1297,1.3244,0.9763,1.1551,1.5141,1.9195,1.2806,0.6173,1.399,0.6667,0.7899,1.2658,0.5187,0.4751,0.1781
0.8308,1.1406,1.3156,1.326,1.2391,0.8924,0.9926,0.1711,0.4682,1.1581,0.6483,0.883,1.8808,2.217,0.1982,0.9638,1.1176,0.8795,1.0553,1.3178,1.6042,1.1767,0.6762,1.2829,0.6529,0.6623,1.2324,0.423,0.5244,0.2829
0.8595,0.8713,1.0456,1.1591,1.0535,0.7872,0.9199,0.2405,0.5349,1.1679,0.6326,0.8912,1.624,1.8456,0.2843,0.7935,0.909,0.7857,0.951,1.1209,1.3004,1.0767,0.7216,1.1727,0.6387,0.5463,1.1955,0.3348,0.5378,0.3601
0.8319,0.6173,0.7842,0.9961,0.8735,0.6826,0.8475,0.3037,0.5971,1.1722,0.6181,0.8993,1.3888,1.5232,0.2859,0.6206,0.7039,0.6957,0.842,0.9282,1.022,0.9861,0.7454,1.074,0.6225,0.4501,1.153,0.2594,0.4956,0.3906
0.7315,0.3892,0.5392,0.8391,0.7033,0.5807,0.7754,0.3581,0.6487,1.168,0.6038,0.9061,1.1844,1.2648,0.2001,0.447,0.5071,0.6099,0.7276,0.7434,0.7785,0.9078,0.744,0.9885,0.6014,0.3763,1.1024,0.1981,0.3905,0.365
0.5515,0.1953,0.3179,0.6884,0.5464,0.4821,0.703,0.4013,0.6817,1.1523,0.5872,0.9092,1.017,1.0751,0.0506,0.2746,0.323,0.5288,0.6068,0.5693,0.5747,0.8411,0.7182,0.9145,0.572,0.3221,1.0418,0.1486,0.2285,0.2849
0.2988,0.0402,0.1267,0.5429,0.4052,0.3864,0.6292,0.4303,0.6868,1.1223,0.5647,0.9056,0.8889,0.9494,-0.12,0.1064,0.1561,0.4528,0.4793,0.4081,0.4109,0.7829,0.6726,0.847,0.5313,0.2811,0.9703,0.1067,0.0276,0.1618
-0.0046,-0.0755,-0.0295,0.402,0.2816,0.2931,0.5528,0.4418,0.6551,1.0756,0.5326,0.8927,0.7995,0.8755,-0.263,-0.0529,0.0121,0.3824,0.3461,0.2622,0.2847,0.7289,0.6139,0.7808,0.4787,0.2459,0.8891,0.0688,-0.1859,0.0139
-0.3241,-0.1546,-0.1462,0.2673,0.1768,0.2032,0.4739,0.4323,0.5815,1.0117,0.488,0.8694,0.7453,0.8366,-0.3378,-0.1964,-0.1025,0.3181,0.2106,0.1349,0.1922,0.6753,0.5492,0.7116,0.4164,0.2112,0.8016,0.0337,-0.3825,-0.1375
-0.6176,-0.2021,-0.2205,0.1431,0.0924,0.12,0.3939,0.3996,0.4668,0.932,0.4301,0.8367,0.721,0.8156,-0.3246,-0.3157,-0.1809,0.2599,0.079,0.0303,0.1293,0.6201,0.4854,0.6386,0.3497,0.1756,0.7142,0.0035,-0.5349,-0.2725
-0.8446,-0.2234,-0.2511,0.0361,0.0296,0.049,0.3159,0.3438,0.3196,0.8402,0.361,0.7974,0.7204,0.7978,-0.2299,-0.4025,-0.2188,0.2065,-0.0414,-0.0478,0.0922,0.5632,0.4278,0.5642,0.2865,0.1422,0.6347,-0.0168,-0.6229,-0.3763
-0.9752,-0.2249,-0.2405,-0.0469,-0.0111,-0.0038,0.2442,0.268,0.1555,0.7424,0.2849,0.7562,0.7363,0.7727,-0.0861,-0.4513,-0.2163,0.1552,-0.1433,-0.0976,0.0764,0.5054,0.3792,0.4937,0.2358,0.1181,0.5716,-0.0213,-0.6377,-0.4408
-0.9972,-0.2141,-0.1967,-0.1021,-0.0315,-0.0342,0.1828,0.1786,-0.0053,0.6456,0.2081,0.7177,0.7604,0.7349,0.0575,-0.4622,-0.1806,0.1021,-0.2224,-0.1214,0.0759,0.4469,0.3397,0.4332,0.2055,0.1115,0.5321,-0.0045,-0.5835,-0.4662
-0.9194,-0.2005,-0.1333,-0.1306,-0.036,-0.0427,0.1345,0.0844,-0.1421,0.5567,0.1372,0.6854,0.7839,0.6834,0.1487,-0.4417,-0.1262,0.043,-0.2787,-0.1264,0.0828,0.3861,0.3062,0.3871,0.2011,0.1298,0.5199,0.0362,-0.4771,-0.4594
-0.7686,-0.1951,-0.0679,-0.1388,-0.0311,-0.0353,0.1001,-0.0045,-0.2378,0.4821,0.0787,0.6607,0.7975,0.6212,0.147,-0.4022,-0.073,-0.0251,-0.3171,-0.1236,0.0876,0.3196,0.2733,0.3569,0.2241,0.1765,0.5349,0.0998,-0.3446,-0.432
-0.5825,-0.2078,-0.0182,-0.1363,-0.0243,-0.0219,0.0789,-0.0778,-0.2814,0.4268,0.0383,0.643,0.7933,0.5539,0.0363,-0.3589,-0.042,-0.1031,-0.3458,-0.1251,0.0816,0.2432,0.2355,0.3407,0.2717,0.2504,0.5728,0.1825,-0.2154,-0.3963
-0.399,-0.2445,0.0025,-0.1329,-0.0217,-0.0139,0.0698,-0.1268,-0.2696,0.3948,0.0209,0.6305,0.7662,0.4878,-0.17,-0.3248,-0.05,-0.1888,-0.3735,-0.1401,0.0593,0.1539,0.1883,0.334,0.3366,0.3449,0.6261,0.2779,-0.1151,-0.3621
-0.2478,-0.3032,-0.0106,-0.1349,-0.0259,-0.0193,0.0722,-0.1447,-0.2061,0.3888,0.0304,0.621,0.7158,0.4291,-0.4307,-0.3071,-0.1041,-0.2763,-0.4062,-0.1716,0.0208,0.0515,0.1301,0.3308,0.4082,0.45,0.686,0.3794,-0.0588,-0.3337
-0.1448,-0.3722,-0.0522,-0.1424,-0.0349,-0.0399,0.0876,-0.1277,-0.1001,0.4108,0.0691,0.6134,0.6468,0.3822,-0.6866,-0.3037,-0.1979,-0.357,-0.4441,-0.214,-0.0273,-0.0593,0.0629,0.3262,0.4742,0.5539,0.7437,0.4807,-0.0461,-0.3091
-0.0919,-0.4311,-0.1067,-0.1489,-0.0422,-0.0697,0.1191,-0.0752,0.0364,0.4612,0.1377,0.6083,0.569,0.3502,-0.8744,-0.3031,-0.3116,-0.4193,-0.4804,-0.2533,-0.0724,-0.1693,-0.0074,0.3172,0.5227,0.6452,0.792,0.5768,-0.0616,-0.2808
-0.0793,-0.4547,-0.1516,-0.1424,-0.0383,-0.0961,0.1705,0.0101,0.1897,0.5378,0.234,0.6074,0.4944,0.3335,-0.9423,-0.2875,-0.4153,-0.4508,-0.5022,-0.2706,-0.0989,-0.2652,-0.0719,0.3034,0.5438,0.7146,0.8259,0.6637,-0.0787,-0.2383
-0.0892,-0.42,-0.163,-0.1094,-0.0136,-0.1038,0.2438,0.122,0.3467,0.6354,0.3529,0.6126,0.4346,0.3305,-0.8629,-0.2382,-0.4765,-0.4397,-0.4934,-0.247,-0.092,-0.3325,-0.12,0.2864,0.5309,0.7552,0.8422,0.7376,-0.0676,-0.1706
-0.0992,-0.3132,-0.1208,-0.0395,0.0387,-0.0788,0.3377,0.2512,0.4953,0.744,0.4855,0.6245,0.3968,0.3371,-0.6395,-0.1419,-0.4685,-0.3776,-0.4391,-0.169,-0.0427,-0.3594,-0.1429,0.2682,0.4806,0.7624,0.8386,0.7941,-0.0042,-0.0704
-0.086,-0.1347,-0.0148,0.0708,0.1198,-0.0132,0.4452,0.3854,0.6244,0.8495,0.6197,0.6405,0.3813,0.3465,-0.3046,0.0048,-0.3775,-0.2621,-0.331,-0.0336,0.05,-0.3398,-0.1359,0.2488,0.3924,0.7323,0.8118,0.8271,0.1226,0.0639
-0.0302,0.1001,0.1521,0.2159,0.2246,0.0921,0.5539,0.5104,0.7245,0.9341,0.7402,0.6542,0.3811,0.3497,0.0894,0.1928,-0.2069,-0.0999,-0.1707,0.15,0.1769,-0.2758,-0.1009,0.2249,0.2678,0.6614,0.7569,0.8287,0.3078,0.2261
0.0788,0.3641,0.3633,0.3811,0.3421,0.2273,0.6469,0.611,0.787,0.9792,0.8306,0.6553,0.3821,0.3372,0.483,0.4027,0.0234,0.0929,0.0291,0.3608,0.3204,-0.1782,-0.0465,0.1894,0.1096,0.5457,0.666,0.7903,0.5312,0.4018
0.2389,0.6254,0.5909,0.5458,0.4572,0.3751,0.7061,0.6737,0.8051,0.9678,0.8757,0.6315,0.367,0.3011,0.8228,0.6088,0.2809,0.2923,0.2458,0.5703,0.4582,-0.0643,0.0138,0.1334,-0.0781,0.3824,0.5306,0.7044,0.7621,0.5701
0.4362,0.8538,0.8017,0.6872,0.5539,0.5144,0.7165,0.6892,0.7746,0.8885,0.8636,0.5711,0.3193,0.2371,1.0708,0.785,0.5286,0.4714,0.452,0.7487,0.5682,0.0466,0.0655,0.049,-0.2887,0.1714,0.3439,0.5672,0.967,0.7079
0.648,1.027,0.9639,0.7859,0.619,0.6255,0.67,0.6553,0.6956,0.7384,0.7894,0.466,0.2281,0.1465,1.2096,0.9107,0.7328,0.6063,0.6216,0.8712,0.6339,0.1374,0.097,-0.0668,-0.5124,-0.0816,0.1049,0.381,1.1165,0.7941
0.8497,1.1332,1.055,0.8299,0.6449,0.6943,0.5682,0.5778,0.5728,0.5248,0.6559,0.315,0.0918,0.037,1.2423,0.9749,0.8701,0.6817,0.7355,0.9232,0.6475,0.1984,0.1038,-0.2091,-0.7354,-0.3639,-0.1783,0.1558,1.1921,0.8154
1.0206,1.1718,1.0668,0.8161,0.6309,0.7151,0.423,0.4705,0.4165,0.2644,0.4744,0.1244,-0.0806,-0.0792,1.1902,0.9772,0.9318,0.6947,0.7854,0.903,0.6116,0.2282,0.0893,-0.3646,-0.94,-0.6547,-0.4876,-0.0918,1.1893,0.7697
1.148,1.1509,1.0072,0.7505,0.5827,0.6909,0.2534,0.3521,0.2403,-0.0199,0.2623,-0.0926,-0.2716,-0.1878,1.086,0.927,0.9239,0.6541,0.7748,0.821,0.5373,0.2341,0.0643,-0.5134,-1.1068,-0.9281,-0.7964,-0.3401,1.1174,0.6678
1.2284,1.0836,0.8972,0.6456,0.5107,0.6312,0.0814,0.2422,0.0595,-0.3032,0.0401,-0.3184,-0.4588,-0.2764,0.9657,0.8401,0.8639,0.5783,0.7171,0.6964,0.441,0.2283,0.0431,-0.6336,-1.2173,-1.1559,-1.0746,-0.5662,0.9966,0.5311
1.265,0.984,0.7644,0.5161,0.4262,0.5495,-0.0738,0.1558,-0.112,-0.564,-0.1724,-0.5344,-0.621,-0.337,0.8595,0.7339,0.7757,0.4899,0.6314,0.5524,0.3396,0.2237,0.0396,-0.7067,-1.2578,-1.313,-1.2945,-0.75,0.8528,0.3876
1.2644,0.8631,0.6355,0.3763,0.3395,0.4591,-0.1998,0.1001,-0.2637,-0.7875,-0.3601,-0.725,-0.7429,-0.3688,0.7856,0.6243,0.6825,0.4106,0.5373,0.41,0.2469,0.229,0.0622,-0.722,-1.222,-1.3817,-1.4367,-0.877,0.7113,0.2646
1.2317,0.7275,0.5288,0.2369,0.2564,0.3702,-0.2932,0.0721,-0.39,-0.9675,-0.5146,-0.8796,-0.8185,-0.3772,0.7475,0.5218,0.6009,0.3561,0.45,0.2846,0.1703,0.2458,0.1106,-0.68,-1.1128,-1.3547,-1.4932,-0.9407,0.5906,0.1825
1.1672,0.5796,0.449,0.1046,0.1781,0.288,-0.3597,0.0593,-0.49,-1.1061,-0.6341,-0.9939,-0.8525,-0.3736,0.7344,0.4308,0.5368,0.3323,0.3765,0.1825,0.1099,0.2673,0.1754,-0.5922,-0.9422,-1.2366,-1.4688,-0.9418,0.498,0.1497
1.0657,0.4186,0.387,-0.0188,0.1001,0.2116,-0.4109,0.0433,-0.5666,-1.2109,-0.7227,-1.0695,-0.8582,-0.3733,0.7251,0.3489,0.4843,0.3328,0.3147,0.1008,0.059,0.2799,0.2387,-0.4789,-0.729,-1.0429,-1.3792,-0.8875,0.4279,0.1597
0.9186,0.2429,0.3224,-0.136,0.0145,0.1339,-0.4611,0.0049,-0.6248,-1.2921,-0.7875,-1.1124,-0.8546,-0.3929,0.6924,0.2688,0.4277,0.3394,0.2546,0.0284,0.005,0.2659,0.2782,-0.3652,-0.4968,-0.797,-1.2469,-0.7893,0.3641,0.1938
0.7176,0.0516,0.2304,-0.2526,-0.0886,0.044,-0.5225,-0.0711,-0.6697,-1.3589,-0.8355,-1.1312,-0.8614,-0.4476,0.6092,0.1801,0.3469,0.3251,0.1818,-0.0504,-0.0666,0.2077,0.2717,-0.2754,-0.2696,-0.527,-1.0969,-0.6606,0.2845,0.2255
0.4601,-0.154,0.0885,-0.3755,-0.2174,-0.0694,-0.6027,-0.1909,-0.7049,-1.4171,-0.8721,-1.1352,-0.8946,-0.5489,0.4549,0.0724,0.2235,0.2612,0.0825,-0.1511,-0.1693,0.0929,0.2024,-0.2292,-0.0691,-0.2616,-0.9521,-0.5157,0.1677,0.2278
0.1525,-0.3692,-0.1158,-0.5106,-0.3759,-0.2149,-0.7023,-0.3509,-0.7322,-1.4682,-0.8994,-1.1335,-0.9628,-0.7021,0.2211,-0.0609,0.0472,0.1259,-0.0515,-0.2851,-0.3119,-0.0829,0.0625,-0.2379,0.089,-0.0266,-0.83,-0.3683,-0.0004,0.1808
-0.1885,-0.5859,-0.3817,-0.6604,-0.5621,-0.3947,-0.8161,-0.5373,-0.7518,-1.5106,-0.9175,-1.1342,-1.0668,-0.9051,-0.0846,-0.2214,-0.18,-0.0883,-0.2197,-0.4557,-0.496,-0.3139,-0.1439,-0.3034,0.1961,0.1575,-0.7416,-0.2318,-0.2226,0.0765
-0.5384,-0.7944,-0.6943,-0.8239,-0.7681,-0.6041,-0.9348,-0.7296,-0.7633,-1.541,-0.9257,-1.144,-1.1995,-1.1491,-0.4387,-0.4045,-0.4442,-0.371,-0.4125,-0.658,-0.7152,-0.5845,-0.4016,-0.419,0.2508,0.2769,-0.6918,-0.1193,-0.4893,-0.079
-0.8694,-0.9857,-1.029,-0.9961,-0.9814,-0.8324,-1.0481,-0.9047,-0.7667,-1.5575,-0.9245,-1.1685,-1.3493,-1.4201,-0.8067,-0.6015,-0.7221,-0.6947,-0.6132,-0.8799,-0.9568,-0.8726,-0.687,-0.5722,0.258,0.3249,-0.6808,-0.0434,-0.781,-0.268
-1.155,-1.1545,-1.3577,-1.1704,-1.1884,-1.0654,-1.1481,-1.0418,-0.7635,-1.5616,-0.9176,-1.2117,-1.5033,-1.702,-1.1513,-0.8023,-0.9875,-1.0204,-0.8033,-1.1067,-1.2045,-1.1535,-0.9726,-0.7474,0.2258,0.3018,-0.7065,-0.0146,-1.0725,-0.4655
-1.3744,-1.2999,-1.6545,-1.3395,-1.3768,-1.2886,-1.2311,-1.1268,-0.7579,-1.5583,-0.9118,-1.2757,-1.6502,-1.9794,-1.4413,-0.9975,-1.2174,-1.306,-0.9668,-1.3243,-1.4421,-1.4048,-1.2322,-0.9299,0.1635,0.2136,-0.7658,-0.0404,-1.3377,-0.6453
-1.5158,-1.4256,-1.8997,-1.4969,-1.5381,-1.4892,-1.2983,-1.1552,-0.7557,-1.5559,-0.9164,-1.3608,-1.7824,-2.2399,-1.6573,-1.1799,-1.3971,-1.5157,-1.094,-1.5229,-1.6566,-1.6105,-1.4451,-1.1078,0.0788,0.0714,-0.8554,-0.1236,-1.5543,-0.7854
-1.5783,-1.5374,-2.0814,-1.6374,-1.6684,-1.6579,-1.3545,-1.1327,-0.7642,-1.5635,-0.9407,-1.4657,-1.8964,-2.4756,-1.7937,-1.3444,-1.5228,-1.6285,-1.1831,-1.6976,-1.84,-1.7623,-1.5984,-1.2742,-0.0229,-0.1115,-0.9728,-0.2613,-1.7069,-0.8728
-1.5724,-1.6403,-2.1953,-1.7573,-1.7683,-1.789,-1.4064,-1.0735,-0.7897,-1.5887,-0.9918,-1.5873,-1.9929,-2.6835,-1.8554,-1.4875,-1.6013,-1.6425,-1.2389,-1.8487,-1.9903,-1.8611,-1.6881,-1.4267,-0.1394,-0.3205,-1.1155,-0.4457,-1.7891,-0.9047
-1.5184,-1.7367,-2.2437,-1.8545,-1.842,-1.8806,-1.4602,-0.9968,-0.8357,-1.635,-1.0721,-1.7214,-2.0755,-2.8646,-1.8525,-1.6059,-1.6473,-1.5756,-1.2707,-1.9796,-2.1106,-1.915,-1.7191,-1.568,-0.2707,-0.5423,-1.2813,-0.6652,-1.8038,-0.8873
-1.4416,-1.8244,-2.2336,-1.928,-1.895,-1.9334,-1.5194,-0.9212,-0.9013,-1.7013,-1.1779,-1.8625,-2.149,-3.0224,-1.7947,-1.6964,-1.6793,-1.4604,-1.2891,-2.0952,-2.2075,-1.937,-1.7031,-1.7029,-0.4172,-0.7656,-1.4676,-0.9058,-1.7617,-0.833
-1.3663,-1.8973,-2.1752,-1.9774,-1.932,-1.9502,-1.5837,-0.8603,-0.9801,-1.7809,-1.2992,-2.0034,-2.2181,-3.1608,-1.6886,-1.7558,-1.7136,-1.336,-1.3027,-2.1988,-2.288,-1.9416,-1.6563,-1.8366,-0.5772,-0.981,-1.6701,-1.1522,-1.6782,-0.756
-1.31,-1.9461,-2.0794,-2.0021,-1.9552,-1.9346,-1.6481,-0.8195,-1.0609,-1.8633,-1.4216,-2.1357,-2.2845,-3.2814,-1.5375,-1.7805,-1.7602,-1.2394,-1.3154,-2.2911,-2.3572,-1.9413,-1.5962,-1.9716,-0.745,-1.1804,-1.882,-1.3889,-1.5705,-0.6683
-1.2806,-1.9611,-1.9573,-2.001,-1.9632,-1.8902,-1.7046,-0.795,-1.1294,-1.9364,-1.5287,-2.2501,-2.347,-3.382,-1.3455,-1.7683,-1.8196,-1.1973,-1.3265,-2.3691,-2.4163,-1.9441,-1.5379,-2.106,-0.9101,-1.3563,-2.0936,-1.6005,-1.4547,-0.5781
-1.2771,-1.9364,-1.8195,-1.9738,-1.9529,-1.8216,-1.7446,-0.7767,-1.1722,-1.9901,-1.6065,-2.3381,-2.4008,-3.4572,-1.1224,-1.72,-1.8843,-1.221,-1.3316,-2.4283,-2.4632,-1.9533,-1.4922,-2.2334,-1.0582,-1.5012,-2.2927,-1.773,-1.345,-0.4905
-1.2937,-1.8735,-1.6776,-1.9224,-1.9216,-1.7347,-1.7627,-0.7528,-1.1806,-2.0188,-1.647,-2.3935,-2.44,-3.5002,-0.888,-1.6414,-1.9424,-1.3051,-1.3267,-2.4648,-2.4945,-1.9684,-1.4646,-2.3446,-1.1735,-1.608,-2.4667,-1.8956,-1.2531,-0.4097
-1.3239,-1.7832,-1.545,-1.8528,-1.8706,-1.6382,-1.7589,-0.7155,-1.154,-2.0239,-1.65,-2.4141,-2.4597,-3.5057,-0.6725,-1.5445,-1.9828,-1.4297,-1.311,-2.4783,-2.5082,-1.9872,-1.4562,-2.4301,-1.2421,-1.6702,-2.6046,-1.9616,-1.19,-0.3417
-1.3634,-1.6855,-1.4369,-1.7756,-1.8067,-1.5438,-1.7399,-0.6646,-1.1008,-2.0134,-1.6243,-2.4023,-2.458,-3.4732,-0.5131,-1.4472,-2.0007,-1.5671,-1.2896,-2.4737,-2.5058,-2.0084,-1.4648,-2.4829,-1.2547,-1.6835,-2.6991,-1.9695,-1.1659,-0.2952
-1.4112,-1.6055,-1.3696,-1.7052,-1.7424,-1.4654,-1.7186,-0.6092,-1.0371,-2.0009,-1.5849,-2.365,-2.4378,-3.4082,-0.4454,-1.3706,-1.9995,-1.6889,-1.2727,-2.4611,-2.4937,-2.0317,-1.4863,-2.5008,-1.2086,-1.6465,-2.7476,-1.9236,-1.1901,-0.2801
-1.4682,-1.5678,-1.3576,-1.6575,-1.694,-1.4173,-1.7111,-0.5654,-0.9831,-2.0018,-1.55,-2.3128,-2.4063,-3.3225,-0.4939,-1.3344,-1.9899,-1.7736,-1.2735,-2.454,-2.4817,-2.0585,-1.5155,-2.4865,-1.1085,-1.5611,-2.7524,-1.8332,-1.2695,-0.3047
-1.5363,-1.5901,-1.4103,-1.6462,-1.678,-1.4121,-1.7322,-0.5521,-0.9582,-2.0296,-1.5362,-2.2583,-2.3736,-3.2322,-0.6643,-1.3529,-1.9862,-1.8105,-1.3038,-2.4655,-2.4807,-2.0896,-1.5462,-2.4469,-0.9652,-1.4329,-2.7195,-1.7107,-1.4063,-0.3715
-1.6179,-1.6794,-1.5294,-1.6799,-1.7064,-1.4583,-1.7917,-0.5853,-0.9759,-2.092,-1.555,-2.2141,-2.3504,-3.1548,-0.9394,-1.4312,-2.0017,-1.8017,-1.3699,-2.5051,-2.5004,-2.1245,-1.5724,-2.3913,-0.7933,-1.2706,-2.6568,-1.5703,-1.5959,-0.4744
-1.7157,-1.8303,-1.7073,-1.7609,-1.7848,-1.558,-1.8912,-0.6736,-1.0405,-2.1885,-1.6101,-2.1907,-2.3458,-3.106,-1.2827,-1.5645,-2.0455,-1.7597,-1.4707,-2.5761,-2.5467,-2.1609,-1.5889,-2.3291,-0.6085,-1.0846,-2.5718,-1.4249,-1.8259,-0.5986
-1.8321,-2.029,-1.9283,-1.8864,-1.9113,-1.7077,-2.024,-0.8149,-1.146,-2.3101,-1.6966,-2.1951,-2.3662,-3.0971,-1.6475,-1.7404,-2.1212,-1.7044,-1.5984,-2.6764,-2.6217,-2.196,-1.5936,-2.2687,-0.4258,-0.8862,-2.4716,-1.2849,-2.0766,-0.7233
-1.9688,-2.2585,-2.1724,-2.051,-2.0788,-1.899,-2.1762,-0.9969,-1.2771,-2.441,-1.8023,-2.2292,-2.4151,-3.1336,-1.9891,-1.9438,-2.2289,-1.6594,-1.7425,-2.8,-2.7244,-2.2282,-1.5892,-2.217,-0.2576,-0.686,-2.362,-1.1567,-2.3238,-0.8281
-2.1269,-2.5045,-2.42,-2.2502,-2.2775,-2.1212,-2.3301,-1.1989,-1.4127,-2.5609,-1.9101,-2.2901,-2.4929,-3.2159,-2.2765,-2.1617,-2.3682,-1.649,-1.8938,-2.941,-2.8528,-2.2595,-1.5839,-2.1793,-0.1137,-0.4932,-2.2483,-1.0425,-2.5439,-0.9
-2.3082,-2.7591,-2.6563,-2.4819,-2.4978,-2.3633,-2.4667,-1.3945,-1.5288,-2.648,-2.0004,-2.3695,-2.5971,-3.3392,-2.5005,-2.3879,-2.5406,-1.6954,-2.0483,-3.0967,-3.0055,-2.2959,-1.5909,-2.1588,-0.0011,-0.3141,-2.1346,-0.9406,-2.7183,-0.9393
-2.5174,-3.0211,-2.8739,-2.7462,-2.7311,-2.6147,-2.5676,-1.5553,-1.6013,-2.6807,-2.0532,-2.4536,-2.7211,-3.494,-2.6747,-2.6235,-2.7508,-1.8173,-2.209,-3.2684,-3.1818,-2.3461,-1.6263,-2.1557,0.0769,-0.1508,-2.0232,-0.8455,-2.839,-0.9622
-2.7646,-3.2925,-3.0727,-3.0426,-2.969,-2.8646,-2.6149,-1.6531,-1.6073,-2.6388,-2.0489,-2.524,-2.8524,-3.6667,-2.8304,-2.8754,-3.0063,-2.0267,-2.3839,-3.4612,-3.3811,-2.419,-1.7044,-2.1649,0.1222,0.0003,-1.9112,-0.7482,-2.9115,-0.9979
-3.0656,-3.5746,-3.2578,-3.3663,-3.2014,-3.1008,-2.5917,-1.6629,-1.5262,-2.5041,-1.9699,-2.5582,-2.9708,-3.8386,-3.0074,-3.1525,-3.3143,-2.3274,-2.5832,-3.6803,-3.6002,-2.5195,-1.8338,-2.1741,0.1438,0.1504,-1.7881,-0.6357,-2.9544,-1.0819
-3.4386,-3.8645,-3.4371,-3.7063,-3.415,-3.3098,-2.4816,-1.565,-1.3407,-2.2613,-1.8011,-2.5317,-3.0488,-3.9874,-3.2448,-3.4611,-3.6785,-2.7128,-2.8147,-3.9282,-3.8318,-2.6457,-2.0125,-2.1623,0.1597,0.3188,-1.6336,-0.4913,-2.9973,-1.2467
-3.8992,-4.1543,-3.6182,-4.0446,-3.5934,-3.4767,-2.2706,-1.3472,-1.0383,-1.9003,-1.5324,-2.4213,-3.054,-4.0881,-3.5719,-3.8015,-4.0964,-3.165,-3.0799,-4.2012,-4.0634,-2.7872,-2.2266,-2.1015,0.1974,0.5314,-1.4194,-0.2959,-3.0742,-1.513
-4.4527,-4.4314,-3.8063,-4.3583,-3.7193,-3.5877,-1.9497,-1.0068,-0.6146,-1.4191,-1.1614,-2.2091,-2.9547,-4.1169,-4.0031,-4.1667,-4.5562,-3.6556,-3.3716,-4.4886,-4.2777,-2.9257,-2.4504,-1.9606,0.2907,0.8162,-1.114,-0.0311,-3.2159,-1.8835
-5.0893,-4.681,-4.0014,-4.6237,-3.7769,-3.6315,-1.5182,-0.5523,-0.0758,-0.8264,-0.6963,-1.8875,-2.7265,-4.0542,-4.533,-4.5411,-5.0358,-4.1479,-3.673,-4.7724,-4.4545,-3.0379,-2.6501,-1.712,0.4748,1.1976,-0.6906,0.3158,-3.441,-2.3398
-5.7808,-4.8885,-4.1977,-4.819,-3.7545,-3.6017,-0.9864,-0.0039,0.5589,-0.1431,-0.1565,-1.4618,-2.3588,-3.8883,-5.1348,-4.9017,-5.5026,-4.6003,-3.9586,-5.029,-4.5726,-3.0982,-2.7895,-1.3382,0.7785,1.6878,-0.136,0.7471,-3.7497,-2.8437
-6.4812,-5.0404,-4.3819,-4.9281,-3.6467,-3.4971,-0.3761,0.6074,1.2579,0.598,0.4276,-0.9515,-1.8591,-3.6177,-5.7603,-5.2199,-5.9162,-4.9706,-4.198,-5.2313,-4.6134,-3.0842,-2.8357,-0.8379,1.2158,2.2812,0.5417,1.2506,-4.1206,-3.3418
-7.1298,-5.1261,-4.5343,-4.9413,-3.4547,-3.322,0.2805,1.2425,1.9796,1.3555,1.0187,-0.3885,-1.2535,-3.2518,-6.3445,-5.464,-6.2322,-5.221,-4.3598,-5.3523,-4.5626,-2.9798,-2.7664,-0.2289,1.7784,2.9503,1.3101,1.7985,-4.5126,-3.7732
-7.6574,-5.1383,-4.6312,-4.8567,-3.1864,-3.0857,0.9443,1.8574,2.6777,2.0843,1.5775,0.1877,-0.5829,-2.8106,-6.813,-5.603,-6.4092,-5.3218,-4.4176,-5.369,-4.413,-2.7797,-2.5737,0.4527,2.4325,3.6462,2.1142,2.3491,-4.8716,-4.0778
-7.9936,-5.0729,-4.6484,-4.679,-2.8551,-2.8018,1.5745,2.4083,3.3065,2.7416,2.068,0.7354,0.103,-2.3218,-7.0934,-5.6112,-6.4154,-5.2556,-4.3542,-5.2655,-4.1656,-2.49,-2.2664,1.1564,3.1205,4.3044,2.8843,2.8531,-5.1399,-4.2062
-8.0759,-4.9294,-4.566,-4.4191,-2.4777,-2.4859,2.134,2.8565,3.827,3.2926,2.4631,1.2181,0.7549,-1.8163,-7.1272,-5.4721,-6.2355,-5.0183,-4.1646,-5.0363,-3.8292,-2.127,-1.8678,1.8261,3.7684,4.8548,3.5475,3.2621,-5.266,-4.1265
-7.8586,-4.7098,-4.3711,-4.0907,-2.0719,-2.1539,2.5947,3.1727,4.2109,3.7153,2.7478,1.6094,1.3331,-1.3232,-6.8802,-5.1816,-5.874,-4.6196,-3.8556,-4.6865,-3.4185,-1.714,-1.4108,2.4089,4.2981,5.2338,4.0412,3.5377,-5.2132,-3.8293
-7.3215,-4.4171,-4.0594,-3.708,-1.6523,-1.8182,2.9416,3.3403,4.4437,4.0033,2.9201,1.8975,1.8137,-0.8643,-6.3476,-4.7481,-5.3543,-4.081,-3.4434,-4.2303,-2.951,-1.2756,-0.9305,2.8653,4.6413,5.396,4.3249,3.6587,-4.9646,-3.3283
-6.4745,-4.0533,-3.6348,-3.282,-1.2276,-1.4851,3.1745,3.3564,4.5246,4.1655,2.99,2.0855,2.1921,-0.45,-5.5543,-4.191,-4.7134,-3.4322,-2.9488,-3.6873,-2.4429,-0.8324,-0.4572,3.1758,4.7523,5.3225,4.3875,3.6257,-4.5252,-2.6568
-5.359,-3.6171,-3.108,-2.8189,-0.7991,-1.1535,3.3072,3.2313,4.4655,4.2241,2.9761,2.1888,2.4822,-0.0777,-4.549,-3.5366,-3.9939,-2.7079,-2.3928,-3.0782,-1.9066,-0.3967,-0.0111,3.3434,4.6164,5.0244,4.249,3.46,-3.9191,-1.8615
-4.0444,-3.1047,-2.494,-2.3201,-0.3619,-0.8159,3.364,2.9862,4.2885,4.2097,2.9018,2.2308,2.7114,0.2665,-3.3954,-2.8136,-3.2356,-1.9442,-1.7927,-2.4218,-1.3488,0.0291,0.4005,3.3921,4.2534,4.5412,3.9561,3.1993,-3.1852,-0.9945
-2.6206,-2.5114,-1.8114,-1.7847,0.0918,-0.462,3.3748,2.6505,4.0221,4.1564,2.7906,2.2371,2.9135,0.6038,-2.1622,-2.0505,-2.47,-1.1768,-1.1611,-1.7333,-0.772,0.4508,0.7816,3.3609,3.7127,3.9329,3.5727,2.8899,-2.3713,-0.1071
-1.1873,-1.8373,-1.0829,-1.2146,0.5672,-0.0844,3.3685,2.2575,3.6981,4.0951,2.6625,2.2292,3.1201,0.9557,-0.9163,-1.2736,-1.7188,-0.4389,-0.5081,-1.026,-0.1776,0.8783,1.1433,3.2953,3.065,3.2703,3.168,2.5775,-1.5294,0.7549
0.1585,-1.0937,-0.3371,-0.6196,1.0615,0.3152,3.3675,1.841,3.3473,4.048,2.5303,2.219,3.3525,1.3365,0.2818,-0.5086,-0.996,0.2397,0.1556,-0.315,0.4292,1.3196,1.4968,3.2374,2.3893,2.6232,2.804,2.2983,-0.712,1.552
1.3342,-0.3086,0.3902,-0.0214,1.5602,0.7223,3.3829,1.4313,2.9962,4.0246,2.3983,2.2064,3.6163,1.7474,1.3794,0.218,-0.3125,0.8339,0.8145,0.38,1.0357,1.7758,1.8481,3.2181,1.7596,2.0498,2.5249,2.0726,0.0308,2.2507
2.2808,0.4718,1.056,0.5457,2.0362,1.1101,3.4125,1.0519,2.6637,4.0191,2.2613,2.1783,3.8996,2.1735,2.3322,0.8772,0.3188,1.3245,1.4468,1.0321,1.6193,2.2375,2.1943,3.2517,1.2347,1.5893,2.3521,1.9022,0.6534,2.8228
2.9668,1.1868,1.6133,1.0383,2.4532,1.4429,3.4406,0.7183,2.3594,4.0124,2.107,2.1116,4.1753,2.5849,3.1048,1.4382,0.88,1.6987,2.0243,1.6083,2.1485,2.6854,2.5226,3.3345,0.8517,1.2597,2.2826,1.7718,1.118,3.246
3.3858,1.7689,2.0181,1.4109,2.7717,1.6839,3.4423,0.4382,2.084,3.9748,1.9186,1.9776,4.4061,2.9416,3.6714,1.8698,1.3477,1.951,2.5151,2.0729,2.5871,3.093,2.8131,3.4475,0.624,1.0585,2.2937,1.6547,1.3982,3.5043
3.5514,2.1563,2.2358,1.6246,2.957,1.8027,3.3887,0.2129,1.831,3.8734,1.6789,1.7487,4.5517,3.2009,4.0174,2.1443,1.6946,2.081,2.8877,2.3928,2.8997,3.431,3.0431,3.5611,0.5436,0.968,2.3497,1.5193,1.4823,3.5903
3.4896,2.3034,2.2487,1.6545,2.9853,1.7818,3.2533,0.0406,1.5909,3.6776,1.3747,1.4033,4.5762,3.3257,4.1388,2.2414,1.893,2.0921,3.1149,2.5425,3.0576,3.6717,3.1915,3.6416,0.5864,0.9608,2.4103,1.3367,1.3748,3.5056
3.2325,2.1891,2.0586,1.4945,2.8482,1.6193,3.018,-0.0817,1.3544,3.3664,0.9987,0.9302,4.4532,3.2903,4.0409,2.1515,1.9197,1.9886,3.1775,2.5081,3.0433,3.7932,3.2423,3.6572,0.7181,1.006,2.4379,1.0858,1.0956,3.2613
2.8131,1.8207,1.6863,1.1582,2.5535,1.3284,2.6772,-0.1568,1.1167,2.9319,0.5522,0.3307,4.1697,3.0854,3.7371,1.8774,1.7607,1.775,3.0673,2.2894,2.853,3.7813,3.1865,3.5829,0.9011,1.0743,2.4032,0.7573,0.6768,2.8768
2.2629,1.2317,1.1675,0.6746,2.1234,0.9338,2.24,-0.1862,0.8791,2.3827,0.0455,-0.3801,3.7282,2.7193,3.248,1.4355,1.4155,1.4568,2.7883,1.8998,2.4964,3.6313,3.0235,3.4046,1.1004,1.1418,2.2893,0.3543,0.1577,2.3797
1.6108,0.4762,0.5466,0.0838,1.5906,0.4669,1.7298,-0.1706,0.6503,1.7441,-0.5013,-1.1737,3.1475,2.2175,2.6022,0.8537,0.8997,1.0432,2.3578,1.3647,1.9964,3.3488,2.761,3.1217,1.2887,1.193,2.0933,-0.1073,-0.4208,1.8039
0.8848,-0.3792,-0.1292,-0.5691,0.9943,-0.0377,1.1829,-0.1098,0.4468,1.0577,-1.0579,-2.0088,2.4624,1.6206,1.8379,0.1702,0.2455,0.5495,1.8059,0.7201,1.3871,2.9505,2.4155,2.7487,1.4487,1.2221,1.8273,-0.6005,-1.0196,1.1883
0.1141,-1.264,-0.8152,-1.2384,0.3776,-0.5459,0.6449,-0.0023,0.2906,0.3784,-1.5847,-2.8336,1.7223,0.9814,1.0036,-0.5697,-0.4999,-0.0009,1.1741,0.0096,0.7113,2.4641,2.0112,2.3149,1.575,1.2334,1.5172,-1.0892,-1.6048,0.5744
-0.6697,-2.1115,-1.4719,-1.8804,-0.2161,-1.0251,0.1667,0.1547,0.208,-0.2303,-2.0349,-3.5893,0.9875,0.3598,0.1554,-1.3172,-1.2786,-0.5767,0.5109,-0.7189,0.0181,1.9265,1.5784,1.8614,1.6726,1.2399,1.2001,-1.532,-2.1483,0.0027
-1.4336,-2.8651,-2.067,-2.4564,-0.7456,-1.4462,-0.2015,0.3641,0.2246,-0.7027,-2.3597,-4.2155,0.3231,-0.184,-0.6488,-2.0251,-2.0294,-1.1426,-0.1331,-1.4171,-0.642,1.3805,1.1498,1.4362,1.7536,1.2609,0.9187,-1.8857,-2.6288,-0.4919
-2.1466,-3.4835,-2.576,-2.935,-1.176,-1.7854,-0.417,0.6281,0.3611,-0.9807,-2.5149,-4.6571,-0.2092,-0.5974,-1.3584,-2.6527,-2.6958,-1.6645,-0.7124,-2.0424,-1.2221,0.8695,0.7564,1.0871,1.834,1.3175,0.7155,-2.1119,-3.0315,-0.8844
-2.7833,-3.9431,-2.9831,-3.2957,-1.4826,-2.0266,-0.4515,0.9446,0.6273,-1.0225,-2.469,-4.872,-0.5597,-0.8437,-1.9373,-3.1709,-3.2344,-2.1146,-1.1932,-2.5625,-1.6854,0.4306,0.4229,0.8532,1.928,1.4273,0.6245,-2.1821,-3.3485,-1.1635
-3.328,-4.2401,-3.2812,-3.5313,-1.6554,-2.164,-0.2968,1.3053,1.0179,-0.812,-2.2114,-4.8389,-0.6998,-0.9089,-2.369,-3.5655,-3.6211,-2.4767,-1.5594,-2.9601,-2.0098,0.0893,0.1636,0.7573,2.0443,1.5996,0.6648,-2.0837,-3.5791,-1.3331
-3.7763,-4.3898,-3.4722,-3.6507,-1.702,-2.2042,0.031,1.6937,1.5093,-0.3641,-1.7569,-4.5623,-0.6272,-0.8048,-2.6572,-3.8384,-3.8546,-2.7468,-1.8143,-3.2352,-2.1928,-0.1455,-0.0193,0.8012,2.183,1.8321,0.8355,-1.8237,-3.7302,-1.4117
-4.1345,-4.4243,-3.5681,-3.6781,-1.647,-2.1663,0.4922,2.0852,2.0608,0.2742,-1.147,-4.0742,-0.3679,-0.5686,-2.8225,-4.0067,-3.9559,-2.933,-1.9799,-3.405,-2.2512,-0.2824,-0.1364,0.9643,2.3354,2.1091,1.1147,-1.4286,-3.8152,-1.429
-4.4164,-4.3885,-3.5901,-3.6508,-1.5298,-2.0799,1.0271,2.4482,2.6183,1.0286,-0.4457,-3.4307,0.0271,-0.2564,-2.8974,-4.0995,-3.9636,-3.0518,-2.0919,-3.5004,-2.2194,-0.3453,-0.2083,1.2072,2.4847,2.4039,1.4628,-0.9424,-3.8533,-1.42
-4.6385,-4.3329,-3.5673,-3.6131,-1.3977,-1.9809,1.5648,2.7484,3.1223,1.8071,0.2693,-2.705,0.4902,0.0663,-2.9191,-4.1525,-3.9263,-3.1235,-2.1918,-3.5601,-2.1428,-0.3685,-0.261,1.4788,2.6102,2.6829,1.8289,-0.4202,-3.8661,-1.4182
-4.8151,-4.306,-3.533,-3.6089,-1.298,-1.9059,2.0337,2.9534,3.5161,2.514,0.9181,-1.9768,0.9483,0.337,-2.9225,-4.2016,-3.8934,-3.1679,-2.3181,-3.623,-2.0691,-0.3887,-0.3211,1.7257,2.6908,2.9116,2.1598,0.0799,-3.8745,-1.4489
-4.956,-4.3454,-3.5204,-3.6736,-1.2686,-1.8857,2.3731,3.0382,3.7555,3.0643,1.4309,-1.3208,1.3354,0.5061,-2.9342,-4.2768,-3.9054,-3.2012,-2.4983,-3.7211,-2.0399,-0.4382,-0.4095,1.902,2.7097,3.0605,2.4092,0.5039,-3.8951,-1.5247
-5.0652,-4.4711,-3.5561,-3.8273,-1.3321,-1.9403,2.5427,2.9904,3.8152,3.3965,1.7576,-0.7977,1.6032,0.5455,-2.968,-4.3962,-3.9867,-3.234,-2.7437,-3.8732,-2.0821,-0.5378,-0.5379,1.9766,2.6574,3.1094,2.545,0.8091,-3.9371,-1.6448
-5.1418,-4.6818,-3.6543,-4.0709,-1.4908,-2.0753,2.5281,2.8123,3.6924,3.4805,1.874,-0.4478,1.7278,0.451,-3.0224,-4.5628,-4.1407,-3.271,-3.0465,-4.0817,-2.2039,-0.6932,-0.7061,1.9378,2.5337,3.0508,2.5535,0.9681,-4.0015,-1.7964
-5.1805,-4.955,-3.8126,-4.3843,-1.7267,-2.2798,2.3421,2.5219,3.4057,3.3202,1.7822,-0.2891,1.712,0.242,-3.0818,-4.7634,-4.3497,-3.3106,-3.3812,-4.3319,-2.3934,-0.8937,-0.9018,1.7937,2.3481,2.8895,2.4401,0.9698,-4.0804,-1.959
-5.1719,-5.2497,-4.0099,-4.7296,-2.0049,-2.5275,2.021,2.1501,2.9915,2.9501,1.5076,-0.3194,1.5828,-0.0435,-3.1192,-4.9702,-4.5771,-3.3444,-3.7083,-4.5942,-2.6211,-1.1139,-1.102,1.5695,2.1186,2.6414,2.2261,0.8186,-4.1592,-2.1086
-5.1026,-5.5135,-4.2097,-5.0556,-2.2786,-2.7796,1.6171,1.7366,2.4969,2.4276,1.0917,-0.5207,1.3847,-0.3547,-3.1007,-5.1447,-4.774,-3.3565,-3.9807,-4.8283,-2.8448,-1.3175,-1.2765,1.3019,1.8698,2.3305,1.9443,0.5319,-4.2185,-2.2203
-4.9562,-5.6903,-4.3659,-5.306,-2.4977,-2.991,1.1892,1.3237,1.9722,1.8216,0.5831,-0.8642,1.1709,-0.6362,-2.9921,-5.2437,-4.8866,-3.3255,-4.1499,-4.9894,-3.017,-1.4634,-1.3919,1.033,1.6305,1.9853,1.6324,0.1369,-4.2377,-2.2717
-4.7173,-5.7299,-4.4321,-5.4294,-2.6174,-3.1176,0.7925,0.9498,1.4632,1.2011,0.0297,-1.3162,0.9924,-0.8365,-2.7651,-5.2271,-4.8664,-3.228,-4.1741,-5.0352,-3.0931,-1.5129,-1.417,0.8032,1.4298,1.6358,1.327,-0.3326,-4.1988,-2.2455
-4.3764,-5.597,-4.3723,-5.3883,-2.6055,-3.1251,0.4697,0.6441,1.0054,0.6246,-0.5283,-1.8411,0.8903,-0.915,-2.4048,-5.0649,-4.6786,-3.0447,-4.0243,-4.9337,-3.0384,-1.4363,-1.328,0.6456,1.2943,1.3104,1.0589,-0.8391,-4.0905,-2.1321
-3.9362,-5.2785,-4.1694,-5.1677,-2.4492,-2.9967,0.2458,0.4225,0.6204,0.1336,-1.0608,-2.4037,0.8885,-0.8491,-1.9145,-4.7448,-4.3098,-2.7664,-3.6902,-4.6694,-2.8351,-1.2193,-1.1129,0.582,1.244,1.0341,0.8503,-1.344,-3.9114,-1.9325
-3.4155,-4.7877,-3.8299,-4.778,-2.1567,-2.7366,0.1262,0.2873,0.3166,-0.2502,-1.5476,-2.9698,0.9924,-0.6369,-1.3179,-4.2761,-3.7719,-2.3972,-3.1834,-4.2475,-2.4856,-0.8659,-0.7747,0.621,1.2896,0.8267,0.7141,-1.8095,-3.6715,-1.6594
-2.8487,-4.1637,-3.384,-4.2549,-1.7554,-2.3697,0.1008,0.23,0.0926,-0.5216,-1.9755,-3.5056,1.1902,-0.2973,-0.6577,-3.69,-3.1024,-1.9548,-2.537,-3.6945,-2.0123,-0.3986,-0.3314,0.7582,1.4314,0.7027,0.6553,-2.2009,-3.392,-1.3368
-2.2814,-3.4661,-2.8797,-3.6524,-1.2863,-1.9363,0.1498,0.2364,-0.0568,-0.6865,-2.334,-3.978,1.4587,0.1341,0.0095,-3.036,-2.3585,-1.4674,-1.8022,-3.0544,-1.4541,0.1452,0.1854,0.9796,1.6595,0.6704,0.6735,-2.4891,-3.1016,-0.9974
-1.7619,-2.7649,-2.373,-3.0329,-0.7954,-1.4828,0.2524,0.2932,-0.135,-0.7541,-2.6119,-4.356,1.7699,0.6119,0.6218,-2.3738,-1.6084,-0.9704,-1.0396,-2.3819,-0.8589,0.7198,0.7358,1.2652,1.9556,0.7325,0.7655,-2.6533,-2.8326,-0.6784
-1.3317,-2.1291,-1.917,-2.4554,-0.3249,-1.0525,0.3927,0.3927,-0.1394,-0.7318,-2.7961,-4.6133,2.0976,1.089,1.1216,-1.7637,-0.9193,-0.501,-0.3098,-1.733,-0.2762,1.2794,1.2778,1.5931,2.2968,0.8849,0.9267,-2.6841,-2.6161,-0.4156
-1.0171,-1.614,-1.5513,-1.9649,0.0943,-0.6771,0.5641,0.5351,-0.061,-0.6223,-2.8735,-4.7324,2.4229,1.5249,1.4667,-1.2554,-0.3447,-0.0928,0.338,-1.1552,0.2527,1.787,1.7752,1.9433,2.6589,1.1168,1.1509,-2.5861,-2.4766,-0.2374
-0.8249,-1.2511,-1.2947,-1.5848,0.4477,-0.3706,0.7689,0.7274,0.112,-0.4251,-2.8343,-4.7081,2.7357,1.8937,1.6398,-0.8794,0.0849,0.2304,0.8739,-0.6792,0.7004,2.2203,2.2041,2.2997,3.0189,1.4091,1.4287,-2.3782,-2.428,-0.1595
-0.7421,-1.043,-1.143,-1.3135,0.7385,-0.1284,1.0152,0.9784,0.3889,-0.1393,-2.6761,-4.549,3.0349,2.1872,1.6535,-0.641,0.3679,0.4605,1.2921,-0.3139,1.0585,2.5755,2.5569,2.6511,3.3567,1.7357,1.7453,-2.0919,-2.4707,-0.1808
-0.7409,-0.9625,-1.0715,-1.1272,0.9851,0.07,1.3121,1.2942,0.7704,0.2318,-2.4063,-4.2759,3.3262,2.4158,1.549,-0.5198,0.5311,0.6075,1.6094,-0.0462,1.337,2.8662,2.8427,2.9905,3.6564,2.0649,2.0815,-1.7659,-2.5909,-0.2832
-0.7858,-0.9601,-1.0425,-0.9864,1.2152,0.255,1.6646,1.6725,1.2445,0.6783,-2.0419,-3.9172,3.6189,2.6041,1.3874,-0.4749,0.6218,0.6978,1.8586,0.1543,1.56,3.1181,3.0832,3.3148,3.9063,2.3649,2.4151,-1.4376,-2.7644,-0.4357
-0.8414,-0.9754,-1.0155,-0.847,1.4577,0.458,2.0694,2.1003,1.7861,1.1827,-1.6076,-3.5029,3.922,2.784,1.2355,-0.4547,0.6955,0.7665,2.079,0.3268,1.7589,3.361,3.3053,3.6225,4.0995,2.6083,2.7245,-1.1366,-2.9616,-0.6016
-0.8786,-0.9518,-0.9569,-0.6707,1.7349,0.7029,2.5133,2.5546,2.3587,1.72,-1.1323,-3.0606,4.2403,2.9859,1.1503,-0.409,0.8018,0.8474,2.306,0.5092,1.9633,3.6202,3.5328,3.9121,4.2334,2.7772,2.9923,-0.8794,-3.1542,-0.7482
-0.8795,-0.8494,-0.8471,-0.4341,2.0563,0.9996,2.9731,3.0045,2.9195,2.2598,-0.6463,-2.6127,4.5712,3.2316,1.167,-0.3002,0.9732,0.964,2.5632,0.73,2.1951,3.9104,3.7802,4.1808,4.3095,2.8657,3.2073,-0.6703,-3.3209,-0.8542
-0.8383,-0.6526,-0.6833,-0.133,2.4162,1.3419,3.4176,3.4168,3.4239,2.7675,-0.1792,-2.178,4.9039,3.5293,1.2927,-0.1096,1.2196,1.1241,2.8601,1.0034,2.4632,4.2328,4.0495,4.4232,4.3321,2.8786,3.3638,-0.5048,-3.4493,-0.9126
-0.7593,-0.3716,-0.477,0.2184,2.7954,1.709,3.8119,3.7607,3.832,3.2078,0.2409,-1.7741,5.2188,3.8721,1.5091,0.1611,1.5296,1.3197,3.1923,1.3284,2.7644,4.5765,4.3309,4.6315,4.3065,2.8284,3.4599,-0.3764,-3.536,-0.9292
-0.6528,-0.0364,-0.2485,0.593,3.1658,2.071,4.1223,4.0129,4.1124,3.547,0.5888,-1.4198,5.4913,4.2412,1.7809,0.4941,1.8772,1.5323,3.5461,1.6928,3.0855,4.9226,4.607,4.7961,4.238,2.73,3.495,-0.2824,-3.5839,-0.9174
-0.5301,0.3131,-0.0201,0.9585,3.4972,2.3962,4.3216,4.1609,4.2464,3.7573,0.8427,-1.1349,5.6963,4.6101,2.0682,0.8627,2.2308,1.7394,3.9032,2.0775,3.4088,5.249,4.8574,4.9076,4.1301,2.5965,3.467,-0.227,-3.5982,-0.8901
-0.3985,0.6382,0.1903,1.2857,3.764,2.6579,4.3939,4.2041,4.2295,3.8206,0.9862,-0.939,5.8139,4.9514,2.3391,1.2396,2.5624,1.9222,4.2464,2.4628,3.717,5.5363,5.0652,4.9591,3.9846,2.4362,3.3724,-0.2202,-3.5835,-0.8544
-0.2602,0.9113,0.3725,1.5555,3.9506,2.8396,4.3371,4.1528,4.0708,3.7313,1.0103,-0.8479,5.8343,5.2423,2.5786,1.6033,2.8545,2.0698,4.5631,2.8326,3.998,5.7714,5.2199,4.9485,3.8021,2.2517,3.2078,-0.2746,-3.5412,-0.8088
-0.1124,1.1204,0.5251,1.7612,4.0545,2.9379,4.1632,4.0251,3.7913,3.4981,0.914,-0.87,5.7612,5.4688,2.7903,1.9411,3.1018,2.1826,4.8473,3.1765,4.2467,5.9499,5.3198,4.8801,3.5834,2.0418,2.9728,-0.4009,-3.47,-0.7444
0.0497,1.2684,0.6531,1.9079,4.0852,2.962,3.8961,3.8436,3.4197,3.1429,0.7049,-1.005,5.612,5.6274,2.9932,2.2489,3.3096,2.2707,5.0992,3.4901,4.4648,6.0761,5.3719,4.7646,3.331,1.8042,2.6727,-0.6036,-3.3669,-0.6493
0.2303,1.3691,0.7641,2.009,4.0617,2.9308,3.5675,3.6312,2.9887,2.6979,0.3979,-1.2436,5.4146,5.7241,3.213,2.5281,3.4898,2.3521,5.3233,3.7736,4.6594,6.1618,5.3897,4.6184,3.0509,1.538,2.3209,-0.8799,-3.231,-0.5145
0.4297,1.44,0.8653,2.0807,4.0079,2.8677,3.2118,3.4087,2.5303,2.2016,0.0136,-1.5693,5.2026,5.7727,3.4714,2.7823,3.6558,2.447,5.526,4.0294,4.84,6.2232,5.39,4.4612,2.7534,1.2463,1.9385,-1.2188,-3.0652,-0.3378
0.6428,1.4972,0.9601,2.1375,3.9473,2.7958,2.8614,3.1929,2.0735,1.6939,-0.4232,-1.96,5.0095,5.7909,3.7776,3.0148,3.8189,2.5715,5.7136,4.2613,5.0164,6.2779,5.389,4.3129,2.4522,0.9364,1.5522,-1.6034,-2.8783,-0.1263
0.859,1.5519,1.0489,2.1898,3.8996,2.7333,2.5439,2.9965,1.6428,1.2121,-0.8849,-2.391,4.8635,5.7978,4.124,3.2281,3.9867,2.7325,5.8908,4.4728,5.1964,6.3414,5.3994,4.1908,2.1635,0.6202,1.191,-2.0123,-2.6831,0.1057
1.0631,1.6099,1.1297,2.2432,3.8776,2.6913,2.2802,2.8291,1.2579,0.7881,-1.3416,-2.8355,4.7841,5.8113,4.4876,3.4236,4.163,2.925,6.0606,4.6673,5.3853,6.4253,5.4286,4.1085,1.904,0.3129,0.8826,-2.4213,-2.4933,0.3398
1.2379,1.6719,1.2005,2.2991,3.8868,2.6735,2.0848,2.6979,0.9347,0.4469,-1.7626,-3.2661,4.7809,5.8471,4.837,3.603,4.3482,3.1329,6.2243,4.8478,5.5849,6.5358,5.4784,4.074,1.6886,0.0321,0.6507,-2.8049,-2.3198,0.5587
1.3662,1.7357,1.2607,2.3566,3.9258,2.6774,1.9661,2.6089,0.6856,0.2058,-2.1176,-3.6556,4.8536,5.9168,5.1408,3.7673,4.5386,3.3334,6.3808,5.016,5.7931,6.673,5.5461,4.0905,1.5288,-0.2046,0.5119,-3.138,-2.1672,0.7499
1.4331,1.7976,1.3121,2.4133,3.9879,2.6971,1.9273,2.5668,0.5204,0.0744,-2.3794,-3.9787,4.9936,6.0267,5.3772,3.9174,4.7268,3.503,6.5263,5.1718,6.0039,6.8307,5.6261,4.1552,1.4313,-0.3813,0.4738,-3.3979,-2.0332,0.9083
1.4277,1.8547,1.3576,2.4668,4.0629,2.7244,1.9665,2.5745,0.4446,0.0545,-2.5271,-4.2144,5.1855,6.1761,5.5384,4.0529,4.9012,3.6229,6.6538,5.3128,6.2074,6.9977,5.7102,4.2602,1.3966,-0.4874,0.5338,-3.5672,-1.9094,1.0358
1.3434,1.9061,1.4008,2.5149,4.1393,2.7517,2.0767,2.6313,0.459,0.1401,-2.5498,-4.3482,5.4086,6.3564,5.6317,4.1722,5.0482,3.6834,6.7537,5.434,6.3907,7.1581,5.7892,4.3926,1.4186,-0.5192,0.6781,-3.6359,-1.7835,1.1405
1.1797,1.9545,1.4449,2.5568,4.2059,2.7723,2.2453,2.7316,0.5579,0.318,-2.4477,-4.374,5.6393,6.5516,5.6762,4.2737,5.1553,3.6852,6.8155,5.5292,6.5398,7.2941,5.8534,4.535,1.4854,-0.4818,0.8835,-3.6032,-1.6427,1.2345
0.9446,2.0061,1.4924,2.593,4.254,2.7824,2.4549,2.8636,0.7286,0.5686,-2.2336,-4.2951,5.8531,6.7406,5.6963,4.3558,5.2147,3.64,6.8307,5.5921,6.6416,7.3886,5.8941,4.6672,1.5801,-0.3889,1.119,-3.4776,-1.4751,1.3324
0.656,2.0697,1.5458,2.626,4.2783,2.7808,2.6844,3.0097,0.9514,0.8679,-1.9306,-4.1223,6.0273,6.9003,5.7155,4.4185,5.2265,3.5667,6.7949,5.6185,6.6863,7.4278,5.9054,4.7688,1.6832,-0.2606,1.3506,-3.2754,-1.2719,1.4488
0.3433,2.1548,1.6075,2.66,4.2782,2.7695,2.911,3.1477,1.2015,1.1895,-1.5689,-3.8721,6.1434,7.0101,5.7508,4.4638,5.1994,3.4871,6.7101,5.607,6.6695,7.4046,5.8853,4.8216,1.7752,-0.1205,1.5455,-3.0176,-1.0282,1.5962
0.0453,2.2699,1.6806,2.7,4.2568,2.7527,3.1127,3.2536,1.4513,1.5074,-1.1814,-3.5632,6.1893,7.0548,5.81,4.4958,5.1496,3.4205,6.5844,5.5604,6.5933,7.3191,5.8368,4.8124,1.8393,0.0086,1.6775,-2.7263,-0.7424,1.7835
-0.1949,2.4204,1.7691,2.7505,4.221,2.7359,3.2711,3.3053,1.674,1.7978,-0.7997,-3.214,6.1604,7.0275,5.8921,4.5209,5.0971,3.3791,6.4314,5.4851,6.4654,7.1785,5.7668,4.7353,1.8638,0.1077,1.73,-2.4221,-0.4158,2.0142
-0.3367,2.6089,1.8783,2.8151,4.1789,2.7245,3.3729,3.2857,1.8459,2.0408,-0.4501,-2.8409,6.0593,6.9304,5.9905,4.5465,5.0616,3.3658,6.2673,5.3905,6.2983,6.9954,5.6839,4.5916,1.8436,0.1639,1.6983,-2.1217,-0.0513,2.2859
-0.3507,2.8346,2.0137,2.8953,4.1387,2.722,3.4112,3.186,1.9498,2.2209,-0.1521,-2.4587,5.8944,6.7737,6.0973,4.5807,5.0577,3.3743,6.1084,5.2876,6.1065,6.7846,5.5959,4.3899,1.7802,0.1712,1.5885,-1.8378,0.3461,2.5903
-0.2246,3.0946,2.1798,2.9901,4.1056,2.7293,3.3852,3.0063,1.9747,2.3271,0.0817,-2.0818,5.6782,6.5737,6.2072,4.6298,5.0917,3.3917,5.9676,5.1862,5.9044,6.5602,5.5065,4.1445,1.6815,0.1306,1.4158,-1.5797,0.7689,2.9137
0.035,3.3822,2.3776,3.0958,4.0813,2.7434,3.2992,2.7553,1.9168,2.3528,0.2444,-1.7248,5.425,6.3488,6.318,4.6963,5.1592,3.4018,5.8519,5.0935,5.7033,6.333,5.4142,3.8729,1.5595,0.0488,1.201,-1.3539,1.2052,3.2384
0.4046,3.6867,2.6018,3.2061,4.0635,2.758,3.1618,2.4482,1.7779,2.2964,0.3334,-1.4032,5.1488,6.117,6.4298,4.777,5.2463,3.3899,5.7615,5.0115,5.5105,6.1091,5.3121,3.5936,1.4284,-0.0635,0.9669,-1.1649,1.6378,3.5433
0.8489,3.9919,2.8401,3.3128,4.0463,2.7645,2.9841,2.1044,1.5654,2.1618,0.349,-1.1328,4.8629,5.8925,6.5409,4.8617,5.3312,3.3464,5.6896,4.9371,5.3288,5.89,5.1901,3.3238,1.3022,-0.1926,0.7352,-1.0157,2.0453,3.8051
1.3267,4.2761,3.0739,3.4061,4.0225,2.7537,2.7796,1.7452,1.2915,1.9587,0.2937,-0.9277,4.579,5.6853,6.6448,4.9345,5.3881,3.2694,5.6242,4.8629,5.1569,5.6739,5.0378,3.0776,1.1923,-0.3238,0.5249,-0.9075,2.4042,4.0005
1.7966,4.5146,3.2804,3.4761,3.9848,2.7187,2.5624,1.3919,0.9731,1.703,0.1731,-0.7983,4.3071,5.5001,6.7289,4.9766,5.3922,3.163,5.5506,4.7785,4.991,5.4572,4.848,2.8655,1.1065,-0.4431,0.3504,-0.8391,2.6925,4.1074
2.2211,4.6831,3.4372,3.5139,3.9271,2.6562,2.3464,1.0653,0.6319,1.4148,-0.0042,-0.7485,4.056,5.3378,6.776,4.9695,5.3228,3.034,5.454,4.6735,4.8265,5.2363,4.6191,2.6931,1.0478,-0.5378,0.2221,-0.8066,2.893,4.1076
2.5697,4.7616,3.5253,3.5122,3.8461,2.5675,2.1446,0.784,0.2926,1.1172,-0.2256,-0.7746,3.8333,5.1963,6.7673,4.8993,5.1668,2.8864,5.3225,4.5398,4.6592,5.0089,4.3562,2.5622,1.0147,-0.5985,0.1454,-0.8035,2.9949,3.9891
2.8206,4.739,3.5327,3.4671,3.7415,2.4588,1.9685,0.5639,-0.0189,0.8331,-0.4744,-0.865,3.6458,5.0721,6.6873,4.7595,4.9207,2.7183,5.1491,4.3736,4.4871,4.7756,4.07,2.4709,1.0021,-0.6198,0.1215,-0.8213,2.9944,3.7479
2.9611,4.6148,3.4561,3.3792,3.6168,2.3403,1.8275,0.4162,-0.2787,0.5834,-0.7308,-1.0011,3.4994,4.9624,6.5268,4.553,4.591,2.5222,4.9327,4.1765,4.3108,4.5396,3.7748,2.4149,1.0026,-0.6007,0.1474,-0.8505,2.8944,3.3893
2.9871,4.3994,3.3013,3.2536,3.4789,2.2237,1.7295,0.3465,-0.4672,0.3854,-0.9728,-1.1601,3.3994,4.8658,6.2838,4.2911,4.1936,2.2883,4.6781,3.9548,4.1338,4.3071,3.4855,2.3887,1.008,-0.5452,0.2164,-0.8823,2.7036,2.928
2.9024,4.1113,3.0811,3.0992,3.3371,2.1199,1.6804,0.3533,-0.5713,0.2517,-1.1788,-1.3172,3.3497,4.7838,5.9611,3.9908,3.7516,2.0103,4.3944,3.7189,3.9618,4.0862,3.2144,2.3867,1.0109,-0.4613,0.3193,-0.9091,2.4347,2.3868
2.7172,3.7725,2.8118,2.9265,3.2009,2.0359,1.6837,0.4279,-0.5858,0.1899,-1.3285,-1.4487,3.3524,4.7199,5.5634,3.671,3.2904,1.6891,4.0927,3.4802,3.801,3.8846,2.9699,2.4037,1.0056,-0.3602,0.4456,-0.9248,2.1039,1.7942
2.4473,3.403,2.5102,2.7447,3.0776,1.9725,1.7402,0.5557,-0.5127,0.203,-1.406,-1.5346,3.4066,4.6783,5.0961,3.3478,2.8337,1.3354,3.7833,3.2486,3.6567,3.7085,2.7544,2.4351,0.988,-0.2551,0.5845,-0.9255,1.7293,1.1807
2.1128,3.0175,2.1903,2.5599,2.9708,1.9245,1.8472,0.7177,-0.3611,0.2892,-1.4004,-1.5607,3.5077,4.6626,4.5658,3.0316,2.3985,0.9687,3.4741,3.0306,3.5313,3.5601,2.5657,2.4766,0.9546,-0.16,0.7257,-0.9087,1.3303,0.5749
1.737,2.6242,1.8632,2.3744,2.8796,1.8819,1.998,0.8942,-0.1455,0.4431,-1.3081,-1.5201,3.6477,4.6735,3.9826,2.7259,1.994,0.6143,3.1698,2.8284,3.4244,3.4374,2.3983,2.5232,0.9025,-0.0878,0.8606,-0.8743,0.9275,-0.0006
1.3439,2.2264,1.5373,2.188,2.7996,1.8331,2.1819,1.0665,0.1154,0.6552,-1.1334,-1.4138,3.8157,4.7076,3.3625,2.4294,1.6221,0.2984,2.8729,2.6413,3.3332,3.3344,2.2455,2.5689,0.8284,-0.0494,0.9817,-0.8239,0.5418,-0.5316
0.9554,1.8268,1.2209,1.9998,2.725,1.7671,2.3846,1.2189,0.3992,0.9123,-0.8896,-1.2507,3.9982,4.7569,2.7283,2.1395,1.2804,0.0427,2.5853,2.4675,3.2537,3.2428,2.1014,2.6061,0.7301,-0.0512,1.0828,-0.7609,0.1937,-1.0126
0.5894,1.4321,0.9231,1.8102,2.65,1.6763,2.5881,1.3388,0.6817,1.1968,-0.5982,-1.0453,4.1805,4.8098,2.1088,1.8562,0.9659,-0.1408,2.3098,2.3061,3.1819,3.1533,1.9621,2.6267,0.607,-0.0947,1.1589,-0.6897,-0.0986,-1.4445
0.2579,1.0546,0.6542,1.6221,2.5706,1.557,2.7721,1.4154,0.9375,1.4863,-0.288,-0.8164,4.347,4.853,1.5372,1.5843,0.6778,-0.2527,2.0511,2.1589,3.115,3.0583,1.8254,2.622,0.4619,-0.175,1.2056,-0.6155,-0.3213,-1.8321
-0.0322,0.7117,0.4243,1.4404,2.4847,1.4099,2.9152,1.4395,1.142,1.7551,0.0085,-0.5842,4.482,4.8731,1.0461,1.3334,0.4186,-0.3063,1.8164,2.0305,3.0521,2.9533,1.6914,2.5856,0.3021,-0.282,1.2195,-0.5434,-0.4685,-2.1803
-0.2772,0.4217,0.2406,1.2707,2.3923,1.2397,2.9972,1.4027,1.2739,1.9755,0.2584,-0.3681,4.5719,4.8601,0.6641,1.1166,0.1936,-0.3242,1.6141,1.9266,2.9942,2.8381,1.5621,2.514,0.1396,-0.4013,1.1987,-0.4778,-0.5431,-2.4932
-0.4744,0.1989,0.1053,1.1179,2.2948,1.0536,3.0021,1.2988,1.3172,2.1219,0.4329,-0.1853,4.606,4.8089,0.4111,0.9469,0.0091,-0.3315,1.4529,1.8532,2.9442,2.7179,1.4416,2.4092,-0.0104,-0.5162,1.1439,-0.4231,-0.558,-2.7728
-0.6199,0.0494,0.0157,0.9856,2.1951,0.8607,2.9212,1.125,1.2637,2.1744,0.5109,-0.0492,4.579,4.7218,0.2969,0.8341,-0.1284,-0.348,1.3403,1.8151,2.9068,2.6022,1.3359,2.2786,-0.1313,-0.6108,1.0594,-0.3832,-0.533,-3.0203
-0.7073,-0.0301,-0.0354,0.8759,2.0972,0.6713,2.7551,0.8845,1.114,2.1224,0.4817,0.0303,4.4921,4.6087,0.3211,0.7842,-0.213,-0.3818,1.2817,1.8155,2.8882,2.5034,1.2519,2.1351,-0.2083,-0.672,0.9531,-0.3619,-0.4912,-3.2366
-0.7276,-0.0495,-0.0569,0.7911,2.0071,0.4953,2.5152,0.5877,0.8779,1.967,0.3462,0.0482,4.3541,4.4872,0.4746,0.7989,-0.2384,-0.4282,1.2795,1.8569,2.8963,2.4357,1.1973,1.9955,-0.2314,-0.6922,0.8368,-0.3633,-0.4531,-3.4235
-0.6693,-0.0216,-0.056,0.7352,1.9329,0.3428,2.2224,0.2526,0.5735,1.7213,0.1161,0.0038,4.1802,4.3803,0.742,0.8777,-0.198,-0.4718,1.3339,1.9418,2.94,2.4122,1.1793,1.8772,-0.1983,-0.6706,0.7239,-0.3914,-0.4318,-3.584
-0.5198,0.0436,-0.0364,0.7153,1.8851,0.2231,1.9054,-0.0957,0.2257,1.4096,-0.1872,-0.0987,3.9913,4.3143,1.1054,1.0195,-0.0851,-0.4922,1.4434,2.0744,3.029,2.4439,1.2039,1.7962,-0.1149,-0.6136,0.6278,-0.4499,-0.4293,-3.7215
-0.2669,0.1431,0.0043,0.7422,1.8762,0.1465,1.5978,-0.4279,-0.1361,1.0644,-0.5362,-0.2513,3.8112,4.3146,1.5479,1.2248,0.1063,-0.4694,1.6067,2.2603,3.1728,2.5382,1.2759,1.7638,0.0047,-0.5345,0.5589,-0.5416,-0.4357,-3.8386
0.0988,0.2825,0.0741,0.8296,1.9201,0.1235,1.3335,-0.7137,-0.4818,0.7224,-0.9003,-0.4424,3.6646,4.4031,2.0566,1.4955,0.3792,-0.3869,1.823,2.5068,3.3798,2.699,1.3979,1.7857,0.1407,-0.4508,0.5231,-0.6674,-0.4308,-3.9352
0.5815,0.4748,0.1862,0.9923,2.0302,0.1651,1.1428,-0.9267,-0.7834,0.4199,-1.2503,-0.6579,3.574,4.5949,2.6223,1.8342,0.7323,-0.2333,2.093,2.821,3.6559,2.9254,1.5695,1.8613,0.2705,-0.382,0.5212,-0.825,-0.3891,-4.0069
1.1787,0.7368,0.3561,1.243,2.218,0.2811,1.0484,-1.0479,-1.0191,0.1883,-1.5612,-0.8831,3.5572,4.8962,3.2388,2.2424,1.1586,-0.0019,2.4168,3.208,4.0036,3.2125,1.7866,1.9841,0.3721,-0.3455,0.5496,-1.0091,-0.2854,-4.0459
1.8797,1.0833,0.5988,1.5887,2.4902,0.4786,1.0626,-1.0692,-1.1764,0.0498,-1.8155,-1.1037,3.6249,5.3037,3.899,2.7178,1.6456,0.3085,2.7932,3.6681,4.4206,3.551,2.0415,2.1441,0.4278,-0.3542,0.6017,-1.2106,-0.1017,-4.0423
2.6641,1.5212,0.9244,2.0278,2.8474,0.7595,1.1855,-0.9936,-1.2528,0.0153,-2.004,-1.3073,3.78,5.8044,4.5924,3.2526,2.1758,0.692,3.2171,4.1956,4.8989,3.9278,2.3236,2.3291,0.4263,-0.4137,0.6704,-1.4177,0.1686,-3.988
3.5031,2.0452,1.3341,2.5483,3.2819,1.1194,1.4058,-0.8347,-1.256,0.0831,-2.1256,-1.4836,4.0171,6.3766,5.3028,3.8325,2.7286,1.1344,3.679,4.7768,5.425,4.3274,2.6207,2.5278,0.3652,-0.5219,0.75,-1.6169,0.5174,-3.8787
4.3611,2.6374,1.8186,3.1286,3.7785,1.5468,1.7021,-0.6132,-1.2016,0.2405,-2.1859,-1.6251,4.3239,6.9919,6.0093,4.4371,3.2826,1.6141,4.1646,5.3914,5.9804,4.7333,2.9208,2.7312,0.25,-0.6689,0.8369,-1.7946,0.9235,-3.7159
5.2,3.2689,2.3578,3.7402,4.3144,2.0239,2.0468,-0.3534,-1.1088,0.4661,-2.1947,-1.7266,4.6829,7.6175,6.6892,5.0414,3.8175,2.1052,4.6566,6.0138,6.5431,5.1298,3.214,2.9332,0.0933,-0.8398,0.9292,-1.9396,1.3561,-3.5072
5.9839,3.9053,2.9246,4.3516,4.8627,2.5275,2.4102,-0.0792,-0.9975,0.7336,-2.1631,-1.7847,5.0733,8.219,7.3225,5.6194,4.316,2.5829,5.1367,6.6171,7.0901,5.5037,3.4934,3.1305,-0.0885,-1.0179,1.0257,-2.0442,1.7806,-3.2648
6.6848,4.5119,3.4896,4.9327,5.395,3.0324,2.7642,0.189,-0.8845,1.0157,-2.1017,-1.7978,5.4736,8.7639,7.8957,6.1473,4.7656,3.0281,5.5885,7.1764,7.5994,5.8457,3.7559,3.3204,-0.2789,-1.1878,1.1234,-2.106,2.1657,-3.0033
7.2854,5.0607,4.0261,5.4592,5.8855,3.5139,3.0856,0.4355,-0.7815,1.2876,-2.0192,-1.7664,5.863,9.2252,8.4041,6.607,5.1598,3.4299,5.9995,7.6721,8.0528,6.1507,4.0013,3.5,-0.4645,-1.3388,1.2169,-2.1276,2.489,-2.7387
7.7807,5.5346,4.5146,5.9148,6.3141,3.9508,3.3577,0.6501,-0.6956,1.5296,-1.9219,-1.6926,6.2232,9.5837,8.8514,6.9889,5.4987,3.786,6.362,8.0929,8.4379,6.4171,4.2312,3.6641,-0.6369,-1.4662,1.2986,-2.116,2.7407,-2.4859
8.1775,5.9293,4.9441,6.2925,6.6687,4.3277,3.5707,0.8261,-0.6305,1.7276,-1.8141,-1.5812,6.54,9.8308,9.2473,7.2932,5.7882,4.0994,6.6727,8.4355,8.7489,6.6458,4.4466,3.8057,-0.7936,-1.5714,1.3594,-2.0805,2.925,-2.2571
8.4927,6.2525,5.3122,6.5935,6.9457,4.6361,3.721,0.9593,-0.5882,1.8737,-1.6993,-1.4393,6.8039,9.9693,9.6053,7.5291,6.0392,4.3755,6.9321,8.7047,8.9873,6.8388,4.6466,3.9171,-0.9362,-1.6602,1.3911,-2.0309,3.0573,-2.0605
8.7513,6.5212,5.6234,6.8263,7.1499,4.8753,3.8096,1.0467,-0.5708,1.9648,-1.5812,-1.2758,7.0112,10.0127,9.9395,7.713,6.2657,4.6187,7.1434,8.9121,9.1614,6.9994,4.8277,3.9918,-1.0677,-1.7396,1.388,-1.9754,3.1602,-1.8974
8.9832,6.7579,5.8872,7.0044,7.2933,5.0515,3.8411,1.0862,-0.5811,2.0017,-1.4644,-1.1015,7.1638,9.9839,10.2639,7.8664,6.4831,4.8328,7.3129,9.0737,9.2848,7.132,4.9864,4.0272,-1.1901,-1.8157,1.3481,-1.9201,3.2593,-1.7609
9.2198,6.987,6.1169,7.1448,7.3925,5.1776,3.8227,1.0771,-0.622,1.9879,-1.3545,-0.9274,7.2685,9.912,10.591,8.0125,6.7073,5.0223,7.4507,9.209,9.3753,7.2442,5.1212,4.0256,-1.3017,-1.8916,1.273,-1.8688,3.3785,-1.6351
9.4892,7.2312,6.3277,7.266,7.4667,5.2705,3.7633,1.0211,-0.6959,1.9291,-1.2583,-0.7646,7.3355,9.8287,10.9316,8.1734,6.9525,5.1942,7.5705,9.3382,9.4523,7.346,5.2346,3.9948,-1.3969,-1.9666,1.1674,-1.824,3.5359,-1.498
9.8119,7.5079,6.5346,7.3853,7.5336,5.348,3.6732,0.9229,-0.8033,1.8322,-1.1833,-0.6231,7.3762,9.7636,11.2934,8.3668,7.2291,5.3585,7.6885,9.4794,9.5337,7.4496,5.3345,3.9463,-1.4674,-2.0376,1.0381,-1.7879,3.741,-1.3264
10.1974,7.8262,6.7482,7.5163,7.6068,5.4258,3.5636,0.7903,-0.9422,1.7054,-1.1364,-0.5112,7.4011,9.7393,11.68,8.6023,7.5405,5.526,7.82,9.6463,9.6331,7.5666,5.4319,3.8934,-1.5049,-2.1006,0.8924,-1.763,3.9925,-1.1026
10.6431,8.1842,6.9724,7.6665,7.6935,5.5148,3.4458,0.6342,-1.1069,1.5578,-1.1228,-0.4342,7.4178,9.768,12.0877,8.8799,7.8808,5.7057,7.9759,9.8447,9.7577,7.7056,5.5386,3.8482,-1.5042,-2.152,0.7376,-1.752,4.2785,-0.8208
11.1357,8.5671,7.2028,7.8352,7.7936,5.6192,3.3313,0.4682,-1.2878,1.3999,-1.144,-0.3943,7.4302,9.8495,12.5043,9.1882,8.2347,5.901,8.1598,10.0715,9.9065,7.8691,5.6639,3.8197,-1.4646,-2.1903,0.5807,-1.7569,4.5789,-0.4899
11.6534,8.9488,7.4275,8.0135,7.9007,5.7373,3.231,0.3079,-1.4713,1.2432,-1.1967,-0.3893,7.4388,9.9722,12.9091,9.5066,8.5783,6.1081,8.3661,10.3147,10.0712,8.0521,5.811,3.812,-1.3917,-2.216,0.4281,-1.7778,4.8695,-0.1329
12.1693,9.296,7.631,8.1867,8.0044,5.8628,3.1547,0.1704,-1.6404,1.1004,-1.2719,-0.4131,7.4422,10.1158,13.2756,9.8086,8.8838,6.316,8.581,10.5555,10.2382,8.2427,5.9764,3.8249,-1.2965,-2.2317,0.2861,-1.8121,5.1271,0.2174
12.6535,9.5757,7.7985,8.3379,8.0937,5.9878,3.1108,0.0727,-1.7761,0.9847,-1.3549,-0.4557,7.4391,10.2574,13.5781,10.0668,9.1235,6.5085,8.7852,10.7719,10.3911,8.424,6.1494,3.8539,-1.1935,-2.2413,0.1607,-1.8542,5.3338,0.5252
13.0767,9.763,7.9204,8.4522,8.1603,6.1054,3.1065,0.0302,-1.8601,0.9097,-1.4268,-0.5036,7.4305,10.3774,13.7963,10.2584,9.2754,6.6679,8.957,10.9431,10.5148,8.5769,6.3143,3.8929,-1.0988,-2.2488,0.0581,-1.8957,5.4804,0.7599
13.4122,9.8477,7.9943,8.5208,8.2004,6.2116,3.1476,0.0543,-1.8771,0.8885,-1.4667,-0.5409,7.4223,10.4648,13.9202,10.369,9.3262,6.7775,9.0765,11.0531,10.5979,8.6847,6.4527,3.9364,-1.0264,-2.2572,-0.0143,-1.9254,5.5673,0.9019
13.6388,9.8367,8.0247,8.5423,8.2156,6.3056,3.2388,0.1503,-1.8168,0.9332,-1.4545,-0.5497,7.4259,10.5199,13.9494,10.3944,9.2739,6.8244,9.1283,11.0938,10.6353,8.7361,6.5468,3.9818,-0.9857,-2.2667,-0.048,-1.9302,5.6027,0.9458
13.7434,9.7518,8.0199,8.5223,8.2125,6.3888,3.3835,0.316,-1.6768,1.0533,-1.3735,-0.512,7.4576,10.5534,13.8908,10.34,9.1277,6.8011,9.1042,11.0654,10.6283,8.7272,6.5823,4.0307,-0.9801,-2.2744,-0.0328,-1.8962,5.5988,0.9002
13.7219,9.6229,7.9884,8.4708,8.1995,6.4628,3.5826,0.5402,-1.4622,1.2549,-1.2129,-0.4115,7.5355,10.5824,13.7537,10.2172,8.9055,6.7063,9.0039,10.975,10.5843,8.6623,6.5513,4.0891,-1.0058,-2.2738,0.0411,-1.8103,5.5672,0.7838
13.5797,9.4784,7.9352,8.3985,8.1844,6.5269,3.8338,0.8047,-1.1854,1.5387,-0.9688,-0.2358,7.6749,10.624,13.5449,10.0391,8.6295,6.5446,8.8342,10.8336,10.5132,8.5518,6.4532,4.1644,-1.0536,-2.2562,0.1815,-1.6622,5.5145,0.619
13.3302,9.3367,7.8594,8.3121,8.1713,6.5761,4.13,1.0865,-0.8634,1.8985,-0.6446,0.0213,7.8832,10.6898,13.2673,9.8162,8.3214,6.3259,8.6063,10.6522,10.4248,8.4084,6.2945,4.2633,-1.111,-2.2128,0.391,-1.4471,5.4403,0.4267
12.9935,9.2012,7.7537,8.2128,8.1582,6.6014,4.4592,1.3623,-0.5148,2.3216,-0.25,0.3586,8.1567,10.7818,12.9207,9.5537,7.9979,6.0636,8.3332,10.4385,10.3258,8.2442,6.0872,4.388,-1.1656,-2.137,0.6643,-1.1663,5.3384,0.2223
12.5944,9.0602,7.6059,8.0949,8.1376,6.5905,4.8046,1.6131,-0.1559,2.7883,0.2008,0.7682,8.4793,10.8917,12.5048,9.251,7.6681,5.7723,8.0274,10.1954,10.2175,8.0671,5.8464,4.5342,-1.2072,-2.0262,0.988,-0.8279,5.1998,0.0148
12.1593,8.8921,7.4029,7.9492,8.0977,6.5314,5.1462,1.8262,0.2007,3.2746,0.6908,1.2363,8.8254,11.0034,12.024,8.9046,7.334,5.4657,7.6995,9.9224,10.0972,7.8809,5.5881,4.692,-1.2302,-1.8822,1.3416,-0.4449,5.0172,-0.1917
11.7134,8.6737,7.1357,7.7662,8.0258,6.4156,5.4629,1.9971,0.5472,3.754,1.202,1.7456,9.1643,11.0984,11.4912,8.512,6.9937,5.1548,7.3591,9.6181,9.9598,7.6861,5.3276,4.8474,-1.2329,-1.7104,1.7012,-0.0337,4.7883,-0.3957
11.276,8.3893,6.8042,7.5412,7.9124,6.2413,5.7358,2.1275,0.8783,4.2006,1.7163,2.2774,9.4667,11.1612,10.9294,8.077,6.6456,4.8474,7.0163,9.2848,9.802,7.483,5.0786,4.9861,-1.2171,-1.5187,2.0433,0.389,4.5175,-0.5959
10.859,8.0375,6.4199,7.278,7.7547,6.0152,5.9505,2.2229,1.19,4.5916,2.2165,2.8123,9.7101,11.1836,10.371,7.6128,6.2919,4.5494,6.683,8.9318,9.6256,7.2744,4.8535,5.0971,-1.1869,-1.3151,2.3488,0.8072,4.216,-0.7892
10.4667,7.6338,6.0051,6.9891,7.5586,5.7518,6.0994,2.2892,1.4772,4.9099,2.6858,3.3312,9.8826,11.1666,9.8532,7.1429,5.9409,4.2658,6.373,8.5766,9.4393,7.0669,4.6625,5.175,-1.147,-1.1078,2.6055,1.2066,3.8999,-0.9703
10.1003,7.2082,5.5892,6.6946,7.3381,5.4709,6.182,2.3302,1.732,5.1452,3.1088,3.8147,9.9835,11.1184,9.4111,6.6985,5.6077,4.0034,6.1005,8.2438,9.2581,6.871,4.5125,5.2202,-1.1025,-0.9049,2.8077,1.5742,3.5879,-1.1326
9.7624,6.7988,5.203,6.4176,7.1128,5.1938,6.2046,2.3467,1.9445,5.2951,3.4718,4.2434,10.0218,11.0516,9.0708,6.3133,5.3115,3.7712,5.8781,7.9604,9.1004,6.699,4.4063,5.2373,-1.0589,-0.7146,2.9553,1.8972,3.299,-1.2691
9.461,6.4436,4.8739,6.1796,6.904,4.9403,6.1791,2.3367,2.1038,5.3654,3.7639,4.5997,10.013,10.9788,8.8438,6.0172,5.073,3.5796,5.7144,7.7509,8.9843,6.5622,4.3418,5.2332,-1.0218,-0.5457,3.0519,2.1638,3.0501,-1.3741
9.2094,6.1731,4.6216,5.9967,6.7308,4.7263,6.1211,2.2984,2.2009,5.3697,3.9795,4.8692,9.9757,10.9108,8.726,5.8304,4.9099,3.4394,5.613,7.6325,8.9235,6.4689,4.313,5.215,-0.9962,-0.4071,3.1036,2.3638,2.8541,-1.4442
9.0233,6.0047,4.4565,5.8775,6.6078,4.563,6.0488,2.2326,2.2323,5.3283,4.1192,5.0446,9.9287,10.8554,8.6993,5.76,4.8338,3.358,5.5715,7.6117,8.9255,6.4231,4.3111,5.1893,-0.9851,-0.3051,3.1192,2.4919,2.7195,-1.4788
8.9161,5.9414,4.3796,5.8233,6.5435,4.4582,5.9814,2.1448,2.2021,5.2673,4.1915,5.1279,9.8889,10.8186,8.7361,5.7992,4.8471,3.3381,5.5828,7.6843,8.9902,6.4245,4.3279,5.1635,-0.9876,-0.2419,3.111,2.55,2.6497,-1.4807
8.8928,5.9734,4.3837,5.8294,6.541,4.4169,5.938,2.0455,2.1237,5.216,4.2126,5.1324,9.8711,10.8057,8.8049,5.9291,4.9421,3.375,5.6365,7.8366,9.1115,6.4693,4.3571,5.1463,-0.9975,-0.213,3.0962,2.5496,2.6437,-1.4554
8.9458,6.0809,4.4545,5.8872,6.5977,4.4414,5.9362,1.9494,2.0191,5.2041,4.2053,5.0821,9.8873,10.8218,8.8764,6.1219,5.1009,3.4573,5.7202,8.0477,9.2785,6.5515,4.3963,5.1489,-1.0039,-0.2068,3.0966,2.5119,2.6954,-1.4112
9.0537,6.2382,4.5729,5.9855,6.7059,4.5304,5.9903,1.8716,1.9162,5.2579,4.1961,5.0092,9.9469,10.8713,8.9272,6.3448,5.2974,3.5678,5.8217,8.2931,9.477,6.6641,4.4464,5.1851,-0.9921,-0.2049,3.1374,2.4664,2.7936,-1.3585
9.1827,6.4169,4.7162,6.1112,6.8536,4.6773,6.1092,1.825,1.8439,5.3967,4.2114,4.9499,10.0565,10.9564,8.9427,6.564,5.5006,3.6871,5.9291,8.5464,9.6908,6.7994,4.5106,5.2686,-0.9476,-0.1859,3.2438,2.4464,2.9209,-1.3082
9.293,6.588,4.8602,6.2486,7.0246,4.8684,6.2953,1.8166,1.8272,5.6297,4.2733,4.9382,10.2195,11.0753,8.9169,6.7483,5.6791,3.7968,6.0327,8.7823,9.9025,6.9499,4.5924,5.4106,-0.8593,-0.1288,3.4358,2.4837,3.0549,-1.2705
9.3472,6.7255,4.9818,6.3809,7.2009,5.0837,6.5434,1.8464,1.8825,5.9547,4.3965,5.0006,10.4354,11.2213,8.8512,6.8733,5.8069,3.8837,6.1249,8.9783,10.0954,7.1084,4.6937,5.6165,-0.7231,-0.0185,3.7239,2.602,3.17,-1.2528
9.319,6.8097,5.0629,6.4914,7.3647,5.2989,6.8419,1.9087,2.0147,6.3583,4.5858,5.1515,10.7,11.3837,8.7525,6.9248,5.8689,3.9415,6.2018,9.1185,10.2554,7.2686,4.814,5.8836,-0.5433,0.1509,4.1053,2.8121,3.2429,-1.2582
9.2002,6.8306,5.0942,6.5679,7.5026,5.4918,7.1746,1.9937,2.2169,6.819,4.8362,5.3915,11.0055,11.5506,8.6318,6.9019,5.8641,3.9725,6.2635,9.1956,10.3735,7.4255,4.9505,6.2011,-0.332,0.3748,4.564,3.1103,3.2579,-1.2844
9.0029,6.7909,5.0776,6.6057,7.6082,5.647,7.5232,2.0912,2.4722,7.3105,5.134,5.7075,11.3412,11.7122,8.5032,6.8178,5.807,3.9856,6.3145,9.2136,10.4478,7.5763,5.0987,6.5523,-0.1063,0.6394,5.0725,3.4788,3.2117,-1.3235
8.7572,6.7052,5.0253,6.6096,7.6829,5.7595,7.8703,2.1929,2.7571,7.8054,5.4599,6.0759,11.6947,11.8629,8.3836,6.6974,5.7231,3.9935,6.3626,9.1865,10.484,7.7199,5.2532,6.9167,0.1154,0.9248,5.5971,3.8895,3.1143,-1.3643
8.5021,6.5966,4.9561,6.5921,7.7349,5.8344,8.2003,2.2935,3.0453,8.2782,5.791,6.4663,12.0517,12.0017,8.2905,6.5719,5.6425,4.0089,6.4164,9.1349,10.4936,7.8562,5.4081,7.2732,0.3168,1.209,6.1023,4.3091,2.986,-1.3941
8.2733,6.4902,4.888,6.5694,7.7746,5.8825,8.4997,2.3897,3.3114,8.7062,6.1043,6.8459,12.3964,12.13,8.2371,6.4707,5.5904,4.0394,6.4817,9.0802,10.49,7.9835,5.5563,7.602,0.4856,1.4713,6.5565,4.7038,2.8504,-1.4029
8.0927,6.405,4.8326,6.5545,7.8096,5.9142,8.7562,2.4788,3.534,9.0698,6.3778,7.1838,12.7114,12.2486,8.2251,6.413,5.5786,4.0844,6.5568,9.0373,10.4836,8.0968,5.6883,7.8851,0.6139,1.6953,6.9348,5.0437,2.7267,-1.3871
7.9622,6.3484,4.7903,6.5518,7.8399,5.9338,8.9576,2.5567,3.6977,9.3526,6.593,7.4544,12.9786,12.355,8.2388,6.4017,5.6009,4.1335,6.6303,9.0099,10.4783,8.1857,5.792,8.1077,0.6982,1.8694,7.2208,5.3054,2.6238,-1.3527
7.8654,6.3132,4.7511,6.554,7.8571,5.9372,9.092,2.6174,3.7938,9.5418,6.7359,7.6399,13.1813,12.4424,8.242,6.4218,5.6324,4.1684,6.68,8.9882,10.47,8.2356,5.8528,8.2583,0.7378,1.988,7.4078,5.4741,2.5367,-1.3154
7.7744,6.28,4.6981,6.5441,7.8462,5.9131,9.1494,2.6532,3.8209,9.6293,6.7992,7.7323,13.3069,12.5009,8.1826,6.4438,5.6359,4.1674,6.6772,8.9523,10.4476,8.2296,5.8559,8.3299,0.7352,2.0509,7.4985,5.544,2.4491,-1.2986
7.6594,6.2225,4.6127,6.4995,7.7898,5.8478,9.1232,2.6571,3.7838,9.6133,6.7826,7.7341,13.3497,12.5203,8.003,6.432,5.5707,4.1109,6.5922,8.8773,10.397,8.1527,5.7887,8.3215,0.6945,2.063,7.5033,5.519,2.3378,-1.3281
7.4969,6.1153,4.4807,6.3991,7.674,5.7305,9.0131,2.6245,3.6925,9.4996,6.6936,7.657,13.3125,12.4933,7.6546,6.3541,5.4033,3.9859,6.4022,8.7414,10.3061,7.9957,5.6444,8.2382,0.6216,2.0331,7.4391,5.4109,2.1805,-1.4256
7.2746,5.9411,4.2951,6.2299,7.4925,5.5571,8.8263,2.5549,3.5607,9.3016,6.5459,7.5199,13.2069,12.4186,7.1117,6.1895,5.1163,3.7896,6.0982,8.5318,10.1682,7.7586,5.4241,8.0917,0.5241,1.9727,7.3261,5.2378,1.9615,-1.6027
6.9917,5.6953,4.0579,5.9909,7.249,5.3325,8.5778,2.4531,3.4032,9.0397,6.357,7.3444,13.0508,12.3014,6.3802,5.9351,4.7127,3.5292,5.688,8.2487,9.9846,7.4513,5.1384,7.8985,0.4098,1.8943,7.1849,5.021,1.6767,-1.8577
6.6578,5.3882,3.7791,5.6942,6.957,5.0685,8.2886,2.3279,3.2343,8.7388,6.1462,7.1517,12.8652,12.1531,5.4986,5.6056,4.2159,3.221,5.1964,7.9056,9.7643,7.0929,4.8057,7.6782,0.2872,1.8093,7.0343,4.7825,1.3352,-2.175
6.2897,5.0426,3.4749,5.3629,6.6377,4.7824,7.983,2.1912,3.0663,8.4255,5.931,6.9599,12.671,11.9892,4.5319,5.2298,3.6648,2.8871,4.6606,7.5264,9.5224,6.7091,4.4507,7.4503,0.1637,1.7271,6.8891,4.5424,0.9572,-2.5279
