FP1,F3,F7,FC3,C3,C5,P3,P7,PO7,PO3,O1,Oz,Pz,CPz,FP2,Fz,F4,F8,FC4,FCz,Cz,C4,C6,P4,P8,PO8,PO4,O2,(corr) HEOG,(corr) VEOG
-0.2782,0.1838,0.0533,-0.0125,-0.5914,-0.3172,-1.1315,-0.3199,-0.4636,-0.4764,0.0967,0.2294,-0.9629,-1.1038,-0.385,0.3189,0.3686,0.2773,0.0703,-0.1575,-0.929,-0.7424,-0.949,-0.7232,-0.5437,-0.2823,-0.4956,0.0088,0.2406,1.2445
-0.2507,0.2797,0.0897,0.0471,-0.6167,-0.3914,-1.202,-0.4281,-0.5541,-0.5314,-0.0266,0.1674,-0.9217,-1.067,-0.3953,0.4918,0.5104,0.3602,0.1974,0.0081,-0.8422,-0.6737,-0.9107,-0.671,-0.46,-0.2279,-0.4761,0.0379,0.252,1.3655
-0.246,0.3389,0.1097,0.0806,-0.6274,-0.4653,-1.2628,-0.5634,-0.68,-0.6266,-0.2157,0.036,-0.9051,-1.0579,-0.4021,0.628,0.5997,0.4029,0.309,0.1388,-0.7862,-0.6038,-0.846,-0.6226,-0.3189,-0.1419,-0.4663,0.041,0.2447,1.4397
-0.2579,0.3715,0.1125,0.098,-0.6139,-0.5262,-1.3006,-0.7117,-0.8227,-0.7427,-0.4381,-0.1371,-0.9036,-1.0677,-0.4073,0.7299,0.6433,0.416,0.4028,0.2345,-0.7556,-0.5282,-0.7489,-0.569,-0.1282,-0.0212,-0.4522,0.0303,0.2173,1.464
-0.2807,0.3903,0.0987,0.1106,-0.5691,-0.5615,-1.3054,-0.8563,-0.9616,-0.858,-0.6596,-0.3194,-0.9073,-1.0876,-0.42,0.8,0.6488,0.4081,0.4724,0.2952,-0.7459,-0.4488,-0.621,-0.5035,0.0971,0.1322,-0.4216,0.0208,0.1708,1.448
-0.3106,0.4061,0.0697,0.1259,-0.4911,-0.5612,-1.2719,-0.9805,-1.0779,-0.9531,-0.8504,-0.4802,-0.9088,-1.1107,-0.4529,0.8381,0.6209,0.3834,0.508,0.3189,-0.7552,-0.3739,-0.4719,-0.4244,0.3373,0.3106,-0.3683,0.0253,0.1097,1.4097
-0.3467,0.4235,0.0277,0.1451,-0.3849,-0.5212,-1.2017,-1.0711,-1.1582,-1.0139,-0.9898,-0.5963,-0.9047,-1.1335,-0.5168,0.8412,0.5608,0.3424,0.4986,0.3019,-0.7843,-0.3166,-0.3173,-0.3361,0.5701,0.5001,-0.2944,0.0512,0.0418,1.3696
-0.3895,0.4388,-0.0252,0.1623,-0.2628,-0.445,-1.1037,-1.1214,-1.1969,-1.0347,-1.0688,-0.6561,-0.8967,-1.1563,-0.6156,0.805,0.468,0.2836,0.4364,0.2413,-0.8356,-0.2908,-0.1773,-0.2496,0.7733,0.6811,-0.2116,0.0972,-0.0236,1.3448
-0.4417,0.4423,-0.0884,0.166,-0.1432,-0.3457,-0.9945,-1.1331,-1.1978,-1.0196,-1.0908,-0.6609,-0.8923,-1.1838,-0.7445,0.7268,0.3439,0.206,0.3203,0.1366,-0.912,-0.3085,-0.0735,-0.1818,0.9266,0.8309,-0.1395,0.1537,-0.0767,1.3461
-0.5074,0.4207,-0.1635,0.1424,-0.049,-0.2451,-0.8968,-1.1166,-1.1732,-0.9819,-1.0694,-0.6238,-0.9041,-1.2247,-0.8904,0.6082,0.1938,0.1099,0.1567,-0.0088,-1.0154,-0.3775,-0.0276,-0.1535,1.0137,0.9268,-0.1026,0.2036,-0.1099,1.377
-0.593,0.3609,-0.255,0.0779,-0.0056,-0.1714,-0.8375,-1.0893,-1.1418,-0.9432,-1.0259,-0.5676,-0.9493,-1.2921,-1.0365,0.4548,0.027,-0.0039,-0.0426,-0.1884,-1.1479,-0.5017,-0.0604,-0.1868,1.0232,0.9507,-0.1267,0.2264,-0.1184,1.4362
-0.7075,0.2522,-0.3701,-0.0392,-0.0376,-0.156,-0.8452,-1.0728,-1.126,-0.9305,-0.9853,-0.5202,-1.0483,-1.4025,-1.1685,0.2737,-0.1467,-0.1362,-0.265,-0.3953,-1.3126,-0.6832,-0.1897,-0.302,0.9507,0.8926,-0.2336,0.2018,-0.1017,1.5213
-0.8627,0.0863,-0.5182,-0.2182,-0.1674,-0.228,-0.9471,-1.0888,-1.1485,-0.9729,-0.9732,-0.5116,-1.2227,-1.5754,-1.2814,0.0699,-0.3214,-0.2911,-0.5018,-0.6259,-1.5157,-0.9241,-0.4288,-0.5146,0.7991,0.7534,-0.438,0.1138,-0.063,1.6331
-1.0723,-0.1435,-0.71,-0.4663,-0.4117,-0.4099,-1.1658,-1.1564,-1.2293,-1.0984,-1.0134,-0.5697,-1.4928,-1.8311,-1.3848,-0.1578,-0.4991,-0.4773,-0.752,-0.883,-1.768,-1.2279,-0.7838,-0.8329,0.5796,0.5452,-0.7445,-0.0467,-0.0088,1.779
-1.3501,-0.443,-0.9562,-0.7891,-0.7799,-0.7138,-1.5158,-1.2898,-1.3835,-1.3299,-1.1259,-0.7172,-1.8744,-2.1878,-1.5034,-0.4187,-0.6909,-0.7065,-1.0233,-1.1768,-2.0838,-1.5999,-1.2516,-1.2556,0.3104,0.2908,-1.1462,-0.2807,0.0525,1.9735
-1.7071,-0.8169,-1.266,-1.1894,-1.2715,-1.1396,-2.0004,-1.4972,-1.619,-1.681,-1.3234,-0.9677,-2.374,-2.657,-1.6723,-0.7277,-0.9154,-0.9907,-1.3292,-1.5227,-2.4781,-2.0442,-1.819,-1.771,0.0154,0.0203,-1.6248,-0.5798,0.1116,2.2352
-2.1484,-1.2666,-1.6446,-1.666,-1.8745,-1.674,-2.6085,-1.7802,-1.9347,-2.1518,-1.6089,-1.3218,-2.9848,-3.2391,-1.9289,-1.1009,-1.1928,-1.3377,-1.6834,-1.9356,-2.961,-2.5597,-2.4628,-2.3554,-0.2773,-0.2311,-2.1508,-0.9264,0.1601,2.5804
-2.6698,-1.7881,-2.0911,-2.2107,-2.5638,-2.2914,-3.3119,-2.1336,-2.3187,-2.725,-1.9709,-1.7636,-3.6823,-3.9184,-2.3011,-1.5482,-1.5378,-1.7469,-2.0936,-2.4238,-3.5317,-3.1355,-3.1506,-2.9737,-0.5387,-0.4266,-2.6848,-1.2925,0.1908,3.0147
-3.2555,-2.3683,-2.5961,-2.8065,-3.3017,-2.9557,-4.0648,-2.5434,-2.7464,-3.3637,-2.3809,-2.2587,-4.4228,-4.6611,-2.7982,-2.0676,-1.9533,-2.2056,-2.5552,-2.9824,-4.174,-3.7472,-3.8424,-3.5803,-0.7404,-0.5306,-3.1795,-1.6408,0.1986,3.5255
-3.8771,-2.9841,-3.1407,-3.4259,-4.0396,-3.6222,-4.8056,-2.986,-3.1805,-4.0121,-2.7922,-2.7545,-5.1453,-5.4157,-3.4049,-2.6412,-2.4262,-2.6894,-3.0497,-3.5905,-4.8543,-4.3572,-4.4938,-4.1223,-0.8572,-0.5112,-3.5831,-1.9263,0.1806,4.0786
-4.4955,-3.6015,-3.6959,-4.0318,-4.7218,-4.2418,-5.4621,-3.4266,-3.5722,-4.5996,-3.1433,-3.1849,-5.7781,-6.1187,-4.0811,-3.2364,-2.9284,-3.164,-3.5454,-4.2118,-5.5243,-4.9175,-5.0598,-4.5447,-0.8683,-0.3434,-3.8448,-2.1002,0.1357,4.6202
-5.0645,-4.1783,-4.2249,-4.5798,-5.2916,-4.7646,-5.9597,-3.8212,-3.8656,-5.0495,-3.3642,-3.479,-6.2484,-6.7024,-4.7685,-3.8093,-3.42,-3.591,-4.0029,-4.7989,-6.1274,-5.3769,-5.5004,-4.7969,-0.7589,-0.0122,-3.9207,-2.1166,0.0647,5.0838
-5.5373,-4.6684,-4.6866,-5.0234,-5.6984,-5.1463,-6.233,-4.1202,-4.0046,-5.2895,-3.3875,-3.5722,-6.4946,-7.1059,-5.4003,-4.3121,-3.8562,-3.9343,-4.3816,-5.301,-6.6076,-5.6887,-5.7854,-4.8408,-0.5222,0.4844,-3.7812,-1.94,-0.0292,5.4025
-5.8735,-5.0283,-5.0411,-5.3201,-5.9045,-5.3526,-6.2356,-4.2762,-3.9418,-5.264,-3.1596,-3.4175,-6.4772,-7.2847,-5.9125,-4.7004,-4.1952,-4.1658,-4.6467,-5.6721,-6.9184,-5.8195,-5.8982,-4.6568,-0.1605,1.1328,-3.4168,-1.5527,-0.1406,5.5208
-6.0448,-5.2227,-5.2551,-5.4379,-5.8909,-5.364,-5.949,-4.2514,-3.6468,-4.9438,-2.651,-2.995,-6.1859,-7.2187,-6.2536,-4.9396,-4.4043,-4.2705,-4.7745,-5.8779,-7.0303,-5.7545,-5.837,-4.2482,0.3125,1.9026,-2.8408,-0.9596,-0.2615,5.4052
-6.039,-5.2309,-5.3068,-5.3604,-5.6594,-5.1775,-5.3864,-4.0256,-3.1134,-4.3324,-1.863,-2.3155,-5.6413,-6.9139,-6.391,-5.0093,-4.4654,-4.2472,-4.7551,-5.9,-6.9337,-5.4995,-5.6143,-3.6417,0.8713,2.7483,-2.0888,-0.1894,-0.3821,5.0495
-5.8607,-5.0495,-5.1881,-5.0898,-5.232,-4.8069,-4.5906,-3.6008,-2.3624,-3.4662,-0.8291,-1.4194,-4.891,-6.4005,-6.3137,-4.9046,-4.3763,-4.1077,-4.5926,-5.7364,-6.6383,-5.0789,-5.2535,-2.8835,1.4799,3.613,-1.2138,0.7085,-0.4911,4.4757
-5.5281,-4.6927,-4.9047,-4.6459,-4.6469,-4.2806,-3.6276,-3.0026,-1.4406,-2.4101,0.3881,-0.3701,-3.9994,-5.7248,-6.0312,-4.6336,-4.1487,-3.8723,-4.3021,-5.3986,-6.1683,-4.5301,-4.7841,-2.0319,2.096,4.436,-0.2778,1.6711,-0.5776,3.7291
-5.0676,-4.1884,-4.4742,-4.0618,-3.9508,-3.6371,-2.5754,-2.2767,-0.415,-1.2468,1.7052,0.7562,-3.0365,-4.9392,-5.5696,-4.2135,-3.8037,-3.5649,-3.9041,-4.9065,-5.5554,-3.8952,-4.2363,-1.1477,2.6763,5.1612,0.6579,2.6314,-0.6324,2.8703
-4.5081,-3.572,-3.9221,-3.377,-3.1908,-2.9191,-1.5115,-1.4822,0.6367,-0.0648,3.0293,1.8814,-2.065,-4.0923,-4.9646,-3.6649,-3.3639,-3.2062,-3.4189,-4.2823,-4.8315,-3.2123,-3.637,-0.2844,3.1842,5.7453,1.5417,3.528,-0.65,1.9646
-3.8752,-2.8781,-3.2781,-2.6292,-2.4066,-2.1672,-0.5018,-0.6822,1.6371,1.0558,4.2709,2.9371,-1.1316,-3.2206,-4.2557,-3.0066,-2.8477,-2.8095,-2.8617,-3.5463,-4.0234,-2.509,-3.0068,0.5194,3.5951,6.164,2.3378,4.3137,-0.6296,1.0721
-3.1886,-2.1349,-2.5729,-1.848,-1.6249,-1.4148,0.4081,0.0663,2.5202,2.053,5.3549,3.8718,-0.2627,-2.3464,-3.4813,-2.2541,-2.2652,-2.379,-2.2406,-2.7152,-3.1508,-1.7997,-2.3596,1.243,3.9001,6.4146,3.0289,4.9604,-0.5754,0.2402
-2.4638,-1.3623,-1.8377,-1.0536,-0.8594,-0.6868,1.1952,0.7188,3.239,2.8894,6.2296,4.6557,0.5336,-1.4801,-2.6764,-1.4211,-1.6194,-1.912,-1.5592,-1.8053,-2.2297,-1.0881,-1.7053,1.8821,4.1057,6.5138,3.6132,5.4598,-0.4963,-0.4994
-1.7152,-0.5751,-1.1044,-0.2597,-0.1151,-0.0006,1.8566,1.248,3.7696,3.5525,6.8705,5.279,1.2611,-0.6273,-1.8731,-0.5244,-0.9114,-1.4047,-0.8216,-0.8375,-1.2771,-0.373,-1.0526,2.4432,4.23,6.4927,4.0995,5.8203,-0.4045,-1.131
-0.9609,0.2118,-0.4061,0.5212,0.6051,0.6302,2.4038,1.6438,4.1106,4.0509,7.2798,5.7489,1.9273,0.2046,-1.101,0.4107,-0.1476,-0.8587,-0.0387,0.1582,-0.3169,0.3442,-0.4119,2.9364,4.2968,6.389,4.5003,6.0611,-0.3133,-1.6518
-0.2256,0.978,0.2244,1.2714,1.2945,1.1932,2.8554,1.9111,4.2805,4.4079,7.4823,6.0831,2.5367,1.0004,-0.3876,1.3476,0.6554,-0.2866,0.7685,1.1407,0.6174,1.0538,0.2022,3.369,4.3297,6.2403,4.8267,6.2057,-0.2346,-2.0686
0.4608,1.6954,0.7574,1.9666,1.94,1.6763,3.2317,2.0672,4.3132,4.6556,7.5198,6.3038,3.0875,1.7372,0.2427,2.2406,1.469,0.2868,1.5682,2.061,1.4855,1.7356,0.7718,3.7421,4.3467,6.0774,5.0845,6.2755,-0.1768,-2.3946
1.0667,2.3316,1.1709,2.5777,2.5238,2.07,3.5513,2.1381,4.2525,4.8287,7.4441,6.4331,3.5715,2.3877,0.7711,3.0404,2.2561,0.8274,2.3223,2.87,2.246,2.3612,1.2771,4.0507,4.357,5.9209,5.2743,6.2862,-0.1433,-2.6469
1.5658,2.8557,1.4542,3.0773,3.0284,2.3705,3.8301,2.1555,4.1469,4.9607,7.3099,6.4899,3.978,2.9266,1.1861,3.7038,2.9772,1.2982,2.993,3.5271,2.8645,2.8998,1.6993,4.2856,4.3613,5.7804,5.3924,6.2454,-0.1326,-2.8442
1.9425,3.2455,1.6101,3.4466,3.4421,2.5829,4.0811,2.1532,4.0445,5.0802,7.1686,6.4879,4.2968,3.3367,1.486,4.2014,3.5971,1.6673,3.5495,4.0083,3.3208,3.3244,2.0226,4.4377,4.3526,5.656,5.4339,6.1535,-0.1389,-3.0054
2.1947,3.4932,1.6532,3.6804,3.7631,2.7211,4.3146,2.1627,3.9864,5.2081,7.0618,6.4361,4.522,3.6122,1.6785,4.5226,4.091,1.9133,3.9728,4.3096,3.6118,3.6172,2.2365,4.5011,4.3204,5.5413,5.3951,6.0059,-0.1543,-3.1477
2.3324,3.6062,1.6053,3.7884,3.9995,2.8056,4.537,2.2094,4.0028,5.3551,7.0175,6.3384,4.6519,3.7585,1.7779,4.6756,4.4459,2.0281,4.2564,4.4451,3.7499,3.772,2.3357,4.475,4.2539,5.4271,5.2756,5.7963,-0.1703,-3.2846
2.3727,3.604,1.4894,3.7913,4.1653,2.8582,4.7498,2.3092,4.1082,5.5198,7.0468,6.1952,4.6886,3.7891,1.8016,4.6825,4.6594,2.015,4.4048,4.4414,3.7579,3.7938,2.3205,4.3646,4.1452,5.3054,5.0797,5.5206,-0.1797,-3.4242
2.3341,3.5123,1.3228,3.7146,4.2754,2.8959,4.9469,2.4655,4.3001,5.6888,7.1436,6.0042,4.6356,3.7204,1.7646,4.5718,4.7362,1.885,4.4293,4.3287,3.662,3.696,2.1963,4.1796,3.992,5.1719,4.8162,5.1797,-0.1781,-3.5666
2.2301,3.3565,1.1138,3.5814,4.3394,2.9263,5.1145,2.6682,4.5599,5.8382,7.287,5.7624,4.4957,3.5672,1.6761,4.3706,4.6851,1.6519,4.3436,4.1336,3.4851,3.4975,1.9734,3.9335,3.7986,5.0283,4.498,4.7819,-0.1645,-3.7041
2.0665,3.1556,0.8616,3.4068,4.3577,2.9443,5.2314,2.8949,4.8561,5.9378,7.4454,5.4679,4.2704,3.3392,1.5375,4.0991,4.5157,1.3291,4.1612,3.8742,3.2424,3.2182,1.6654,3.6413,3.5754,4.8832,4.1405,4.3434,-0.1417,-3.8221
1.8409,2.9188,0.5588,3.1954,4.3211,2.9338,5.272,3.114,5.1504,5.956,7.5842,5.1231,3.9598,3.0398,1.3442,3.7676,4.2371,0.9281,3.8922,3.5573,2.9395,2.8764,1.2883,3.3183,3.3382,4.7508,3.7613,3.8878,-0.1161,-3.9023
1.5451,2.6439,0.196,2.941,4.2124,2.8701,5.2111,3.2901,5.4045,5.8673,7.6727,4.7361,3.5643,2.6671,1.0885,3.3768,3.8561,0.458,3.5429,3.1797,2.5724,2.4863,0.8582,2.978,3.1055,4.6489,3.378,3.4433,-0.0961,-3.928
1.1688,2.3187,-0.2334,2.6294,4.0111,2.7269,5.0296,3.3905,5.5865,5.6575,7.6911,4.3225,3.0863,2.2155,0.7636,2.919,3.3769,-0.0731,3.1152,2.7299,2.1306,2.0561,0.3899,2.6313,2.8952,4.5949,3.0067,3.0396,-0.0907,-3.8871
0.704,1.9243,-0.73,2.2425,3.6979,2.4818,4.719,3.3913,5.6771,5.3278,7.6348,3.9042,2.5321,1.6785,0.3654,2.3821,2.8011,-0.6575,2.6078,2.1925,1.5998,1.5883,-0.1047,2.2844,2.7219,4.6014,2.6607,2.7028,-0.1076,-3.775
0.1478,1.4404,-1.2876,1.7634,3.2604,2.1222,4.2845,3.2825,5.6719,4.8961,7.5157,3.5068,1.9121,1.0518,-0.1071,1.7538,2.13,-1.2871,2.0183,1.5522,0.9664,1.0804,-0.617,1.9385,2.5936,4.6723,2.3482,2.451,-0.1511,-3.5918
-0.4958,0.8508,-1.8945,1.18,2.6952,1.6485,3.7452,3.0704,5.5816,4.3941,7.3591,3.1557,1.2407,0.3354,-0.6547,1.0257,1.3675,-1.9526,1.3458,0.7985,0.2219,0.5271,-1.1414,1.5897,2.5109,4.8,2.0713,2.2905,-0.221,-3.339
-1.2151,0.1473,-2.5368,0.4891,2.0096,1.0731,3.1312,2.7759,5.4298,3.8619,7.1978,2.8701,0.5351,-0.4643,-1.2792,0.1971,0.5231,-2.6438,0.5938,-0.0714,-0.6346,-0.0771,-1.6749,1.2302,2.4659,4.9645,1.8253,2.2132,-0.3125,-3.0163
-1.992,-0.6665,-3.2014,-0.303,1.2207,0.4184,2.4787,2.4307,5.2474,3.34,7.0642,2.6589,-0.1867,-1.3346,-1.9822,-0.7234,-0.3865,-3.3494,-0.2283,-1.0498,-1.594,-0.7354,-2.2161,0.8494,2.4438,5.1346,1.5978,2.1961,-0.4163,-2.6208
-2.8031,-1.5739,-3.8775,-1.1793,0.3541,-0.2876,1.8244,2.0714,5.0672,2.8624,6.9825,2.5162,-0.9081,-2.2561,-2.7614,-1.7169,-1.3377,-4.0571,-1.1048,-2.1177,-2.637,-1.4461,-2.7647,0.4369,2.424,5.2716,1.3703,2.2025,-0.5204,-2.15
-3.6212,-2.5458,-4.5551,-2.113,-0.5583,-1.0141,1.2006,1.734,4.9185,2.4507,6.9628,2.4216,-1.6154,-3.2047,-3.6058,-2.7562,-2.3024,-4.7537,-2.0149,-3.246,-3.7351,-2.2025,-3.321,-0.0164,2.3832,5.3343,1.1201,2.1867,-0.6111,-1.6067
-4.418,-3.5428,-5.2226,-3.069,-1.4801,-1.7301,0.6323,1.4497,4.8231,2.1115,6.9994,2.342,-2.299,-4.1542,-4.4925,-3.8082,-3.252,-5.4245,-2.935,-4.3979,-4.8534,-2.9926,-3.8852,-0.5167,2.2981,5.2842,0.8227,2.0996,-0.6751,-1.0026
-5.1658,-4.5201,-5.8633,-4.0077,-2.3732,-2.4051,0.1354,1.2416,4.7931,1.8368,7.0727,2.2375,-2.9539,-5.0795,-5.3867,-4.8379,-4.1617,-6.0541,-3.8428,-5.5338,-5.955,-3.8018,-4.4583,-1.0668,2.1483,5.0919,0.4556,1.8966,-0.7013,-0.359
-5.8412,-5.4336,-6.455,-4.8894,-3.2016,-3.0114,-0.2832,1.1232,4.8299,1.6088,7.1539,2.0686,-3.5796,-5.9593,-6.2455,-5.8135,-5.013,-6.6267,-4.7189,-6.6156,-7.0057,-4.6142,-5.041,-1.666,1.9195,4.7418,0.0019,1.545,-0.6815,0.295
-6.4273,-6.2463,-6.9719,-5.6796,-3.9355,-3.5259,-0.6237,1.0977,4.9254,1.4052,7.2127,1.805,-4.178,-6.7778,-7.0242,-6.7088,-5.7949,-7.1286,-5.5487,-7.612,-7.9774,-5.4153,-5.6336,-2.3086,1.6054,4.2362,-0.5454,1.0316,-0.6126,0.9261
-6.9157,-6.9334,-7.3886,-6.354,-4.5546,-3.9328,-0.8913,1.1577,5.0637,1.2065,7.2252,1.4334,-4.751,-7.5245,-7.683,-7.5063,-6.502,-7.55,-6.3221,-8.5004,-8.8502,-6.1915,-6.2342,-2.983,1.2103,3.5981,-1.1794,0.3673,-0.4964,1.5015
-7.3069,-7.4848,-7.6855,-6.9006,-5.0497,-4.2256,-1.0927,1.2872,5.2247,1.001,7.1797,0.9627,-5.2966,-8.1919,-8.1937,-8.1965,-7.1331,-7.8866,-7.0321,-9.2682,-9.6122,-6.9303,-6.8368,-3.6696,0.7494,2.8703,-1.877,-0.4108,-0.3402,1.993
-7.6091,-7.9048,-7.8535,-7.3207,-5.423,-4.4084,-1.2346,1.463,5.3867,0.7883,7.0796,0.4252,-5.8073,-8.7742,-8.5444,-8.7779,-7.6884,-8.1406,-7.6729,-9.9122,-10.2584,-7.6187,-7.4301,-4.3411,0.2492,2.112,-2.5989,-1.2422,-0.1564,2.3811
-7.8362,-8.2091,-7.8968,-7.6268,-5.6865,-4.4952,-1.3225,1.6579,5.5297,0.5783,6.9421,-0.128,-6.2696,-9.2658,-8.7423,-9.2546,-8.1681,-8.3205,-8.2394,-10.4367,-10.789,-8.243,-7.9969,-4.9638,-0.2553,1.3922,-3.2936,-2.0509,0.0385,2.6581
-8.0058,-8.4211,-7.8327,-7.84,-5.86,-4.509,-1.362,1.8435,5.6374,0.3882,6.7938,-0.6346,-6.6658,-9.6625,-8.8124,-9.636,-8.5728,-8.4396,-8.7267,-10.8527,-11.2094,-8.7892,-8.5159,-5.5019,-0.7239,0.7801,-3.9048,-2.7553,0.2265,2.8293
-8.1365,-8.5675,-7.6888,-7.9857,-5.968,-4.4783,-1.3606,1.9932,5.6975,0.2365,6.6634,-1.0323,-6.9787,-9.9633,-8.7934,-9.9354,-8.9048,-8.5145,-9.1316,-11.1758,-11.5292,-9.2452,-8.9651,-5.9232,-1.1173,0.3355,-4.3802,-3.2813,0.3896,2.9122
-8.246,-8.6747,-7.4987,-8.0895,-6.0369,-4.4339,-1.3292,2.0838,5.7022,0.1381,6.5756,-1.2694,-7.1954,-10.1729,-8.7304,-10.1692,-9.1696,-8.5618,-9.4539,-11.4248,-11.7629,-9.6029,-9.3253,-6.2048,-1.4026,0.0999,-4.6808,-3.5731,0.5125,2.933
-8.3487,-8.7649,-7.2969,-8.1739,-6.0918,-4.4046,-1.2828,2.0986,5.6475,0.0997,6.5462,-1.314,-7.3111,-10.3024,-8.6667,-10.3553,-9.3767,-8.5956,-9.6974,-11.6192,-11.9283,-9.8601,-9.5836,-6.3371,-1.5584,0.0898,-4.7866,-3.6016,0.5848,2.9222
-8.4542,-8.855,-7.1136,-8.2547,-6.1535,-4.4134,-1.2386,2.0287,5.5338,0.1186,6.5798,-1.1583,-7.3305,-10.3688,-8.6373,-10.5115,-9.5387,-8.6244,-9.8703,-11.7775,-12.0454,-10.0215,-9.7354,-6.3257,-1.5784,0.2951,-4.7004,-3.3685,0.6019,2.9094
-8.567,-8.9545,-6.9703,-8.3412,-6.236,-4.4748,-1.2133,1.8744,5.3662,0.184,6.6706,-0.8192,-7.2676,-10.393,-8.6635,-10.6532,-9.6692,-8.6502,-9.9843,-11.915,-12.134,-10.0983,-9.7848,-6.1901,-1.4715,0.6807,-4.446,-2.9056,0.5666,2.9192
-8.6863,-9.0663,-6.8775,-8.4356,-6.3457,-4.5926,-1.2195,1.6464,5.1554,0.2807,6.8059,-0.3343,-7.1427,-10.3956,-8.7509,-10.7908,-9.7797,-8.6689,-10.0532,-12.0418,-12.2107,-10.1064,-9.7438,-5.9602,-1.2612,1.192,-4.0637,-2.2687,0.4887,2.9676
-8.8067,-9.1864,-6.8336,-8.5345,-6.4806,-4.7597,-1.2621,1.3659,4.9184,0.3929,6.97,0.2451,-6.9791,-10.3938,-8.8902,-10.9282,-9.8765,-8.6712,-10.0901,-12.1625,-12.2867,-10.0639,-9.631,-5.6717,-0.9815,1.7637,-3.6031,-1.5293,0.3843,3.0603
-8.9193,-9.3057,-6.8262,-8.6307,-6.6307,-4.9588,-1.3365,1.0624,4.6777,0.5085,7.1479,0.863,-6.7983,-10.3975,-9.0595,-11.0623,-9.9586,-8.6457,-10.1049,-12.2751,-12.3659,-9.9879,-9.4684,-5.3599,-0.6724,2.3293,-3.1155,-0.7635,0.2732,3.192
-9.013,-9.4105,-6.8353,-8.7135,-6.7796,-5.1645,-1.4284,0.7718,4.4597,0.6214,7.3284,1.4663,-6.6171,-10.4082,-9.2289,-11.1829,-10.0174,-8.5809,-10.1027,-12.3722,-12.4444,-9.8924,-9.2792,-5.056,-0.3746,2.8301,-2.6463,-0.0416,0.1759,3.3478
-9.0757,-9.4856,-6.8379,-8.7712,-6.9071,-5.3471,-1.5166,0.5306,4.291,0.7313,7.5047,2.0126,-6.4453,-10.4195,-9.3669,-11.2758,-10.0395,-8.4683,-10.0833,-12.4422,-12.5119,-9.7869,-9.0848,-4.7827,-0.1241,3.2222,-2.2303,0.5807,0.1092,3.5066
-9.0962,-9.5174,-6.8128,-8.7929,-6.9932,-5.4783,-1.5773,0.3708,4.1938,0.8418,7.6737,2.4732,-6.2866,-10.4202,-9.4464,-11.327,-10.0111,-8.3057,-10.0434,-12.4732,-12.5554,-9.6773,-8.9031,-4.5536,0.0524,3.4806,-1.889,1.0678,0.0839,3.6455
-9.0671,-9.4981,-6.7448,-8.7711,-7.0223,-5.5364,-1.5898,0.313,4.1814,0.9575,7.8337,2.8344,-6.1398,-10.3983,-9.4505,-11.3268,-9.9241,-8.0995,-9.9796,-12.456,-12.563,-9.5672,-8.7475,-4.3738,0.1406,3.5995,-1.6315,1.4059,0.1028,3.7455
-8.9864,-9.4283,-6.6271,-8.7047,-6.9867,-5.5112,-1.5412,0.3624,4.2545,1.0801,7.9827,3.096,-6.0017,-10.345,-9.376,-11.2739,-9.7799,-7.8645,-9.8913,-12.3883,-12.5279,-9.4599,-8.6263,-4.2412,0.1399,3.5901,-1.4563,1.6007,0.1607,3.7944
-8.8588,-9.3176,-6.4633,-8.5993,-6.8887,-5.4064,-1.4298,0.5068,4.4003,1.2066,8.1156,3.267,-5.8693,-10.2567,-9.2334,-11.1759,-9.5903,-7.6221,-9.7821,-12.275,-12.45,-9.3586,-8.5421,-4.1487,0.063,3.476,-1.3542,1.6729,0.2455,3.7896
-8.6938,-9.1822,-6.2651,-8.4658,-6.7388,-5.2377,-1.2644,0.719,4.5948,1.3293,8.2248,3.3617,-5.7401,-10.1356,-9.0436,-11.0472,-9.3745,-7.3947,-9.6586,-12.1274,-12.3347,-9.2652,-8.4906,-4.086,-0.0672,3.2881,-1.3112,1.652,0.3413,3.7368
-8.5039,-9.04,-6.0501,-8.3175,-6.5526,-5.0281,-1.0613,0.9636,4.8075,1.4374,8.2996,3.3951,-5.6127,-9.9864,-8.8323,-10.904,-9.1528,-7.1999,-9.5272,-11.9589,-12.1899,-9.178,-8.4601,-4.0405,-0.2216,3.0592,-1.3105,1.5696,0.4311,3.6475
-8.2999,-8.9046,-5.8368,-8.1644,-6.3449,-4.8014,-0.8393,1.2042,5.0071,1.5209,8.329,3.38,-5.4844,-9.8138,-8.6223,-10.7581,-8.9403,-7.0455,-9.3897,-11.7797,-12.0213,-9.0889,-8.4313,-3.9982,-0.3698,2.8199,-1.3342,1.4543,0.5003,3.5345
-8.0876,-8.7797,-5.6394,-8.0096,-6.1254,-4.5747,-0.6146,1.4116,5.1672,1.5743,8.3029,3.3253,-5.3511,-9.6183,-8.427,-10.6116,-8.741,-6.927,-9.2405,-11.5917,-11.8284,-8.9825,-8.3791,-3.9443,-0.485,2.5955,-1.3651,1.3284,0.5388,3.4076
-7.8657,-8.6569,-5.4648,-7.8466,-5.8946,-4.355,-0.3965,1.5684,5.2703,1.5988,8.2149,3.2365,-5.2055,-9.3942,-8.2462,-10.4542,-8.5461,-6.8278,-9.065,-11.3863,-11.6019,-8.8373,-8.2755,-3.8644,-0.5474,2.404,-1.3874,1.2063,0.5424,3.2698
-7.6265,-8.517,-5.3119,-7.6607,-5.6451,-4.1388,-0.1869,1.671,5.3087,1.6029,8.0628,3.1167,-5.0375,-9.1297,-8.0654,-10.2654,-8.3355,-6.7242,-8.8426,-11.145,-11.3257,-8.6288,-8.0939,-3.7456,-0.5471,2.2559,-1.3878,1.0958,0.513,3.1158
-7.3585,-8.335,-5.1726,-7.4337,-5.3648,-3.9156,0.0187,1.7273,5.2841,1.6007,7.8509,2.9703,-4.8354,-8.8102,-7.8602,-10.0197,-8.0831,-6.5907,-8.5515,-10.8449,-10.9803,-8.3348,-7.8141,-3.5776,-0.4835,2.1548,-1.3557,1.001,0.4566,2.9341
-7.0501,-8.0885,-5.036,-7.1502,-5.0423,-3.6738,0.2284,1.753,5.2067,1.6094,7.5906,2.8063,-4.5877,-8.4219,-7.6041,-9.6946,-7.7649,-6.407,-8.1754,-10.4652,-10.5493,-7.9413,-7.4261,-3.3542,-0.3644,2.0991,-1.2831,0.9249,0.3815,2.7097
-6.6937,-7.7639,-4.8916,-6.8029,-4.6714,-3.4063,0.4507,1.7677,5.0932,1.6466,7.301,2.6406,-4.2848,-7.9563,-7.2759,-9.2779,-7.3654,-6.1616,-7.7082,-9.9937,-10.0246,-7.4453,-6.9336,-3.0739,-0.2038,2.0833,-1.1644,0.8733,0.2961,2.4297
-6.2874,-7.3609,-4.7321,-6.3955,-4.2541,-3.1131,0.6925,1.7908,4.9649,1.728,7.0081,2.4973,-3.9205,-7.4123,-6.8651,-8.771,-6.8815,-5.8536,-7.1556,-9.431,-9.4088,-6.8564,-6.3532,-2.7396,-0.0193,2.1,-0.996,0.8553,0.2075,2.0861
-5.835,-6.8925,-4.5537,-5.9412,-3.7995,-2.802,0.9581,1.8381,4.8455,1.8654,6.7421,2.4055,-3.4925,-6.7969,-6.3734,-8.1888,-6.3228,-5.491,-6.5325,-8.7896,-8.7152,-6.1943,-5.7115,-2.3584,0.1712,2.1416,-0.7763,0.8835,0.1207,1.6779
-5.345,-6.3805,-4.3558,-5.4587,-3.3204,-2.4853,1.2488,1.9196,4.7576,2.0657,6.5325,2.3943,-3.0031,-6.1232,-5.8121,-7.5552,-5.7074,-5.0875,-5.8589,-8.0908,-7.9642,-5.4848,-5.0408,-1.9394,0.3519,2.2012,-0.5059,0.971,0.0385,1.2097
-4.8283,-5.8491,-4.1383,-4.9663,-2.8297,-2.1748,1.5636,2.0381,4.719,2.3293,6.403,2.4861,-2.4584,-5.4082,-5.1982,-6.8972,-5.0576,-4.6596,-5.1548,-7.3595,-7.1788,-4.7544,-4.3725,-1.4926,0.5122,2.2745,-0.1878,1.1283,-0.038,0.6897
-4.296,-5.3193,-3.9007,-4.4769,-2.3361,-1.8776,1.8996,2.1899,4.7398,2.6498,6.3665,2.6907,-1.8676,-4.6692,-4.5506,-6.2391,-4.3953,-4.2233,-4.4372,-6.6186,-6.3802,-4.0262,-3.7329,-1.0268,0.6486,2.3597,0.1728,1.3597,-0.1096,0.1277
-3.7577,-4.8037,-3.6406,-3.9957,-1.8435,-1.5927,2.2531,2.3663,4.8216,3.014,6.423,3.0018,-1.2422,-3.922,-3.8864,-5.5981,-3.7385,-3.7924,-3.719,-5.8865,-5.5847,-3.3171,-3.1389,-0.5481,0.7656,2.4574,0.5686,1.6614,-0.1783,-0.4671
-3.2208,-4.3062,-3.3546,-3.5208,-1.3511,-1.3119,2.6197,2.5559,4.9575,3.404,6.5596,3.3972,-0.5951,-3.1792,-3.2197,-4.983,-3.1001,-3.3755,-3.0093,-5.1746,-4.803,-2.6367,-2.5964,-0.0605,0.8751,2.5702,0.9908,2.0204,-0.2465,-1.0861
-2.6904,-3.8232,-3.039,-3.0456,-0.8559,-1.0221,2.995,2.7474,5.1345,3.8001,6.7539,3.8426,0.0602,-2.4493,-2.5608,-4.3947,-2.4869,-2.9749,-2.3147,-4.4886,-4.0406,-1.9879,-2.1003,0.4341,0.9935,2.7009,1.4299,2.4167,-0.3168,-1.7218
-2.169,-3.3461,-2.6913,-2.5622,-0.3549,-0.7093,3.3748,2.9322,5.3364,4.1832,6.9782,4.298,0.7105,-1.7373,-1.9154,-3.828,-1.9006,-2.5863,-1.6399,-3.8293,-3.299,-1.368,-1.6368,0.9342,1.1382,2.8511,1.8765,2.8253,-0.3904,-2.3675
-1.6576,-2.866,-2.3118,-2.0655,0.1526,-0.3632,3.7548,3.1054,5.546,4.5376,7.2042,4.7231,1.3433,-1.0451,-1.2855,-3.2749,-1.338,-2.1995,-0.9884,-3.1944,-2.5773,-0.7708,-1.1868,1.4374,1.323,3.0193,2.3215,3.2193,-0.4671,-3.017
-1.1565,-2.3762,-1.9044,-1.5547,0.664,0.0196,4.1288,3.2654,5.747,4.8514,7.4062,5.0836,1.9461,-0.3738,-0.67,-2.7278,-0.7942,-1.8021,-0.3628,-2.5809,-1.874,-0.189,-0.7312,1.9384,1.5546,3.1999,2.7553,3.5727,-0.5445,-3.6641
-0.6664,-1.8753,-1.4771,-1.0346,1.1723,0.4335,4.4881,3.4124,5.9243,5.1151,7.5626,5.3529,2.5061,0.274,-0.0677,-2.1826,-0.2651,-1.3839,0.234,-1.9866,-1.1898,0.3829,-0.2563,2.4276,1.8298,3.3818,3.1664,3.862,-0.6183,-4.2998
-0.1897,-1.3676,-1.0413,-0.5149,1.6663,0.8642,4.8196,3.5458,6.0638,5.3204,7.6563,5.5133,3.0087,0.8919,0.5198,-1.6402,0.2494,-0.9416,0.798,-1.4113,-0.5282,0.946,0.2416,2.8908,2.1344,3.5488,3.5404,4.0667,-0.6833,-4.9109
0.2691,-0.862,-0.6105,-0.0082,2.1326,1.2916,5.1066,3.6635,6.1526,5.4587,7.6741,5.5546,3.4378,1.469,1.086,-1.1066,0.7443,-0.4809,1.3231,-0.8572,0.1035,1.4952,0.7541,3.3097,2.4454,3.6807,3.8591,4.1702,-0.7347,-5.4782
0.7036,-0.3696,-0.1987,0.4733,2.5579,1.6935,5.3312,3.7609,6.1805,5.5217,7.6062,5.4734,3.7774,1.9903,1.6194,-0.5902,1.2108,-0.0163,1.8026,-0.3277,0.6955,2.02,1.262,3.6635,2.7334,3.7558,4.1021,4.1604,-0.7689,-5.9779
1.1074,0.0991,0.1828,0.9199,2.9317,2.0501,5.478,3.8328,6.1409,5.5031,7.4474,5.2723,4.0145,2.4404,2.1054,-0.0998,1.6386,0.4332,2.2302,0.1737,1.2377,2.5064,1.739,3.9325,2.9675,3.7544,4.2493,4.0311,-0.7851,-6.3852
1.4755,0.5372,0.526,1.3268,3.2491,2.3483,5.5383,3.8758,6.0329,5.4014,7.1974,4.9595,4.1426,2.8073,2.5308,0.3588,2.0198,0.8491,2.6027,0.6452,1.7228,2.9406,2.1582,4.1017,3.1205,3.6614,4.2855,3.7836,-0.7848,-6.68
1.8067,0.9423,0.8285,1.6942,3.5127,2.5849,5.5135,3.8904,5.8621,5.2227,6.863,4.5496,4.165,3.0863,2.8888,0.7842,2.351,1.2192,2.9212,1.0875,2.1486,3.3122,2.4977,4.1638,3.1726,3.4692,4.2034,3.427,-0.7724,-6.8538
2.1045,1.3167,1.0928,2.0277,3.7329,2.7676,5.417,3.8815,5.6411,4.982,6.4584,4.0641,4.0966,3.2831,3.1828,1.1798,2.634,1.5404,3.1921,1.5039,2.5189,3.6171,2.7461,4.1224,3.1155,3.1789,4.0078,2.9794,-0.754,-6.9136
2.3774,1.6665,1.3262,2.3368,3.927,2.9153,5.2728,3.8584,5.3874,4.7031,6.0055,3.5305,3.9627,3.4137,3.4275,1.5525,2.8759,1.8193,3.4262,1.9,2.8443,3.8586,2.9039,3.992,2.9533,2.8009,3.7161,2.4666,-0.7367,-6.8837
2.6372,1.9996,1.5393,2.633,4.1164,3.0549,5.1123,3.832,5.1218,4.4151,5.5321,2.9816,3.7968,3.5029,3.6468,1.9109,3.0877,2.0694,3.6372,2.2819,3.1391,4.0468,2.9836,3.7971,2.7024,2.3545,3.3573,1.9202,-0.7273,-6.8024
2.8967,2.3233,1.7451,2.9272,4.3218,3.2153,4.9688,3.8129,4.8652,4.1488,5.0682,2.4517,3.6356,3.5797,3.8698,2.263,3.2827,2.3065,3.8395,2.655,3.4193,4.1962,3.0065,3.5698,2.389,1.8663,2.9695,1.3752,-0.731,-6.7164
3.1669,2.6425,1.9562,3.227,4.559,3.421,4.8722,3.8093,4.6357,3.931,4.6428,1.9741,3.5141,3.673,4.1253,2.6142,3.4752,2.5446,4.0464,3.0223,3.6993,4.3243,2.9985,3.3456,2.0463,1.3682,2.5945,0.8666,-0.751,-6.6737
3.4547,2.9586,2.183,3.5349,4.8351,3.6855,4.8438,3.8252,4.4461,3.7818,4.2798,1.5771,3.4615,3.8073,4.436,2.9671,3.6794,2.7919,4.2683,3.3846,3.9899,4.4485,2.9859,3.1599,1.7109,0.8947,2.2735,0.4263,-0.7878,-6.7163
3.7624,3.2702,2.4311,3.8494,5.1486,4.0084,4.8943,3.8608,4.3036,3.7123,3.996,1.2817,3.4988,4.0003,4.814,3.3221,3.9093,3.0494,4.5136,3.7421,4.2986,4.5856,2.993,3.0443,1.419,0.481,2.0423,0.0811,-0.8398,-6.8736
4.0884,3.5762,2.7011,4.167,5.4909,4.3767,5.0242,3.9133,4.2102,3.7253,3.8002,1.1004,3.6384,4.263,5.2579,3.6799,4.1779,3.312,4.7889,4.0968,4.6307,4.7514,3.0395,3.0243,1.203,0.1599,1.928,-0.1489,-0.9038,-7.1571
4.4283,3.8782,2.9892,4.4852,5.8512,4.7692,5.2255,3.9784,4.1638,3.8173,3.6939,1.0363,3.8843,4.5995,5.7522,4.044,4.4963,3.5712,5.1002,4.4543,4.991,4.96,3.1404,3.1169,1.0885,-0.041,1.9469,-0.2513,-0.9749,-7.5587
4.7769,4.182,3.2876,4.8046,6.2189,5.1619,5.4848,4.0518,4.16,3.9805,3.6719,1.0842,4.2332,5.0077,6.2698,4.4208,4.8716,3.8187,5.4522,4.8239,5.3832,5.2221,3.3044,3.3289,1.091,-0.1029,2.1027,-0.223,-1.0484,-8.0517
5.1281,4.4949,3.5858,5.1271,6.5854,5.532,5.7849,4.1294,4.1936,4.2032,3.7243,1.2308,4.6739,5.4786,6.7772,4.8175,5.3032,4.0483,5.8462,5.215,5.8086,5.5427,3.5333,3.6553,1.2144,-0.0194,2.3863,-0.0703,-1.1194,-8.596
5.4739,4.8216,3.8696,5.4529,6.9423,5.8607,6.106,4.2072,4.2586,4.4707,3.8372,1.4564,5.1867,5.9951,7.2402,5.2375,5.7803,4.2565,6.2765,5.6318,6.2618,5.9178,3.8209,4.0784,1.4498,0.2009,2.7765,0.1899,-1.1841,-9.1458
5.8029,5.1582,4.1218,5.7754,7.2785,6.1321,6.4266,4.281,4.3483,4.7652,3.9944,1.7362,5.7433,6.5315,7.6302,5.6754,6.2791,4.442,6.7277,6.0676,6.728,6.3332,4.1526,4.5691,1.777,0.5337,3.2413,0.5312,-1.2402,-9.6582
6.0998,5.4891,4.3228,6.0786,7.5785,6.334,6.7242,4.3459,4.455,5.0661,4.178,2.0425,6.3078,7.0548,7.9272,6.1136,6.7649,4.6033,7.1738,6.5021,7.1821,6.7644,4.5067,5.0891,2.1662,0.9413,3.7418,0.9195,-1.2862,-10.0987
6.3458,5.7881,4.4531,6.3379,7.8232,6.4571,6.977,4.3968,4.5695,5.3507,4.3695,2.3466,6.8393,7.5274,8.121,6.5223,7.1951,4.7376,7.5806,6.9022,7.5909,7.1793,4.8568,5.5948,2.5816,1.3765,4.2358,1.3158,-1.3217,-10.4443
6.5208,6.0233,4.4975,6.5246,7.9926,6.4969,7.1658,4.4286,4.6814,5.5956,4.5501,2.6208,7.2956,7.912,8.2104,6.8639,7.5261,4.8388,7.9094,7.2271,7.918,7.5426,5.1747,6.0415,2.9844,1.7883,4.6812,1.6805,-1.3466,-10.6833
6.6074,6.1647,4.449,6.6126,8.0705,6.4547,7.2764,4.4371,4.7792,5.7793,4.7016,2.8399,7.6377,8.1762,8.2013,7.0988,7.7199,4.8984,8.1239,7.4364,8.1304,7.8206,5.4343,6.3886,3.3366,2.1284,5.0396,1.9762,-1.3606,-10.8132
6.5941,6.1908,4.3122,6.5848,8.0489,6.3388,7.3012,4.42,4.8522,5.8839,4.8075,2.9828,7.8346,8.2974,8.1059,7.1943,7.751,4.9066,8.1959,7.4987,8.2047,7.9857,5.6134,6.6028,3.604,2.356,5.2787,2.172,-1.3634,-10.8385
6.4785,6.0935,4.1032,6.4377,7.9301,6.1641,7.2397,4.3774,4.892,5.8977,4.8545,3.0343,7.8665,8.2657,7.9407,7.1307,7.6107,4.8552,8.111,7.3983,8.1314,8.02,5.6955,6.6613,3.7581,2.4426,5.3744,2.2459,-1.3542,-10.7682
6.2685,5.8794,3.8471,6.1825,7.7273,5.9506,7.0985,4.3119,4.8937,5.8165,4.8341,2.9865,7.7274,8.0844,7.7239,6.906,7.3086,4.7404,7.8712,7.1383,7.916,7.9171,5.67,6.554,3.7794,2.3741,5.3128,2.1869,-1.3322,-10.613
5.9809,5.5672,3.573,5.8422,7.4617,5.7201,6.8896,4.2294,4.8573,5.645,4.7448,2.8407,7.4256,7.769,7.4711,6.5365,6.8713,4.5645,7.4949,6.7394,7.5768,7.6821,5.5318,6.2841,3.6594,2.1524,5.0921,1.9968,-1.2973,-10.3825
5.6379,5.1834,3.307,5.4465,7.1574,5.4923,6.6293,4.1371,4.7876,5.3966,4.5934,2.6087,6.9835,7.3439,7.1915,6.0527,6.3375,4.3357,7.0131,6.2345,7.1405,7.3307,5.2823,5.869,3.403,1.7957,4.7245,1.6915,-1.2505,-10.0828
5.263,4.7567,3.066,5.0253,6.837,5.2813,6.3366,4.0432,4.6939,5.0931,4.3958,2.3141,6.4359,6.8392,6.8862,5.4937,5.7513,4.0665,6.4644,5.6622,6.6375,6.8868,4.9301,5.3394,3.0303,1.3373,4.2378,1.3007,-1.1948,-9.7172
4.8768,4.3137,2.8546,4.6042,6.5178,5.0935,6.032,3.9554,4.5893,4.7638,4.1766,1.9915,5.8272,6.2884,6.5493,4.9001,5.1549,3.7709,5.888,5.0599,6.0973,6.3805,4.4923,4.7382,2.5761,0.8242,3.6752,0.8677,-1.1348,-9.2892
4.4955,3.876,2.6646,4.2011,6.2104,4.9278,5.7378,3.881,4.4894,4.4435,3.9682,1.6846,5.2088,5.7257,6.1725,4.3075,4.5831,3.4618,5.3185,4.459,5.5467,5.8446,3.9954,4.1176,2.0872,0.3123,3.0926,0.4453,-1.0768,-8.8073
4.1296,3.4588,2.4788,3.8256,5.9199,4.778,5.4773,3.8266,4.411,4.1691,3.8064,1.4423,4.6338,5.1847,5.7503,3.7428,4.0583,3.1494,4.7819,3.8826,5.0085,5.312,3.4737,3.5342,1.6163,-0.1385,2.5538,0.0914,-1.0273,-8.2891
3.7852,3.0704,2.2775,3.4803,5.6477,4.6357,5.273,3.798,4.3693,3.9756,3.7264,1.3118,4.1519,4.6964,5.2852,3.2217,3.5895,2.8398,4.2931,3.3444,4.5012,4.8121,2.9659,3.0423,1.2147,-0.4731,2.1213,-0.1393,-0.9921,-7.7627
3.4647,2.7132,2.0434,3.1622,5.3931,4.4936,5.1434,3.7989,4.3751,3.8904,3.7554,1.331,3.8031,4.2864,4.7894,2.749,3.1727,2.535,3.8568,2.8498,4.0387,4.3679,2.5095,2.6861,0.9242,-0.6487,1.8471,-0.2028,-0.9755,-7.2641
3.1678,2.384,1.7667,2.8647,5.1546,4.3466,5.0989,3.8292,4.4322,3.928,3.9073,1.5215,3.6108,3.9713,4.2842,2.3194,2.794,2.2338,3.4689,2.3973,3.6295,3.9938,2.1346,2.4922,0.7703,-0.6421,1.7633,-0.0741,-0.9789,-6.8316
2.892,2.0748,1.4466,2.5794,4.9296,4.192,5.1377,3.8838,4.5357,4.086,4.1789,1.8832,3.5784,3.7557,3.796,1.9208,2.4345,1.9341,3.1192,1.9798,3.275,3.6944,1.8586,2.4652,0.7589,-0.4532,1.8762,0.2486,-1.002,-6.4984
2.6321,1.7748,1.0904,2.2968,4.7137,4.028,5.2445,3.9517,4.6722,4.3447,4.5492,2.393,3.6871,3.6301,3.3523,1.5373,2.0757,1.6345,2.7952,1.5866,2.9691,3.4653,1.6836,2.587,0.8759,-0.1056,2.1652,0.7427,-1.0421,-6.2866
2.3814,1.472,0.7113,2.0075,4.5001,3.8526,5.3916,4.0173,4.8215,4.6688,4.9825,3.008,3.8994,3.5727,2.976,1.1531,1.7039,1.3358,2.4854,1.2054,2.6988,3.2945,1.5976,2.8207,1.0915,0.3591,2.5867,1.3653,-1.0955,-6.2028
2.1323,1.1558,0.3254,1.704,4.2808,3.6637,5.5435,4.0628,4.9606,5.0143,5.4343,3.6728,4.1666,3.5537,2.6818,0.7561,1.3137,1.041,2.1822,0.8253,2.447,3.1668,1.5784,3.1187,1.3665,0.8886,3.0838,2.0606,-1.1573,-6.2372
1.8782,0.8196,-0.0514,1.3825,4.0487,3.4592,5.6644,4.0714,5.0677,5.3354,5.8593,4.3287,4.4378,3.5416,2.4719,0.341,0.9084,0.7555,1.8831,0.4392,2.1967,3.0665,1.5999,3.4323,1.6604,1.4295,3.5971,2.7704,-1.2229,-6.3641
1.616,0.4636,-0.4048,1.0444,3.7996,3.2394,5.7256,4.0314,5.1268,5.5939,6.2192,4.9246,4.6708,3.5108,2.3349,-0.0887,0.4994,0.4858,1.5908,0.0461,1.9355,2.9817,1.6371,3.7212,1.9384,1.9363,4.0758,3.4432,-1.2875,-6.5454
1.347,0.0954,-0.723,0.6976,3.5351,3.0078,5.7121,3.9388,5.1307,5.7655,6.4888,5.4248,4.8395,3.4471,2.2464,-0.5209,0.1025,0.2388,1.312,-0.3478,1.6603,2.9053,1.6705,3.9599,2.1772,2.3774,4.486,4.0424,-1.3472,-6.7354
1.0785,-0.2703,-0.997,0.3558,3.263,2.7719,5.6251,3.7996,5.0829,5.8438,6.6598,5.8129,4.9371,3.3506,2.1728,-0.9363,-0.2657,0.0205,1.0546,-0.7294,1.3782,2.8359,1.6875,4.1398,2.3662,2.7376,4.8129,4.5489,-1.3988,-6.8871
0.8215,-0.6139,-1.221,0.0364,2.9961,2.5418,5.4809,3.6281,4.9959,5.8395,6.7398,6.0918,4.974,3.2342,2.0788,-1.3131,-0.5913,-0.166,0.8257,-1.0809,1.1056,2.7753,1.6819,4.2667,2.5067,3.0161,5.0586,4.9602,-1.4399,-6.9603
0.589,-0.9153,-1.3928,-0.2434,2.7498,2.3279,5.3059,3.4442,4.8884,5.7755,6.7491,6.2784,4.9716,3.1185,1.9343,-1.6308,-0.8665,-0.3211,0.6289,-1.384,0.8637,2.7261,1.6514,4.3546,2.6075,3.2219,5.236,5.285,-1.469,-6.9275
0.3925,-1.1572,-1.5141,-0.4697,2.5373,2.1384,5.1285,3.2689,4.7797,5.6795,6.7142,6.3966,4.9538,3.0249,1.7223,-1.8754,-1.0905,-0.4498,0.4633,-1.6233,0.6726,2.6889,1.5952,4.4193,2.68,3.3674,5.3607,5.5369,-1.4853,-6.7792
0.2396,-1.3287,-1.5903,-0.635,2.3676,1.9783,4.9726,3.1196,4.6853,5.5769,6.6617,6.4698,4.9395,2.9689,1.442,-2.0414,-1.2684,-0.5605,0.3243,-1.7898,0.5457,2.6605,1.513,4.4721,2.7339,3.4635,5.4453,5.7279,-1.4889,-6.5244
0.133,-1.4257,-1.6297,-0.7381,2.2434,1.8493,4.8523,3.0073,4.6134,5.485,6.6131,6.5156,4.9384,2.9561,1.1092,-2.1317,-1.4084,-0.6626,0.206,-1.882,0.4865,2.6348,1.405,4.5171,2.7741,3.5167,5.4962,5.8656,-1.4801,-6.1887
0.071,-1.4505,-1.6422,-0.7835,2.1618,1.7507,4.7702,2.9352,4.5637,5.411,6.5814,6.544,4.9506,2.9819,0.7527,-2.1545,-1.5167,-0.7632,0.1041,-1.9046,0.4886,2.6051,1.2746,4.5517,2.801,3.5289,5.5138,5.9521,-1.4606,-5.8082
0.049,-1.4101,-1.6378,-0.7784,2.1164,1.681,4.7191,2.899,4.5284,5.3532,6.5704,6.5573,4.9688,3.034,0.4076,-2.1201,-1.5947,-0.864,0.0191,-1.8664,0.5378,2.5662,1.1298,4.5694,2.8119,3.5,5.4959,5.9863,-1.4329,-5.4225
0.0616,-1.3146,-1.6256,-0.7315,2.0992,1.6381,4.6861,2.8882,4.4947,5.3045,6.5757,6.5532,4.9829,3.0966,0.1083,-2.038,-1.6374,-0.9599,-0.0432,-1.7787,0.6167,2.5173,0.985,4.5641,2.804,3.4308,5.4415,5.9673,-1.4011,-5.0684
0.1033,-1.1767,-1.6126,-0.6514,2.1029,1.62,4.6568,2.888,4.4484,5.2562,6.5876,6.5282,4.9848,3.1556,-0.1178,-1.9161,-1.6356,-1.0407,-0.0729,-1.6528,0.7083,2.4627,0.8599,4.5334,2.7778,3.3269,5.3549,5.8979,-1.3709,-4.7748
0.169,-1.0101,-1.6035,-0.5469,2.1216,1.6233,4.6201,2.8818,4.3775,5.2024,6.5936,6.4807,4.9717,3.202,-0.2545,-1.7608,-1.5806,-1.094,-0.0597,-1.4993,0.8002,2.4108,0.7759,4.4822,2.7386,3.2006,5.2476,5.7874,-1.3489,-4.5604
0.2539,-0.8293,-1.6011,-0.4269,2.1511,1.6436,4.5707,2.8546,4.2749,5.142,6.5822,6.4136,4.9477,3.2347,-0.2988,-1.5784,-1.4686,-1.1095,0.0027,-1.328,0.8858,2.3729,0.7521,4.4226,2.698,3.0718,5.1387,5.6518,-1.3414,-4.4326
0.3524,-0.6491,-1.6062,-0.3022,2.1873,1.6737,4.5099,2.7947,4.1395,5.0793,6.545,6.3344,4.923,3.2589,-0.2604,-1.3771,-1.305,-1.0827,0.1136,-1.1481,0.9643,2.3595,0.7996,4.3724,2.6723,2.9654,5.0518,5.513,-1.3536,-4.3885
0.4575,-0.4837,-1.6182,-0.1849,2.2251,1.7037,4.4435,2.6959,3.9765,5.0216,6.4778,6.2538,4.9109,3.2843,-0.1586,-1.1681,-1.1057,-1.0176,0.2628,-0.9688,1.0383,2.3779,0.917,4.3517,2.6796,2.9076,5.0111,5.3949,-1.388,-4.4168
0.5599,-0.3464,-1.6353,-0.0888,2.2565,1.721,4.3793,2.5583,3.795,4.9765,6.3806,6.1828,4.923,3.32,-0.0186,-0.9667,-0.896,-0.9265,0.4309,-0.801,1.1104,2.4284,1.0883,4.3773,2.736,2.9206,5.035,5.319,-1.444,-4.5003
0.6484,-0.2492,-1.6562,-0.0278,2.2704,1.7116,4.3234,2.3879,3.6065,4.9488,6.2569,6.13,4.9653,3.3705,0.1327,-0.7916,-0.7078,-0.8284,0.5915,-0.6572,1.1796,2.503,1.284,4.4578,2.8513,3.0176,5.1318,5.3002,-1.5175,-4.6184
0.7111,-0.2019,-1.6799,-0.0136,2.2541,1.6631,4.2778,2.1965,3.4227,4.9395,6.113,6.0999,5.0354,3.4324,0.27,-0.6633,-0.5741,-0.746,0.7154,-0.5522,1.2394,2.5858,1.466,4.5905,3.027,3.1993,5.2968,5.344,-1.6019,-4.7492
0.7378,-0.2109,-1.7066,-0.0531,2.1954,1.5679,4.2403,1.9998,3.2545,4.9455,5.9579,6.0922,5.1234,3.4953,0.3723,-0.6,-0.5228,-0.7001,0.7764,-0.5,1.2784,2.6554,1.5952,4.7616,3.2544,3.4531,5.5124,5.4452,-1.6883,-4.8714
0.7229,-0.2766,-1.7364,-0.1456,2.0873,1.4273,4.2057,1.8161,3.1109,4.9615,5.8026,6.1029,5.2148,3.5449,0.4251,-0.6127,-0.5689,-0.7049,0.7583,-0.51,1.2846,2.6913,1.6408,4.949,3.5159,3.7546,5.7516,5.5902,-1.7677,-4.9664
0.6686,-0.3917,-1.7681,-0.281,1.9316,1.2526,4.169,1.664,2.9993,4.9829,5.6598,6.1272,5.2959,3.5686,0.4226,-0.7001,-0.7094,-0.763,0.6602,-0.5819,1.2508,2.6797,1.5888,5.1282,3.7876,4.0708,5.9834,5.7592,-1.8318,-5.0205
0.5866,-0.5396,-1.7975,-0.4395,1.7408,1.0657,4.1277,1.5589,2.9245,5.0072,5.5429,6.1606,5.3584,3.5617,0.3697,-0.845,-0.9204,-0.8632,0.4997,-0.7021,1.1803,2.6197,1.4468,5.2784,4.0425,4.3653,6.1792,5.9307,-1.8745,-5.0273
0.4974,-0.6953,-1.8164,-0.5941,1.5377,0.895,4.0839,1.5106,2.8879,5.0351,5.4634,6.2001,5.4029,3.5304,0.2821,-1.0147,-1.1591,-0.9811,0.3111,-0.8425,1.0895,2.5251,1.2444,5.3874,4.2546,4.6035,6.3182,6.085,-1.893,-4.9892
0.4273,-0.8281,-1.813,-0.7142,1.352,0.7706,4.0441,1.5215,2.8878,5.0703,5.4287,6.2446,5.4389,3.4926,0.1856,-1.1647,-1.3711,-1.084,0.1404,-0.964,1.0067,2.4229,1.0272,5.4543,4.4034,4.7574,6.3911,6.2064,-1.8872,-4.9174
0.4041,-0.9055,-1.7722,-0.771,1.2152,0.7181,4.0181,1.586,2.9188,5.1171,5.4396,6.293,5.482,3.4738,0.1116,-1.2469,-1.5011,-1.1364,0.0352,-1.0234,0.9663,2.348,0.8476,5.4884,4.4766,4.8101,6.4007,6.2852,-1.8596,-4.8301
0.4518,-0.8982,-1.6782,-0.7415,1.155,0.7539,4.0165,1.6923,2.9728,5.179,5.489,6.3435,5.5501,3.5021,0.0923,-1.2185,-1.5037,-1.1084,0.0356,-0.982,1.0015,2.3347,0.753,5.5068,4.4724,4.7582,6.3607,6.3177,-1.8145,-4.749
0.5857,-0.784,-1.5172,-0.6121,1.1904,0.8824,4.0482,1.825,3.0406,5.2569,5.5626,6.3924,5.6584,3.6014,0.1544,-1.0505,-1.3526,-0.9808,0.1657,-0.814,1.1369,2.4094,0.7757,5.5301,4.3995,4.6127,6.2921,6.3057,-1.7571,-4.6963
0.8104,-0.5521,-1.2816,-0.3802,1.329,1.0955,4.1187,1.9688,3.1131,5.3483,5.641,6.4333,5.8168,3.7864,0.3146,-0.7339,-1.0452,-0.7497,0.4296,-0.5113,1.3829,2.5847,0.9275,5.578,4.2759,4.3973,6.219,6.2556,-1.6929,-4.6912
1.1184,-0.2054,-0.9733,-0.0542,1.5655,1.375,4.2285,2.1109,3.1826,5.4472,5.7029,6.4579,6.0268,4.0594,0.5771,-0.2812,-0.6017,-0.427,0.8118,-0.0853,1.7339,2.8576,1.1987,5.6656,4.1251,4.1443,6.164,6.1763,-1.6278,-4.749
1.4925,0.239,-0.6052,0.3477,1.8834,1.6966,4.3722,2.242,3.2426,5.5445,5.7287,6.4568,6.2825,4.4106,0.9338,0.2764,-0.0606,-0.0385,1.2812,0.4364,2.1708,3.211,1.5616,5.8006,3.9727,3.8886,6.1443,6.0774,-1.5671,-4.8793
1.9084,0.7513,-0.2008,0.7996,2.2573,2.0334,4.5393,2.3565,3.2876,5.6295,5.7034,6.4202,6.5704,4.8199,1.3664,0.8951,0.5291,0.3815,1.7973,1.0157,2.6644,3.6172,1.9775,5.9823,3.8416,3.6612,6.1681,5.9665,-1.516,-5.0848
2.3387,1.2925,0.2104,1.2707,2.6564,2.359,4.7146,2.4509,3.3115,5.6907,5.6176,6.3397,6.8714,5.2596,1.8488,1.5261,1.1168,0.7954,2.3177,1.6109,3.1809,4.0438,2.4043,6.2011,3.7483,3.484,6.2337,5.8478,-1.4783,-5.3603
2.7561,1.8199,0.5976,1.7282,3.0482,2.6504,4.8805,2.5223,3.3076,5.7179,5.4679,6.2086,7.1632,5.6985,2.3512,2.1238,1.6588,1.1688,2.8047,2.1833,3.6865,4.4583,2.8035,6.44,3.7011,3.3657,6.3292,5.7209,-1.4561,-5.6916
3.1367,2.2935,0.934,2.1417,3.4026,2.8901,5.0197,2.5675,3.2689,5.7038,5.2569,6.0237,7.4232,6.1059,2.8437,2.6521,2.1245,1.4766,3.2302,2.7011,4.1514,4.8338,3.1473,6.6775,3.7003,3.302,6.4361,5.5821,-1.449,-6.0558
3.4623,2.6828,1.2017,2.4869,3.6963,3.0674,5.1183,2.5835,3.1896,5.646,4.9916,5.7862,7.6319,6.4556,3.2996,3.0884,2.5,1.7069,3.5792,3.143,4.5522,5.1516,3.4216,6.8918,3.7398,3.2784,6.5333,5.4262,-1.4549,-6.4242
3.7223,2.9711,1.3928,2.7494,3.9149,3.1802,5.1685,2.5687,3.0678,5.5482,4.6833,5.5026,7.7763,6.7294,3.6975,3.4247,2.7873,1.8621,3.8493,3.4981,4.8744,5.4031,3.6275,7.0653,3.8111,3.2757,6.603,5.2494,-1.4701,-6.7661
3.9143,3.157,1.5097,2.9257,4.0546,3.2344,5.17,2.5237,2.906,5.4196,4.3468,5.1851,7.8521,6.919,4.0223,3.6657,3.0001,1.9569,4.0487,3.7646,5.1118,5.59,3.779,7.1884,3.906,3.2757,6.6347,5.052,-1.4908,-7.0531
4.0426,3.2516,1.5618,3.0223,4.1207,3.2427,5.1295,2.4524,2.7119,5.2736,3.9984,4.8508,7.8646,7.0263,4.2643,3.8246,3.1579,2.0137,4.1915,3.9475,5.2666,5.7214,3.8977,7.2604,4.0193,3.2667,6.6277,4.8398,-1.5139,-7.2629
4.1158,3.2743,1.5616,3.0525,4.1251,3.221,5.0584,2.3605,2.4972,5.1249,3.6549,4.52,7.8264,7.0614,4.4176,3.9173,3.279,2.0553,4.2924,4.0551,5.3463,5.8106,4.0067,7.2892,4.1488,3.2454,6.5904,4.6244,-1.5377,-7.3809
4.1435,3.2457,1.5219,3.032,4.0821,3.1849,4.9694,2.2547,2.2758,4.9866,3.3316,4.2131,7.7544,7.039,4.4805,3.9574,3.3738,2.0988,4.3621,4.0958,5.3618,5.8703,4.1241,7.2876,4.2942,3.2174,6.5371,4.4212,-1.5614,-7.4024
4.1336,3.1827,1.4536,2.9741,4.0045,3.1456,4.8739,2.1414,2.0612,4.8682,3.0411,3.9482,7.6654,6.9746,4.4559,3.9518,3.4421,2.1509,4.404,4.0763,5.3235,5.9088,4.2573,7.269,4.4544,3.1938,6.4838,4.2466,-1.5844,-7.333
4.09,3.0945,1.3647,2.886,3.9006,3.1071,4.7794,2.0256,1.8658,4.7736,2.7928,3.739,7.5719,6.8809,4.3527,3.8999,3.4723,2.2068,4.413,3.9998,5.2392,5.9275,4.4008,7.2434,4.6251,3.1876,6.4432,4.1151,-1.6057,-7.1878
4.0119,2.9813,1.2603,2.7677,3.7731,3.0652,4.6891,1.9106,1.6989,4.7023,2.5926,3.5935,7.4807,6.7657,4.1861,3.7942,3.4451,2.2522,4.3771,3.8663,5.1132,5.9203,4.5369,7.2147,4.7975,3.2084,6.4217,4.0365,-1.6231,-6.9895
3.8954,2.8357,1.1428,2.6127,3.6195,3.009,4.6026,1.7981,1.5668,4.6501,2.4436,3.5137,7.3917,6.6324,3.9764,3.6237,3.3386,2.2677,4.2808,3.6739,4.9462,5.8765,4.6394,7.1803,4.959,3.2604,6.4181,4.0153,-1.6332,-6.7651
3.7355,2.6468,1.0131,2.4115,3.4351,2.9242,4.5174,1.6896,1.4725,4.6115,2.3462,3.4965,7.301,6.4811,3.7463,3.3788,3.1358,2.2351,4.1106,3.422,4.7379,5.7841,4.6806,7.1328,5.0953,3.3406,6.4256,4.0496,-1.6323,-6.5412
3.5299,2.4058,0.8709,2.1567,3.2164,2.7978,4.4313,1.5857,1.4155,4.5808,2.2985,3.5347,7.2036,6.3121,3.5171,3.0564,2.8316,2.1433,3.8608,3.1136,4.49,5.6357,4.6394,7.0648,5.1936,3.4404,6.4345,4.133,-1.6175,-6.34
3.282,2.1115,0.717,1.8479,2.9648,2.6237,4.3439,1.4879,1.3926,4.5546,2.2969,3.6186,7.0971,6.1284,3.3065,2.6641,2.4376,1.9932,3.5379,2.7591,4.2089,5.4328,4.5086,6.9719,5.2461,3.5482,6.4364,4.2555,-1.5873,-6.1762
3.0031,1.7749,0.5557,1.4957,2.6891,2.4057,4.2579,1.3981,1.3981,4.5319,2.3361,3.7375,6.984,5.9381,3.1273,2.2223,1.9833,1.7993,3.1631,2.3775,3.9084,5.1886,4.2989,6.857,5.2514,3.6523,6.4271,4.405,-1.5422,-6.0561
2.7132,1.4197,0.396,1.1231,2.4064,2.1596,4.1797,1.3195,1.4257,4.5149,2.4102,3.8805,6.8734,5.7549,2.988,1.7634,1.5131,1.5881,2.7705,1.9958,3.6097,4.9279,4.0387,6.731,5.2152,3.7433,6.4084,4.569,-1.4844,-5.9796
2.4386,1.0796,0.2523,0.7627,2.1407,1.9115,4.1185,1.257,1.4693,4.5082,2.5126,4.0372,6.7791,5.5971,2.8941,1.3272,1.0789,1.3934,2.4019,1.6464,3.339,4.683,3.7687,6.6121,5.1488,3.8152,6.3879,4.7353,-1.4175,-5.9426
2.208,0.7923,0.1423,0.4516,1.9193,1.6931,4.0848,1.217,1.5248,4.5182,2.6368,4.1983,6.7179,5.4843,2.8488,0.954,0.7293,1.2486,2.099,1.3608,3.1237,4.4881,3.5338,6.5216,5.0659,3.8652,6.3766,4.8932,-1.3461,-5.9403
2.0471,0.5908,0.0841,0.2242,1.7677,1.5357,4.0883,1.2067,1.5897,4.5507,2.776,4.3554,6.705,5.4339,2.853,0.677,0.5003,1.1795,1.8948,1.1642,2.9871,4.3719,3.3728,6.4795,4.9801,3.8927,6.3861,5.0338,-1.2746,-5.9695
1.9743,0.4967,0.0915,0.1054,1.7048,1.463,4.1355,1.2322,1.663,4.6088,2.9226,4.5011,6.7511,5.4567,2.9048,0.5163,0.4086,1.1991,1.8073,1.07,2.9432,4.3517,3.3116,6.4994,4.9016,3.8983,6.425,5.1501,-1.2072,-6.028
1.9963,0.5161,0.1705,0.1055,1.7391,1.4871,4.228,1.2962,1.7437,4.6918,3.0679,4.6289,6.859,5.5552,2.998,0.4757,0.4496,1.3051,1.8372,1.0777,2.9948,4.4306,3.3584,6.5845,4.8358,3.8826,6.4964,5.2376,-1.1476,-6.1136
2.1086,0.6388,0.3177,0.2197,1.8676,1.6062,4.3617,1.3968,1.8298,4.7939,3.2023,4.7338,7.0227,5.722,3.1223,0.5434,0.6018,1.4822,1.9693,1.1748,3.1329,4.5972,3.5041,6.7269,4.7836,3.8464,6.5963,5.2936,-1.0984,-6.2223
2.2962,0.843,0.5196,0.4297,2.0766,1.8077,4.5272,1.5264,1.9171,4.9057,3.3154,4.8122,7.228,5.9419,3.2658,0.6967,0.8326,1.7062,2.1773,1.34,3.3393,4.8283,3.7253,6.9083,4.7427,3.7907,6.7138,5.3169,-1.0618,-6.3474
2.5379,1.101,0.755,0.7097,2.3455,2.0727,4.7111,1.6727,1.9991,5.0153,3.3975,4.8619,7.4542,6.1935,3.4184,0.9073,1.1066,1.9508,2.4299,1.5491,3.5899,5.0938,3.99,7.1034,4.7092,3.717,6.8327,5.3076,-1.0386,-6.4812
2.8107,1.3857,0.9985,1.0315,2.6512,2.3823,4.8987,1.8211,2.0678,5.1113,3.4404,4.8829,7.6779,6.4534,3.5762,1.1475,1.3918,2.192,2.6961,1.7799,3.8594,5.3613,4.2634,7.2845,4.6803,3.6277,6.934,5.2662,-1.029,-6.6179
3.094,1.6754,1.2253,1.3702,2.9725,2.7225,5.076,1.9579,2.1151,5.1841,3.4386,4.8762,7.8767,6.6996,3.7429,1.3944,1.6637,2.4129,2.9504,2.0159,4.1252,5.6021,4.5147,7.4266,4.6547,3.5257,6.9996,5.1933,-1.0318,-6.7557
3.3728,1.9563,1.4155,1.708,3.2935,3.0858,5.2328,2.073,2.1345,5.2281,3.3906,4.8445,8.0335,6.9156,3.9285,1.6331,1.9078,2.6047,3.1756,2.2473,4.3709,5.7955,4.7216,7.5121,4.6337,3.4145,7.0163,5.0904,-1.0451,-6.8975
3.6389,2.2228,1.5583,2.0349,3.6049,3.47,5.364,2.1616,2.123,5.2425,3.2992,4.7918,8.1395,7.093,4.1439,1.8564,2.1193,2.7668,3.3641,2.4708,4.5878,5.932,4.8737,7.5341,4.6192,3.2971,6.9783,4.9603,-1.0666,-7.0482
3.8906,2.4753,1.6529,2.3483,3.904,3.8744,5.4707,2.2248,2.0825,5.2311,3.1721,4.7235,8.1963,7.2322,4.3955,2.064,2.3013,2.9044,3.5175,2.6876,4.7759,6.0143,4.973,7.497,4.6125,3.176,6.8893,4.8075,-1.0937,-7.2121
4.1307,2.718,1.7091,2.6502,4.1925,4.2959,5.5588,2.2685,2.0199,5.2015,3.0208,4.6457,8.2151,7.342,4.6807,2.2596,2.463,3.0264,3.6449,2.9007,4.9416,6.0554,5.0319,7.4155,4.6127,3.0531,6.7613,4.6391,-1.1239,-7.3895
4.3641,2.9555,1.7439,2.9448,4.4745,4.7267,5.6376,2.3017,1.9459,5.1632,2.8593,4.5653,8.2139,7.4365,4.9874,2.4484,2.6156,3.1426,3.7589,3.1127,5.0953,6.075,5.0691,7.3107,4.6164,2.9296,6.6128,4.4639,-1.1545,-7.5758
