FP1,F3,F7,FC3,C3,C5,P3,P7,PO7,PO3,O1,Oz,Pz,CPz,FP2,Fz,F4,F8,FC4,FCz,Cz,C4,C6,P4,P8,PO8,PO4,O2,HEOG_left,HEOG_right
2.0649,1.3479,1.1369,1.2884,0.5959,0.7296,0.4391,0.1789,-0.063,-0.192,-0.1261,-0.178,0.7814,1.639,1.5324,1.6144,1.9225,1.4793,1.9465,1.9532,2.1664,1.8784,2.3709,1.9608,2.1075,2.0054,1.5048,0.9041,0.9383,1.4436
1.7943,1.1323,0.9579,1.0649,0.529,0.5063,0.1201,-0.1732,-0.4997,-0.5085,-0.272,-0.1629,0.6152,1.3755,1.4271,1.4003,1.8536,1.3277,1.7821,1.7321,1.9228,1.7014,2.1202,1.6994,1.711,1.6147,1.2512,0.9527,0.9139,1.1929
1.5356,0.9243,0.7845,0.8505,0.4616,0.2905,-0.1706,-0.5003,-0.8995,-0.792,-0.3962,-0.1465,0.4574,1.1201,1.3109,1.1905,1.7663,1.1741,1.6081,1.5153,1.6834,1.5163,1.8632,1.4342,1.3139,1.2361,0.9958,0.9917,0.8731,0.9513
1.3011,0.7319,0.6245,0.6553,0.3954,0.0939,-0.4051,-0.7769,-1.2238,-1.0113,-0.4786,-0.1247,0.3184,0.8812,1.1755,0.9886,1.647,1.0168,1.42,1.3056,1.4514,1.3207,1.5986,1.1689,0.9229,0.8859,0.7457,1.0171,0.8084,0.7259
1.0994,0.5646,0.4853,0.4896,0.3354,-0.0696,-0.5614,-0.9803,-1.4419,-1.1433,-0.5056,-0.0929,0.2086,0.6682,1.0186,0.7995,1.4904,0.8565,1.2189,1.1069,1.2318,1.1155,1.3288,0.9113,0.5466,0.5778,0.5111,1.0256,0.7192,0.5245
0.9345,0.4315,0.3738,0.3624,0.2891,-0.1851,-0.6256,-1.0923,-1.5344,-1.176,-0.4718,-0.0468,0.1369,0.4908,0.8455,0.6285,1.3008,0.6962,1.0119,0.9245,1.0312,0.9062,1.0601,0.6726,0.1961,0.3222,0.3041,1.015,0.6123,0.3538
0.806,0.3404,0.295,0.2808,0.2655,-0.2397,-0.5939,-1.1005,-1.4942,-1.1094,-0.38,0.0154,0.1093,0.3572,0.6671,0.4808,1.0908,0.5415,0.8114,0.7636,0.856,0.7017,0.8027,0.4663,-0.1161,0.1253,0.1378,0.9847,0.4989,0.2186
0.7096,0.2951,0.2517,0.2476,0.2716,-0.2254,-0.4736,-1.0002,-1.3277,-0.9555,-0.2407,0.0912,0.1277,0.2719,0.4978,0.3598,0.8777,0.3988,0.6317,0.6284,0.7115,0.5135,0.5688,0.3057,-0.3767,-0.0105,0.0241,0.9363,0.3916,0.1202
0.6395,0.2938,0.243,0.26,0.3107,-0.1421,-0.2825,-0.7964,-1.0533,-0.7356,-0.0702,0.1728,0.1882,0.2338,0.3515,0.2666,0.6792,0.2746,0.4855,0.5209,0.5993,0.3535,0.3704,0.2016,-0.572,-0.0862,-0.0283,0.8747,0.3007,0.056
0.5889,0.3279,0.2638,0.3095,0.3791,0.0009,-0.0466,-0.5045,-0.6996,-0.4766,0.1112,0.2487,0.2816,0.2357,0.2386,0.199,0.5092,0.1734,0.3807,0.4399,0.5171,0.2314,0.2171,0.1588,-0.6897,-0.1054,-0.0169,0.807,0.2319,0.0196
0.551,0.3825,0.3047,0.3813,0.4665,0.1855,0.2034,-0.1505,-0.3018,-0.2072,0.2827,0.305,0.3931,0.2645,0.163,0.1516,0.3749,0.0964,0.318,0.3803,0.4583,0.1521,0.1134,0.1746,-0.7214,-0.0745,0.0534,0.7417,0.1853,0.002
0.52,0.4386,0.3533,0.4574,0.5574,0.3875,0.4371,0.232,0.1024,0.0465,0.4259,0.3294,0.5053,0.3045,0.1227,0.1173,0.2766,0.0422,0.2909,0.3353,0.4139,0.1149,0.0575,0.2376,-0.6645,-0.0031,0.1689,0.6865,0.1557,-0.0062
0.4908,0.4774,0.3959,0.5198,0.6346,0.5809,0.6292,0.6058,0.478,0.2642,0.527,0.3136,0.6002,0.3404,0.1109,0.089,0.2091,0.0071,0.288,0.2976,0.3753,0.1131,0.042,0.3292,-0.5252,0.0964,0.3084,0.6469,0.1347,-0.013
0.4599,0.4844,0.421,0.5539,0.6836,0.7425,0.7634,0.9356,0.7961,0.4339,0.5792,0.2557,0.6633,0.3608,0.1187,0.0618,0.1653,-0.0131,0.296,0.2623,0.3366,0.1362,0.0558,0.4266,-0.3191,0.2087,0.4465,0.624,0.114,-0.023
0.426,0.4533,0.4219,0.5522,0.6964,0.8561,0.8347,1.1927,1.0373,0.5519,0.5834,0.1607,0.6862,0.3612,0.1382,0.0343,0.1387,-0.0215,0.3038,0.2281,0.297,0.1728,0.087,0.5074,-0.0703,0.318,0.5578,0.6156,0.089,-0.0369
0.3898,0.3879,0.3986,0.5154,0.6731,0.915,0.8487,1.359,1.193,0.6227,0.5472,0.0405,0.6677,0.3432,0.1637,0.0087,0.1261,-0.0184,0.3046,0.1974,0.2598,0.2137,0.1264,0.554,0.1916,0.4094,0.6226,0.6162,0.0602,-0.0514
0.3541,0.3,0.3575,0.4519,0.6212,0.9211,0.8193,1.4289,1.2646,0.656,0.4834,-0.0891,0.6146,0.314,0.1935,-0.0107,0.1279,-0.0014,0.2981,0.175,0.2309,0.2543,0.1691,0.557,0.4354,0.4717,0.6299,0.6187,0.0342,-0.0611
0.3229,0.2073,0.31,0.3751,0.5526,0.8838,0.7642,1.4089,1.2622,0.6643,0.4071,-0.211,0.5391,0.2824,0.2288,-0.0185,0.1484,0.0344,0.2894,0.1666,0.2161,0.2942,0.2151,0.5164,0.6333,0.4982,0.58,0.6163,0.0211,-0.0597
0.3005,0.1282,0.2688,0.2999,0.4804,0.8154,0.7008,1.3152,1.2002,0.6584,0.3326,-0.31,0.4564,0.2566,0.2728,-0.0108,0.1931,0.0944,0.2871,0.1765,0.2185,0.3369,0.2672,0.4408,0.764,0.4877,0.4831,0.604,0.0314,-0.0424
0.2906,0.0779,0.2454,0.2399,0.4154,0.7288,0.6417,1.1694,1.0948,0.6458,0.271,-0.3753,0.3811,0.2419,0.3288,0.0144,0.2668,0.1816,0.3005,0.2066,0.2377,0.3861,0.3284,0.3446,0.8152,0.4434,0.3565,0.5796,0.0724,-0.0061
0.296,0.0657,0.2469,0.2044,0.3645,0.6351,0.5931,0.9946,0.9605,0.6286,0.2286,-0.4013,0.3242,0.2403,0.3986,0.0567,0.3711,0.2949,0.3371,0.2567,0.2697,0.4445,0.399,0.244,0.7847,0.3716,0.2205,0.5447,0.1463,0.0503
0.3185,0.0936,0.2751,0.1974,0.3299,0.5421,0.5545,0.8107,0.8084,0.6042,0.2061,-0.388,0.2911,0.2504,0.4815,0.114,0.5033,0.4271,0.3999,0.3241,0.3088,0.5108,0.4751,0.1528,0.6788,0.2799,0.0935,0.5037,0.2491,0.1262
0.3592,0.157,0.3264,0.2177,0.3099,0.4551,0.5198,0.6318,0.646,0.5663,0.1994,-0.3394,0.2803,0.2685,0.5735,0.1832,0.6558,0.567,0.487,0.4047,0.3482,0.5797,0.5484,0.0795,0.5107,0.1756,-0.0113,0.4626,0.3718,0.2195
0.418,0.2466,0.3933,0.26,0.3002,0.3769,0.4795,0.4647,0.4776,0.5074,0.2011,-0.2632,0.2841,0.2895,0.668,0.2612,0.8171,0.7009,0.5908,0.4932,0.3819,0.6417,0.6068,0.0256,0.2978,0.0646,-0.0883,0.4266,0.5024,0.3272
0.4921,0.3503,0.4664,0.316,0.2958,0.3092,0.4238,0.3095,0.3055,0.4209,0.2024,-0.169,0.2908,0.3075,0.7563,0.3447,0.9725,0.8154,0.6989,0.5835,0.4054,0.6852,0.6373,-0.0138,0.0591,-0.0487,-0.1392,0.3986,0.6273,0.4443
0.5747,0.4554,0.5354,0.3763,0.2916,0.2521,0.3446,0.1612,0.1316,0.3031,0.1956,-0.0672,0.288,0.3177,0.8284,0.4303,1.1055,0.899,0.7956,0.6689,0.4157,0.6981,0.6283,-0.047,-0.1864,-0.1608,-0.1701,0.3783,0.7332,0.5637
0.654,0.5495,0.5909,0.4315,0.284,0.2048,0.2382,0.0127,-0.041,0.1552,0.1757,0.0325,0.2661,0.317,0.8735,0.5128,1.1989,0.9431,0.8635,0.7415,0.4117,0.6711,0.5721,-0.0823,-0.4204,-0.2676,-0.1884,0.3624,0.8081,0.6753
0.7139,0.621,0.6241,0.4725,0.2706,0.1644,0.1063,-0.1423,-0.2073,-0.0159,0.1417,0.1227,0.2216,0.3048,0.8817,0.5847,1.2362,0.9416,0.8859,0.793,0.3944,0.5992,0.4668,-0.1249,-0.6257,-0.3638,-0.1992,0.3468,0.8418,0.7667
0.7362,0.6589,0.6265,0.4911,0.2498,0.1267,-0.0431,-0.3063,-0.3595,-0.1969,0.0971,0.1994,0.1584,0.2831,0.8443,0.6353,1.2031,0.8905,0.8494,0.8145,0.3654,0.4834,0.3168,-0.1745,-0.7872,-0.4425,-0.2032,0.3268,0.8266,0.8243
0.7035,0.6522,0.5897,0.4789,0.2197,0.0853,-0.1973,-0.4762,-0.4886,-0.37,0.0482,0.2619,0.0865,0.2554,0.7547,0.6507,1.089,0.7875,0.746,0.7964,0.3265,0.3304,0.1317,-0.2254,-0.8922,-0.496,-0.1974,0.2994,0.758,0.8345
0.6022,0.59,0.505,0.4278,0.1766,0.0328,-0.3413,-0.6438,-0.5859,-0.5153,0.0024,0.3121,0.0186,0.2241,0.6097,0.6151,0.8885,0.6316,0.5737,0.729,0.2765,0.1509,-0.0756,-0.2691,-0.9321,-0.5171,-0.1769,0.2624,0.635,0.7863
0.4256,0.4631,0.3657,0.3303,0.115,-0.0383,-0.4608,-0.7959,-0.6452,-0.6147,-0.0348,0.3527,-0.0339,0.1884,0.4092,0.5138,0.6028,0.4234,0.3367,0.6028,0.2106,-0.043,-0.2908,-0.2969,-0.9035,-0.5011,-0.1379,0.2147,0.4606,0.6727
0.1749,0.2667,0.1692,0.1816,0.0282,-0.1332,-0.5453,-0.9172,-0.6641,-0.6561,-0.061,0.3851,-0.0657,0.143,0.1576,0.3366,0.241,0.167,0.0449,0.4107,0.1192,-0.2404,-0.5008,-0.3041,-0.8096,-0.4479,-0.0814,0.154,0.2421,0.4928
-0.1383,0.0041,-0.0796,-0.0177,-0.0891,-0.2536,-0.5901,-0.993,-0.6449,-0.6351,-0.0781,0.4084,-0.0786,0.0797,-0.1359,0.0832,-0.1794,-0.1289,-0.2869,0.1511,-0.0083,-0.4333,-0.6949,-0.2913,-0.6605,-0.3629,-0.0136,0.0766,-0.0092,0.2528
-0.4929,-0.3097,-0.3658,-0.2583,-0.2374,-0.3947,-0.596,-1.0123,-0.5934,-0.5561,-0.0914,0.4186,-0.081,-0.0099,-0.4558,-0.233,-0.6326,-0.4496,-0.6393,-0.1681,-0.1798,-0.6159,-0.8644,-0.2647,-0.4723,-0.2566,0.0541,-0.0222,-0.2778,-0.0332
-0.8579,-0.6472,-0.6644,-0.5206,-0.4093,-0.5453,-0.5679,-0.9696,-0.5177,-0.43,-0.1074,0.4101,-0.0844,-0.1293,-0.7809,-0.5836,-1.0853,-0.7744,-0.9884,-0.527,-0.3938,-0.7832,-1.0023,-0.2341,-0.2645,-0.1433,0.1085,-0.1468,-0.5455,-0.3431
-1.1965,-0.9708,-0.9429,-0.7757,-0.5887,-0.6883,-0.5124,-0.8669,-0.4256,-0.2715,-0.1316,0.3768,-0.0992,-0.2734,-1.0849,-0.9279,-1.5004,-1.0783,-1.3071,-0.8934,-0.6366,-0.9282,-1.1019,-0.2094,-0.0568,-0.0375,0.1379,-0.2986,-0.7925,-0.6494
-1.4707,-1.2391,-1.1671,-0.9902,-0.7524,-0.8034,-0.436,-0.7125,-0.3227,-0.0951,-0.1654,0.3152,-0.131,-0.4282,-1.34,-1.2195,-1.8418,-1.3347,-1.5675,-1.2272,-0.8823,-1.0414,-1.1571,-0.1981,0.1335,0.0479,0.1352,-0.4737,-0.9996,-0.922
-1.6493,-1.4155,-1.3082,-1.1338,-0.8753,-0.8719,-0.3439,-0.5201,-0.2113,0.0864,-0.2056,0.2263,-0.1797,-0.5732,-1.5213,-1.4165,-2.0797,-1.5196,-1.7449,-1.4882,-1.0978,-1.112,-1.1636,-0.2038,0.2933,0.1038,0.0987,-0.6636,-1.1515,-1.1342
-1.715,-1.4774,-1.3499,-1.1872,-0.937,-0.8814,-0.2409,-0.3069,-0.0913,0.2629,-0.2448,0.1161,-0.2415,-0.6878,-1.612,-1.4908,-2.1969,-1.616,-1.8229,-1.6458,-1.252,-1.1318,-1.1214,-0.2277,0.4129,0.1241,0.0311,-0.8571,-1.2389,-1.2673
-1.6699,-1.4222,-1.2931,-1.1484,-0.9289,-0.8302,-0.133,-0.0909,0.0385,0.4257,-0.2739,-0.005,-0.3113,-0.7583,-1.6081,-1.4362,-2.1925,-1.6173,-1.7986,-1.6871,-1.3254,-1.0999,-1.0371,-0.2702,0.4847,0.1051,-0.0635,-1.0438,-1.2611,-1.3138
-1.5363,-1.269,-1.157,-1.0344,-0.8581,-0.7288,-0.0291,0.11,0.1774,0.5668,-0.285,-0.1242,-0.3868,-0.7837,-1.5197,-1.2702,-2.0829,-1.5293,-1.6843,-1.6221,-1.3176,-1.0259,-0.9254,-0.3331,0.5024,0.0447,-0.181,-1.2164,-1.2259,-1.2788
-1.353,-1.0544,-0.9745,-0.8781,-0.7473,-0.599,0.0583,0.2795,0.3205,0.6766,-0.2741,-0.2294,-0.4696,-0.7771,-1.3708,-1.0308,-1.8993,-1.3702,-1.5068,-1.4817,-1.2487,-0.9305,-0.8088,-0.4202,0.4605,-0.0575,-0.3192,-1.3721,-1.1481,-1.1776
-1.1664,-0.825,-0.7854,-0.7206,-0.6299,-0.4699,0.1138,0.4042,0.4578,0.7441,-0.2427,-0.3109,-0.5655,-0.7633,-1.1948,-0.7689,-1.6819,-1.1673,-1.3036,-1.3115,-1.1558,-0.8427,-0.714,-0.5366,0.3558,-0.1999,-0.477,-1.5114,-1.0467,-1.0322
-1.0213,-0.627,-0.6278,-0.6021,-0.5426,-0.3715,0.1214,0.4739,0.5746,0.7578,-0.1979,-0.3633,-0.6816,-0.7722,-1.0286,-0.5367,-1.4732,-0.953,-1.1165,-1.1613,-1.0832,-0.7943,-0.6675,-0.6865,0.1892,-0.3771,-0.6528,-1.6361,-0.9411,-0.8661
-0.9513,-0.4971,-0.5309,-0.5532,-0.5166,-0.3295,0.0682,0.4828,0.6534,0.7074,-0.1507,-0.385,-0.8238,-0.831,-0.9055,-0.3776,-1.3103,-0.7595,-0.9836,-1.0747,-1.0715,-0.8126,-0.6901,-0.8709,-0.0319,-0.5794,-0.8432,-1.7472,-0.8476,-0.7003
-0.9742,-0.4569,-0.5104,-0.5892,-0.5715,-0.3603,-0.0525,0.4306,0.6778,0.5873,-0.113,-0.3777,-0.9938,-0.957,-0.85,-0.3185,-1.22,-0.6137,-0.9332,-1.0797,-1.1477,-0.9141,-0.7922,-1.0856,-0.2933,-0.7927,-1.0413,-1.8432,-0.7773,-0.5492
-1.0904,-0.5104,-0.5679,-0.7095,-0.7116,-0.4692,-0.2386,0.3226,0.6365,0.3989,-0.095,-0.345,-1.1876,-1.1535,-0.8732,-0.3657,-1.2145,-0.5336,-0.9783,-1.185,-1.3187,-1.0998,-0.971,-1.3205,-0.5747,-0.999,-1.2369,-1.9197,-0.7354,-0.4198
-1.2856,-0.6459,-0.6926,-0.8991,-0.9267,-0.65,-0.4794,0.1694,0.5261,0.1524,-0.1021,-0.2921,-1.3965,-1.409,-0.9728,-0.506,-1.2918,-0.5264,-1.1152,-1.3798,-1.5719,-1.3543,-1.2101,-1.5605,-0.8523,-1.1793,-1.4166,-1.9712,-0.7219,-0.3125
-1.5356,-0.8409,-0.8655,-1.1343,-1.1957,-0.8874,-0.7561,-0.0139,0.3533,-0.1335,-0.1342,-0.2251,-1.6083,-1.701,-1.1348,-0.7119,-1.4372,-0.5889,-1.3249,-1.6384,-1.8793,-1.6487,-1.483,-1.7877,-1.1026,-1.3152,-1.5658,-1.9928,-0.7326,-0.2239
-1.8125,-1.0669,-1.0638,-1.3881,-1.4907,-1.1592,-1.0447,-0.2097,0.1343,-0.4333,-0.1855,-0.152,-1.8099,-2.0007,-1.3376,-0.9482,-1.6276,-0.7103,-1.5781,-1.9274,-2.2052,-1.9474,-1.7583,-1.9836,-1.3054,-1.3925,-1.6705,-1.9824,-0.7614,-0.1503
-2.0896,-1.296,-1.2652,-1.6347,-1.7819,-1.4398,-1.3188,-0.3993,-0.1075,-0.7184,-0.2459,-0.0828,-1.9886,-2.2788,-1.5575,-1.1797,-1.8371,-0.875,-1.8419,-2.2127,-2.5141,-2.2153,-2.0062,-2.1326,-1.4467,-1.4028,-1.7198,-1.9424,-0.8016,-0.0909
-2.3458,-1.5045,-1.4518,-1.8535,-2.0412,-1.7035,-1.5523,-0.5648,-0.3443,-0.9599,-0.3024,-0.0285,-2.1331,-2.5101,-1.7728,-1.3779,-2.0425,-1.0666,-2.0864,-2.4654,-2.7769,-2.4258,-2.2045,-2.2235,-1.5194,-1.3444,-1.7068,-1.8803,-0.8478,-0.0489
-2.5682,-1.6768,-1.6126,-2.0308,-2.2453,-1.9266,-1.7221,-0.6909,-0.5487,-1.133,-0.3412,0.0003,-2.2338,-2.6759,-1.968,-1.5255,-2.2266,-1.2699,-2.2904,-2.666,-2.9746,-2.5652,-2.3422,-2.2507,-1.523,-1.2226,-1.6305,-1.8073,-0.8966,-0.0316
-2.7521,-1.8066,-1.7443,-2.1606,-2.3772,-2.0908,-1.8102,-0.7668,-0.6963,-1.2191,-0.3498,-0.0038,-2.2826,-2.7656,-2.1348,-1.6183,-2.3811,-1.4729,-2.4442,-2.8064,-3.099,-2.6348,-2.4199,-2.2148,-1.4625,-1.0482,-1.4954,-1.7371,-0.9476,-0.0476
-2.8998,-1.8973,-1.8506,-2.2444,-2.4283,-2.1848,-1.8058,-0.7866,-0.7695,-1.2085,-0.3188,-0.0432,-2.2738,-2.7769,-2.2725,-1.6644,-2.5059,-1.667,-2.5498,-2.8892,-3.1519,-2.6488,-2.4479,-2.1227,-1.3469,-0.8365,-1.312,-1.6825,-1.0033,-0.1042
-3.0183,-1.9593,-1.9396,-2.2897,-2.3987,-2.2048,-1.7075,-0.7494,-0.7588,-1.1018,-0.2437,-0.1148,-2.2058,-2.7154,-2.3856,-1.6811,-2.6073,-1.8465,-2.618,-2.9255,-3.1427,-2.63,-2.4425,-1.986,-1.1882,-0.605,-1.0956,-1.6544,-1.0683,-0.2038
-3.1159,-2.0066,-2.0207,-2.3073,-2.297,-2.1551,-1.5241,-0.6591,-0.6641,-0.9102,-0.1265,-0.211,-2.0832,-2.5944,-2.4814,-1.6894,-2.6947,-2.0076,-2.6648,-2.9319,-3.0861,-2.6039,-2.421,-1.8215,-0.9999,-0.3722,-0.866,-1.66,-1.1475,-0.3421
-3.1995,-2.0522,-2.101,-2.3088,-2.1401,-2.0467,-1.2755,-0.5228,-0.4945,-0.6552,0.0236,-0.322,-1.9189,-2.4336,-2.5666,-1.7086,-2.777,-2.1468,-2.7062,-2.9264,-3.0002,-2.5936,-2.398,-1.6489,-0.7959,-0.1555,-0.6457,-1.7036,-1.2442,-0.508
-3.2722,-2.1044,-2.1827,-2.3042,-1.9507,-1.8953,-0.9913,-0.3499,-0.2668,-0.3666,0.1903,-0.4391,-1.7351,-2.2582,-2.6452,-1.7519,-2.86,-2.2603,-2.7546,-2.9252,-2.9048,-2.615,-2.3834,-1.4899,-0.5893,0.0308,-0.4581,-1.7871,-1.3584,-0.6849
-3.3335,-2.1651,-2.2634,-2.3,-1.7555,-1.7199,-0.7078,-0.1514,-0.0035,-0.0789,0.3524,-0.557,-1.5621,-2.0969,-2.718,-1.824,-2.9455,-2.3442,-2.8166,-2.9406,-2.8207,-2.6758,-2.3815,-1.3655,-0.3905,0.1773,-0.3244,-1.9105,-1.4867,-0.8547
-3.3808,-2.2307,-2.3376,-2.3,-1.5818,-1.5404,-0.4631,0.0613,0.2712,0.1742,0.4874,-0.6747,-1.435,-1.979,-2.7835,-1.9218,-3.0322,-2.3961,-2.8933,-2.9803,-2.768,-2.7753,-2.3928,-1.2935,-0.2064,0.282,-0.2605,-2.072,-1.6228,-1.0017
-3.4137,-2.296,-2.4005,-2.3068,-1.455,-1.3771,-0.2913,0.2765,0.5356,0.3651,0.5765,-0.7958,-1.3881,-1.9316,-2.8406,-2.0374,-3.1185,-2.4175,-2.9822,-3.0487,-2.7659,-2.9077,-2.4159,-1.2853,-0.0396,0.3516,-0.2731,-2.2668,-1.7597,-1.1168
-3.4378,-2.3592,-2.4519,-2.3249,-1.3957,-1.2492,-0.2167,0.4834,0.7748,0.4778,0.6091,-0.9262,-1.4491,-1.9769,-2.892,-2.1633,-3.2059,-2.4179,-3.0814,-3.1489,-2.8313,-3.0656,-2.451,-1.3442,0.1121,0.4023,-0.3576,-2.4861,-1.8926,-1.1996
-3.4676,-2.4256,-2.498,-2.3627,-1.4184,-1.1737,-0.2495,0.6731,0.9837,0.5101,0.586,-1.0716,-1.633,-2.1292,-2.9472,-2.2973,-3.3022,-2.4161,-3.1928,-3.2855,-2.9781,-3.2437,-2.5018,-1.4641,0.2547,0.4585,-0.497,-2.7159,-2.0205,-1.2592
-3.5265,-2.5091,-2.551,-2.4326,-1.5295,-1.163,-0.3837,0.8398,1.1666,0.4747,0.5196,-1.2351,-1.9387,-2.393,-3.0229,-2.4447,-3.4219,-2.4398,-3.324,-3.4654,-3.2154,-3.4417,-2.5762,-1.6301,0.3982,0.5497,-0.6636,-2.9382,-2.1465,-1.3114
-3.6419,-2.6287,-2.6258,-2.5483,-1.7264,-1.2229,-0.5983,0.9806,1.3354,0.3957,0.431,-1.4153,-2.3477,-2.7609,-3.1403,-2.6177,-3.5835,-2.52,-3.4876,-3.697,-3.5448,-3.6625,-2.6844,-1.8203,0.5547,0.7049,-0.8228,-3.1332,-2.2763,-1.3741
-3.8369,-2.8019,-2.7342,-2.7197,-1.9963,-1.3498,-0.8612,1.0958,1.5038,0.3028,0.3446,-1.6053,-2.8254,-3.2119,-3.3188,-2.8297,-3.8034,-2.682,-3.6957,-3.9855,-3.957,-3.9093,-2.835,-2.0087,0.7361,0.9444,-0.9394,-3.284,-2.4137,-1.4627
-4.1199,-3.0367,-2.8792,-2.9469,-2.3152,-1.5298,-1.1347,1.187,1.6807,0.224,0.2799,-1.7948,-3.3244,-3.7115,-3.5673,-3.0878,-4.0877,-2.935,-3.9535,-4.3272,-4.4284,-4.1793,-3.0288,-2.1689,0.9508,1.273,-0.9842,-3.3814,-2.5578,-1.5845
-4.4764,-3.3237,-3.0501,-3.2155,-2.6487,-1.7385,-1.3821,1.2556,1.8641,0.1787,0.2455,-1.9715,-3.7896,-4.212,-3.8771,-3.3849,-4.4252,-3.2646,-4.2525,-4.7036,-4.9193,-4.4592,-3.255,-2.277,1.1992,1.6727,-0.9405,-3.4276,-2.6984,-1.736
-4.8652,-3.6324,-3.2213,-3.4943,-2.9536,-1.943,-1.5723,1.3009,2.0376,0.174,0.2344,-2.1243,-4.1641,-4.6563,-4.2174,-3.6944,-4.7834,-3.6298,-4.5662,-5.0788,-5.3751,-4.7224,-3.4887,-2.3151,1.4705,2.1012,-0.8075,-3.4372,-2.8158,-1.9019
-5.2226,-3.9133,-3.354,-3.7372,-3.1819,-2.1058,-1.6825,1.3198,2.1714,0.2039,0.2259,-2.245,-4.3944,-4.9824,-4.5367,-3.9708,-5.1102,-3.9684,-4.8506,-5.4002,-5.7313,-4.9297,-3.6923,-2.2719,1.7402,2.4948,-0.6011,-3.4349,-2.8817,-2.0572
-5.4717,-4.1044,-3.4025,-3.8899,-3.286,-2.189,-1.6984,1.3074,2.2285,0.2544,0.1905,-2.3294,-4.4349,-5.1304,-4.7697,-4.1545,-5.3403,-4.2068,-5.0489,-5.605,-5.9217,-5.0339,-3.8209,-2.1425,1.9716,2.7774,-0.3491,-3.4506,-2.8633,-2.1705
-5.5373,-4.1419,-3.3215,-3.8979,-3.2249,-2.1598,-1.6111,1.2599,2.1737,0.3111,0.0999,-2.3768,-4.2509,-5.0487,-4.8485,-4.1827,-5.4063,-4.2744,-5.1005,-5.6296,-5.8877,-4.9869,-3.8294,-1.9267,2.1205,2.8729,-0.0845,-3.5127,-2.7288,-2.2088
-5.3598,-3.9729,-3.0749,-3.7159,-2.9686,-1.9936,-1.4147,1.1773,1.9839,0.3658,-0.0642,-2.3883,-3.8196,-4.7005,-4.7148,-4.0011,-5.2511,-4.1168,-4.951,-5.4214,-5.587,-4.7476,-3.6799,-1.6273,2.1414,2.7193,0.1627,-3.6415,-2.4537,-2.1421
-4.9067,-3.5651,-2.6419,-3.3162,-2.503,-1.6769,-1.1047,1.0647,1.6549,0.4217,-0.3027,-2.3653,-3.131,-4.0672,-4.331,-3.5749,-4.8383,-3.7064,-4.5624,-4.9477,-5.0002,-4.2887,-3.3486,-1.2487,1.9961,2.2804,0.3717,-3.8431,-2.026,-1.9471
-4.1784,-2.9133,-2.0211,-2.6932,-1.8309,-1.2082,-0.679,0.9319,1.2037,0.4924,-0.5975,-2.3075,-2.1883,-3.1515,-3.6866,-2.8958,-4.1593,-3.0464,-3.9198,-4.2025,-4.132,-3.602,-2.8288,-0.7964,1.6604,1.5543,0.5357,-4.1069,-1.4499,-1.6101
-3.207,-2.0406,-1.2309,-1.8652,-0.9727,-0.5984,-0.141,0.7902,0.6649,0.5967,-0.9155,-2.2125,-1.0086,-1.9774,-2.7999,-1.9844,-3.2349,-2.1688,-3.0343,-3.2066,-3.0108,-2.7001,-2.1316,-0.277,1.1316,0.5769,0.6622,-4.4055,-0.7453,-1.1288
-2.0498,-0.9946,-0.307,-0.8712,0.0353,0.1294,0.4956,0.6487,0.082,0.7496,-1.216,-2.0764,0.3749,-0.5891,-1.715,-0.886,-2.1119,-1.1282,-1.9421,-2.0052,-1.6836,-1.6157,-1.284,0.3004,0.4317,-0.5805,0.7699,-4.6992,0.0539,-0.5134
-0.7798,0.16,0.7023,0.2339,1.1436,0.9407,1.2028,0.5106,-0.5018,0.9543,-1.4617,-1.8954,1.9113,0.9508,-0.4947,0.3364,-0.8562,0.0078,-0.6999,-0.6609,-0.2127,-0.3992,-0.3259,0.9228,-0.3923,-1.8196,0.8832,-4.9434,0.9046,0.2132
0.5249,1.3505,1.741,1.3862,2.2927,1.7908,1.9357,0.3723,-1.0532,1.1956,-1.6275,-1.6698,3.5309,2.5643,0.7878,1.6111,0.4554,1.1685,0.6212,0.753,1.3296,0.8852,0.6928,1.5708,-1.2736,-3.0294,1.024,-5.0977,1.7593,1.0161
1.7891,2.5044,2.7505,2.5191,3.4167,2.6276,2.6349,0.224,-1.5539,1.4399,-1.7064,-1.4066,5.1468,4.1618,2.0576,2.8658,1.7448,2.2886,1.944,2.1591,2.8639,2.1644,1.7159,2.2167,-2.1351,-4.103,1.205,-5.1356,2.5726,1.8521
2.9477,3.557,3.6756,3.5691,4.449,3.3958,3.232,0.0525,-2.0019,1.6389,-1.711,-1.1207,6.6609,5.6494,3.2453,4.0342,2.94,3.3147,3.1923,3.4826,4.3088,3.3634,2.6852,2.8252,-2.9016,-4.9543,1.4252,-5.0499,3.3058,2.675
3.95,4.4564,4.4686,4.4815,5.3277,4.0437,3.6597,-0.1548,-2.4083,1.7402,-1.6694,-0.8337,7.9737,6.9371,4.2939,5.0616,3.9825,4.2088,4.3,4.6565,5.5867,4.413,3.5456,3.3563,-3.5115,-5.5302,1.6687,-4.8539,3.9315,3.4429
4.762,5.1674,5.0952,5.2144,6.0032,4.5295,3.8639,-0.4068,-2.7904,1.6985,-1.6175,-0.5697,8.9972,7.9501,5.163,5.9076,4.8322,4.9502,5.2174,5.6276,6.6323,5.2578,4.2518,3.7709,-3.925,-5.8157,1.9093,-4.5772,4.4359,4.124
5.3673,5.6735,5.537,5.7434,6.4444,4.8274,3.8142,-0.7057,-3.1642,1.4874,-1.5894,-0.3506,9.6679,8.6388,5.8301,6.5493,5.4692,5.5326,5.9158,6.3615,7.4001,5.8631,4.7725,4.0379,-4.1284,-5.8309,2.1168,-4.258,4.8189,4.6996
5.7663,5.9769,5.7942,6.0627,6.6438,4.9319,3.5121,-1.0455,-3.5369,1.1075,-1.6086,-0.1912,9.9573,8.9858,6.2907,6.9806,5.8929,5.9607,6.3884,6.8464,7.8721,6.2181,5.0937,4.1404,-4.1332,-5.6233,2.2646,-3.9342,5.0919,5.1638
5.974,6.0959,5.8838,6.1856,6.6192,4.8575,2.9931,-1.4107,-3.9022,0.5892,-1.6824,-0.0966,9.8772,9.0091,6.5553,7.2119,6.1188,6.245,6.6478,7.0939,8.0603,6.3354,5.2185,4.0797,-3.9716,-5.255,2.3361,-3.6353,5.2725,5.52
6.0158,6.0618,5.8362,6.1419,6.4114,4.6372,2.3228,-1.7776,-4.239,-0.0107,-1.7997,-0.0616,9.4778,8.7581,6.6449,7.2663,6.173,6.3967,6.7205,7.1363,8.0048,6.2471,5.165,3.876,-3.6885,-4.7904,2.3279,-3.378,5.3793,5.7754
5.9228,5.9125,5.6892,5.9725,6.0777,4.316,1.5876,-2.1151,-4.514,-0.6177,-1.9335,-0.0727,8.8394,8.3052,6.5866,7.1754,6.0866,6.4252,6.6404,7.0209,7.7666,5.9985,4.9622,3.5656,-3.3326,-4.2843,2.2511,-3.1647,5.4265,5.9363
5.7259,5.6868,5.4806,5.722,5.6824,3.9443,0.8809,-2.3877,-4.6865,-1.1513,-2.0465,-0.1112,8.0589,7.732,6.4088,6.9733,5.8898,6.3362,6.442,6.8001,7.415,5.6399,4.646,3.1956,-2.9469,-3.7746,2.1289,-2.9852,5.4204,6.005
5.4513,5.4174,5.2409,5.4312,5.2851,3.5693,0.2887,-2.5599,-4.7154,-1.5372,-2.098,-0.1569,7.233,7.1157,6.1357,6.69,5.6072,6.1324,6.1547,6.5214,7.0147,5.2196,4.2539,2.8166,-2.562,-3.2781,1.9928,-2.8203,5.3582,5.9793
5.1167,5.1255,4.9882,5.1295,4.931,3.2288,-0.123,-2.6002,-4.5657,-1.7185,-2.0514,-0.1906,6.4441,6.5167,5.785,6.3469,5.2544,5.8145,5.8,6.2184,6.6136,4.7782,3.8222,2.4761,-2.1921,-2.7909,1.8779,-2.6458,5.23,5.853
4.7306,4.819,4.726,4.8309,4.644,2.9458,-0.3165,-2.4863,-4.215,-1.663,-1.8799,-0.1962,5.75,5.9722,5.3661,5.9541,4.8376,5.3837,5.3903,5.9052,6.2359,4.3447,3.3821,2.2129,-1.8347,-2.2931,1.8183,-2.4362,5.0226,5.6191
4.2937,4.4923,4.445,4.5335,4.4249,2.7272,-0.2853,-2.2089,-3.6577,-1.3659,-1.5703,-0.1613,5.1798,5.4952,4.8806,5.5107,4.3555,4.8444,4.9314,5.577,5.8819,3.9364,2.9584,2.054,-1.4734,-1.7545,1.8436,-2.1673,4.7243,5.2733
3.8027,4.1306,4.1278,4.223,4.2551,2.5655,-0.0507,-1.7738,-2.9062,-0.8483,-1.124,-0.077,4.7375,5.079,4.326,5.009,3.8032,4.2066,4.426,5.2148,5.5334,3.5601,2.5687,2.0138,-1.0839,-1.1431,1.9763,-1.8189,4.3286,4.8165
3.2542,3.7156,3.7555,3.8791,4.1043,2.4421,0.3454,-1.2024,-1.9906,-0.1523,-0.5555,0.0626,4.4083,4.706,3.6996,4.4398,3.1776,3.4876,3.8774,4.7943,5.1638,3.2156,2.2235,2.0947,-0.6407,-0.4334,2.2296,-1.3768,3.8375,4.2582
2.649,3.232,3.314,3.482,3.9394,2.333,0.8493,-0.5293,-0.9551,0.6667,0.1108,0.2604,4.169,4.3567,3.0032,3.7988,2.4819,2.712,3.2931,4.2956,4.7487,2.8991,1.9272,2.2891,-0.1236,0.3875,2.6063,-0.835,3.2624,3.6173
1.9948,2.6727,2.7986,3.019,3.7335,2.2137,1.406,0.202,0.147,1.5482,0.8436,0.5171,3.9955,4.0172,2.2466,3.0905,1.7292,1.9101,2.686,3.7111,4.2754,2.6065,1.6798,2.5809,0.4765,1.3148,3.0982,-0.1975,2.6233,2.9211
1.3073,2.0422,2.2162,2.4889,3.472,2.0646,1.9659,0.9441,1.2585,2.4347,1.6098,0.831,3.8696,3.6841,1.4495,2.3315,0.9431,1.1147,2.0745,3.051,3.748,2.3359,1.4778,2.9477,1.1549,2.3262,3.6863,0.5208,1.9466,2.2031
0.6087,1.3569,1.5845,1.9033,3.1555,1.8737,2.4913,1.6518,2.3251,3.2784,2.3764,1.197,3.7812,3.3649,0.6405,1.5494,0.1555,0.3573,1.48,2.3428,3.1885,2.0879,1.3155,3.364,1.8937,3.3842,4.3429,1.2948,1.2631,1.4987
-0.0742,0.6435,0.9298,1.2859,2.7994,1.6395,2.9581,2.2871,3.3003,4.0455,3.1139,1.6064,3.7284,3.0763,-0.1456,0.7796,-0.597,-0.3352,0.9248,1.6283,2.633,1.8667,1.187,3.8032,2.6644,4.442,5.0344,2.0908,0.6035,0.8411
-0.7134,-0.0648,0.2833,0.6686,2.43,1.3705,3.3566,2.8231,4.1498,4.7177,3.7979,2.0464,3.7157,2.84,-0.8725,0.0605,-1.2785,-0.9427,0.4296,0.9561,2.1256,1.6788,1.0869,4.2416,3.4334,5.4512,5.7264,2.8711,-0.0041,0.2577
-1.2824,-0.7332,-0.3229,0.0871,2.0797,1.0843,3.6884,3.2458,4.8545,5.2909,4.4093,2.4997,3.7499,2.6769,-1.5071,-0.5725,-1.8582,-1.4528,0.0117,0.3734,1.7097,1.5328,1.0119,4.6609,4.1674,6.3688,6.3877,3.5984,-0.5379,-0.2331
-1.7592,-1.3293,-0.86,-0.4246,1.7804,0.8042,3.9638,3.5542,5.4099,5.7716,4.9358,2.9458,3.8371,2.6026,-2.0239,-1.0913,-2.3139,-1.8603,-0.3159,-0.0822,1.4196,1.438,0.9611,5.0494,4.8391,7.1629,6.9935,4.2419,-0.9844,-0.6237
-2.1279,-1.8268,-1.3052,-0.8386,1.5589,0.5556,4.1968,3.7582,5.8255,6.1723,5.3709,3.3624,3.9795,2.6233,-2.4073,-1.478,-2.6338,-2.1653,-0.5449,-0.3884,1.2745,1.4027,0.9362,5.4025,5.4296,7.8165,7.5276,4.7816,-1.3394,-0.9172
-2.3795,-2.2074,-1.6443,-1.1358,1.4334,0.3619,4.402,3.8757,6.1207,6.5067,5.7146,3.7287,4.1744,2.7356,-2.6531,-1.7263,-2.8162,-2.3721,-0.672,-0.5392,1.2764,1.4328,0.9412,5.7218,5.9302,8.3268,7.9824,5.2112,-1.6079,-1.1259
-2.5115,-2.4607,-1.8726,-1.3077,1.4114,0.2408,4.5919,3.9285,6.3208,6.7868,5.9729,4.0283,4.4145,2.9269,-2.7671,-1.8393,-2.8682,-2.488,-0.6988,-0.5444,1.411,1.5306,0.981,6.0129,6.3405,8.7043,8.3576,5.5388,-1.8023,-1.2682
-2.5279,-2.585,-1.995,-1.356,1.491,0.2019,4.7758,3.9388,6.4523,7.0205,6.1576,4.2535,4.6891,3.179,-2.7635,-1.8281,-2.8041,-2.522,-0.6313,-0.4249,1.6522,1.6944,1.0604,6.2833,6.6669,8.9679,8.6589,5.7844,-1.9398,-1.3656
-2.4386,-2.5861,-2.0255,-1.2919,1.6616,0.2446,4.9594,3.9255,6.5392,7.2122,6.2846,4.4064,4.9865,3.4713,-2.6621,-1.7096,-2.6432,-2.4848,-0.4799,-0.208,1.968,1.9179,1.1829,6.5411,6.9196,9.1421,8.8959,5.9766,-2.0398,-1.4393
-2.2596,-2.4777,-1.9858,-1.1342,1.9062,0.3582,5.145,3.9022,6.6007,7.3634,6.3726,4.5,5.2954,3.7846,-2.4855,-1.5046,-2.4076,-2.3883,-0.2583,0.0771,2.3263,2.1918,1.3504,6.7928,7.1116,9.2526,9.0811,6.1464,-2.1222,-1.5077
-2.0129,-2.2812,-1.9028,-0.9074,2.2039,0.5228,5.3326,3.8768,6.65,7.4751,6.4402,4.5543,5.6069,4.1037,-2.2566,-1.2368,-2.1206,-2.246,0.0172,0.4027,2.6997,2.5042,1.5621,7.0436,7.2577,9.3242,9.2281,6.3212,-2.2056,-1.5855
-1.7261,-2.025,-1.8054,-0.6399,2.5314,0.7122,5.5208,3.8523,6.6955,7.5497,6.5039,4.5917,5.9146,4.4185,-1.9975,-0.9328,-1.8056,-2.0729,0.3284,0.7441,3.0678,2.8417,1.8142,7.2964,7.3737,9.3786,9.3508,6.5185,-2.3057,-1.6828
-1.4297,-1.7427,-1.721,-0.3611,2.8646,0.8972,5.7068,3.8282,6.7417,7.592,6.5745,4.6295,6.2139,4.7227,-1.7283,-0.6208,-1.485,-1.8857,0.6559,1.0803,3.4169,3.1898,2.0986,7.552,7.4755,9.4322,9.4615,6.7418,-2.4347,-1.8057
-1.1546,-1.4704,-1.6722,-0.0993,3.1799,1.0495,5.8856,3.8023,6.7899,7.6082,6.655,4.6734,6.4998,5.0118,-1.4675,-0.3302,-1.1804,-1.7019,0.9791,1.3928,3.7377,3.5331,2.4021,7.8079,7.5771,9.4948,9.5685,6.9787,-2.5998,-1.9567
-0.9276,-1.2425,-1.674,0.1205,3.4544,1.1456,6.0496,3.7711,6.838,7.6038,6.7386,4.714,6.7643,5.2793,-1.2318,-0.0895,-0.9123,-1.539,1.2773,1.6644,4.022,3.8548,2.7073,8.0586,7.6889,9.5689,9.6747,7.2029,-2.8026,-2.1355
-0.768,-1.0873,-1.7328,0.2781,3.6671,1.1695,6.1873,3.7315,6.8805,7.5817,6.8086,4.727,6.9952,5.5146,-1.0364,0.0761,-0.6995,-1.413,1.5299,1.8785,4.2592,4.1372,2.993,8.2952,7.8161,9.6498,9.7766,7.3793,-3.0385,-2.3391
-0.6856,-1.024,-1.8467,0.3596,3.7996,1.114,6.2847,3.68,6.908,7.5396,6.8406,4.6775,7.1759,5.702,-0.8948,0.1473,-0.5591,-1.3365,1.7186,2.0195,4.4353,4.3626,3.2372,8.5051,7.9567,9.7268,9.8642,7.4716,-3.2969,-2.5618
-0.6804,-1.0601,-2.0073,0.3564,3.8376,0.9801,6.3258,3.6141,6.908,7.47,6.8077,4.5298,7.2874,5.823,-0.8173,0.1131,-0.5045,-1.3178,1.8284,2.0737,4.5344,4.5157,3.4197,8.6738,8.1018,9.7845,9.9227,7.4493,-3.563,-2.7948
-0.7444,-1.193,-2.2028,0.2657,3.7715,0.7761,6.2958,3.532,6.8669,7.3611,6.6863,4.2566,7.3122,5.8588,-0.8104,-0.0282,-0.5443,-1.36,1.8496,2.0312,4.5406,4.5855,3.5253,8.7854,8.2361,9.806,9.935,7.2957,-3.8192,-3.0263
-0.865,-1.4112,-2.4204,0.0891,3.5981,0.5149,6.1832,3.4334,6.773,7.1995,6.4633,3.8491,7.238,5.7949,-0.8753,-0.2693,-0.6807,-1.4607,1.779,1.8875,4.4428,4.5675,3.5459,8.826,8.3402,9.7756,9.8851,7.0117,-4.048,-3.2424
-1.0277,-1.6976,-2.6481,-0.1673,3.3213,0.2127,5.9827,3.3196,6.6198,6.9729,6.1402,3.321,7.0605,5.6246,-1.0072,-0.595,-0.9074,-1.6123,1.6206,1.6454,4.2373,4.4644,3.4819,8.7854,8.3941,9.682,9.7617,6.6174,-4.234,-3.4287
-1.2169,-2.0315,-2.8746,-0.4919,2.9533,-0.1129,5.6965,3.1939,6.4079,6.6729,5.7344,2.7082,6.7853,5.3516,-1.1945,-0.9836,-1.2094,-1.8024,1.3857,1.3161,3.9309,4.2866,3.342,8.66,8.3805,9.5208,9.5611,6.148,-4.3659,-3.5724
-1.4166,-2.3892,-3.088,-0.866,2.5156,-0.4432,5.3354,3.0623,6.1462,6.2974,5.2757,2.0607,6.4283,4.9914,-1.419,-1.4076,-1.5623,-2.0138,1.0934,0.9209,3.5429,4.0517,3.1427,8.4544,8.2881,9.2947,9.2878,5.6475,-4.4363,-3.6644
-1.6073,-2.744,-3.2737,-1.2628,2.0399,-0.7583,4.9189,2.9326,5.8505,5.8524,4.8011,1.433,6.0147,4.5717,-1.6558,-1.8349,-1.9329,-2.2252,0.77,0.4913,3.1045,3.7844,2.9069,8.1824,8.1136,9.0129,8.9549,5.1597,-4.4414,-3.7014
-1.7653,-3.0651,-3.4137,-1.6469,1.5672,-1.0376,4.4745,2.8148,5.5409,5.3524,4.3464,0.872,5.5785,4.1311,-1.8745,-2.2288,-2.2813,-2.4115,0.4487,0.0683,2.658,3.5151,2.6622,7.8667,7.8619,8.688,8.5818,4.7203,-4.3797,-3.6852
-1.8614,-3.3185,-3.487,-1.9766,1.1445,-1.26,4.0358,2.7189,5.2387,4.8201,3.9404,0.4079,5.1592,3.7158,-2.0404,-2.5493,-2.5637,-2.5448,0.1679,-0.3,2.2526,3.2787,2.4391,7.5373,7.5449,8.3325,8.1909,4.3518,-4.2511,-3.6215
-1.8636,-3.4691,-3.4728,-2.2088,0.8192,-1.4062,3.6382,2.6534,4.9616,4.2831,3.5995,0.0495,4.7984,3.3744,-2.1188,-2.7565,-2.7377,-2.5967,-0.0328,-0.5642,1.9383,3.1109,2.2674,7.2268,7.1791,7.956,7.8042,4.0612,-4.0575,-3.5175
-1.7428,-3.4863,-3.3553,-2.307,0.6306,-1.4618,3.3123,2.6222,4.7201,3.7689,3.3249,-0.2155,4.5325,3.1489,-2.0802,-2.8168,-2.7691,-2.5433,-0.1188,-0.6816,1.7572,3.042,2.1718,6.9644,6.782,7.5639,7.4385,3.841,-3.8027,-3.3794
-1.4804,-3.3514,-3.1293,-2.2494,0.6006,-1.4213,3.0764,2.6221,4.5144,3.2982,3.1045,-0.4144,4.3844,3.0656,-1.9077,-2.7103,-2.64,-2.3713,-0.0687,-0.6261,1.7341,3.0898,2.1669,6.7696,6.3706,7.1581,7.1028,3.6728,-3.4945,-3.2124
-1.0768,-3.0646,-2.8044,-2.0371,0.7266,-1.2922,2.9317,2.6423,4.3343,2.8801,2.9173,-0.5807,4.3568,3.1273,-1.6037,-2.4396,-2.3552,-2.0838,0.1184,-0.3974,1.8686,3.2534,2.2525,6.6471,5.9601,6.7412,6.7978,3.5334,-3.1455,-3.0209
-0.5556,-2.6491,-2.4067,-1.6966,0.979,-1.0958,2.8612,2.6648,4.1624,2.5107,2.7404,-0.7438,4.4294,3.3103,-1.1934,-2.0331,-1.9453,-1.7037,0.4192,-0.0238,2.1328,3.5103,2.4126,6.5862,5.5649,6.3196,6.5174,3.401,-2.7733,-2.8118
0.0378,-2.1482,-1.9748,-1.2757,1.3068,-0.8651,2.8342,2.6691,3.979,2.1765,2.5566,-0.9226,4.5617,3.569,-0.7215,-1.5416,-1.461,-1.2711,0.7905,0.4413,2.4759,3.8204,2.6177,6.5637,5.1993,5.9068,6.2517,3.2596,-2.3992,-2.5956
0.6444,-1.6176,-1.5528,-0.8334,1.6483,-0.6388,2.8147,2.6372,3.7689,1.8601,2.3586,-1.1225,4.7021,3.8452,-0.243,-1.0276,-0.9629,-0.8352,1.1787,0.9317,2.8355,4.134,2.8314,6.5496,4.8773,5.5216,5.9906,3.1013,-2.0459,-2.3878
1.2038,-1.1123,-1.1806,-0.4266,1.945,-0.4524,2.7708,2.5591,3.5265,1.5472,2.1507,-1.3375,4.7991,4.0811,0.1897,-0.5509,-0.5071,-0.4432,1.5331,1.3829,3.151,4.4028,3.0186,6.5134,4.6111,5.1843,5.7255,2.9235,-1.7338,-2.2061
1.667,-0.6757,-0.8855,-0.0986,2.1532,-0.3311,2.6826,2.4369,3.2582,1.231,1.945,-1.5553,4.812,4.2306,0.5382,-0.1554,-0.133,-0.1303,1.8166,1.7466,3.3765,4.5898,3.1521,6.4295,4.4071,4.9084,5.4494,2.7249,-1.4767,-2.0673
2.0052,-0.3322,-0.6773,0.1284,2.2517,-0.2841,2.545,2.2848,2.9809,0.914,1.7561,-1.7638,4.7177,4.2669,0.7856,0.1376,0.1421,0.0869,2.0118,1.9972,3.4871,4.6749,3.217,6.2795,4.2617,4.6946,5.1554,2.5017,-1.2789,-1.9818
2.213,-0.0856,-0.549,0.254,2.2422,-0.3041,2.3666,2.1265,2.718,0.6059,1.5957,-1.9552,4.5121,4.1836,0.9365,0.3293,0.3229,0.2103,2.1194,2.1322,3.4803,4.6558,3.2111,6.0529,4.1595,4.5268,4.8349,2.2453,-1.1339,-1.9505
2.3057,0.0776,-0.4803,0.2961,2.1458,-0.3695,2.1656,1.9891,2.4935,0.3192,1.4687,-2.1278,4.2079,3.9926,1.0117,0.4378,0.4288,0.2563,2.1539,2.1668,3.3712,4.5449,3.1426,5.7469,4.074,4.3746,4.4777,1.9446,-1.0261,-1.9641
2.313,0.1811,-0.4444,0.2832,1.995,-0.4515,1.9634,1.8967,2.3257,0.0656,1.3733,-2.2836,3.8291,3.7187,1.0403,0.4897,0.4861,0.2492,2.1361,2.1266,3.1859,4.3651,3.0271,5.3669,3.9745,4.2023,4.0756,1.5912,-0.9345,-2.0056
2.2708,0.2527,-0.4146,0.2477,1.8261,-0.5207,1.7799,1.8633,2.2236,-0.1466,1.3029,-2.4248,3.4051,3.3932,1.0509,0.5127,0.5198,0.2148,2.0879,2.0399,2.9551,4.1448,2.8839,4.9278,3.8352,3.9807,3.6277,1.1857,-0.838,-2.0556
2.2133,0.318,-0.3686,0.2195,1.6721,-0.5536,1.6293,1.89,2.1848,-0.3138,1.25,-2.5496,2.9666,3.0494,1.0656,0.5304,0.5491,0.1755,2.0288,1.9342,2.7088,3.9135,2.7337,4.4548,3.6437,3.6975,3.1449,0.7422,-0.7209,-2.0972
2.1675,0.397,-0.2923,0.2214,1.5578,-0.5373,1.5188,1.9645,2.197,-0.4366,1.2093,-2.6503,2.5421,2.718,1.0973,0.56,0.5853,0.1473,1.9743,1.8327,2.4727,3.6978,2.5955,3.9819,3.4066,3.363,2.6523,0.2889,-0.5758,-2.1199
2.1494,0.5022,-0.1798,0.2673,1.4972,-0.4702,1.4495,2.065,2.2418,-0.5179,1.1791,-2.7148,2.1558,2.4244,1.1489,0.6114,0.6325,0.139,1.9352,1.7543,2.2671,3.5182,2.4845,3.5481,3.1477,3.0077,2.1862,-0.1363,-0.4047,-2.1209
2.1644,0.6378,-0.0325,0.3614,1.494,-0.3601,1.4174,2.1661,2.2986,-0.563,1.1608,-2.7299,1.8275,2.1874,1.2168,0.6888,0.6893,0.1527,1.9181,1.7125,2.1067,3.3874,2.4102,3.1902,2.9014,2.6736,1.7868,-0.4942,-0.2167,-2.1045
2.2097,0.8007,0.1429,0.4997,1.5431,-0.2207,1.415,2.2455,2.3494,-0.5787,1.1566,-2.6861,1.5715,2.019,1.2942,0.792,0.7513,0.1853,1.9255,1.7169,2.0014,3.3089,2.3753,2.9361,2.703,2.4019,1.4892,-0.754,-0.0239,-2.0795
2.2787,0.9827,0.3364,0.6721,1.6335,-0.0666,1.4327,2.2875,2.3796,-0.5742,1.1655,-2.5826,1.3962,1.9242,1.3752,0.9184,0.8137,0.2307,1.9568,1.7725,1.9579,3.2778,2.376,2.798,2.5783,2.221,1.3134,-0.9018,0.1625,-2.0559
2.365,1.1731,0.5366,0.8658,1.7521,0.0899,1.4592,2.2847,2.3794,-0.5621,1.181,-2.4289,1.3037,1.9022,1.458,1.0648,0.8732,0.2822,2.0084,1.8808,1.9803,3.283,2.4026,2.7695,2.537,2.1383,1.2594,-0.9456,0.3361,-2.0416
2.4656,1.3611,0.7315,1.0679,1.8858,0.2407,1.4824,2.2368,2.3422,-0.5575,1.1904,-2.2456,1.289,1.947,1.5459,1.2289,0.9293,0.3349,2.076,2.0403,2.0699,3.3099,2.4424,2.8269,2.57,2.1381,1.3053,-0.9139,0.4962,-2.0393
2.5826,1.5392,0.9108,1.2683,2.0246,0.3829,1.4902,2.1481,2.2638,-0.577,1.1762,-2.0599,1.3409,2.0485,1.647,1.4101,0.9858,0.3877,2.1556,2.2465,2.2254,3.3445,2.4826,2.9343,2.6522,2.1859,1.4127,-0.8494,0.6467,-2.0446
2.7217,1.705,1.0669,1.4619,2.163,0.5177,1.473,2.0262,2.143,-0.6349,1.1214,-1.9002,1.4432,2.1949,1.7732,1.6095,1.0511,0.4455,2.246,2.4937,2.4422,3.3773,2.5145,3.0524,2.7487,2.2367,1.5348,-0.799,0.7942,-2.0456
2.8914,1.8623,1.1977,1.6495,2.3013,0.6501,1.426,1.8805,1.9825,-0.7389,1.0149,-1.789,1.5779,2.3745,1.9373,1.8315,1.1381,0.5186,2.3508,2.7764,2.7134,3.4062,2.5359,3.1462,2.8229,2.2464,1.627,-0.8021,0.9452,-2.0247
3.0999,2.0219,1.3081,1.8385,2.4458,0.7875,1.3522,1.7218,1.7902,-0.887,0.8568,-1.7368,1.7289,2.5783,2.1515,2.0829,1.2632,0.6222,2.4788,3.0913,3.0301,3.4373,2.5526,3.1928,2.8441,2.1815,1.6567,-0.8813,1.104,-1.9623
3.353,2.1992,1.4106,2.0415,2.6078,0.9391,1.2628,1.562,1.5794,-1.0656,0.6599,-1.7397,1.8845,2.8008,2.4248,2.3728,1.444,0.7732,2.6428,3.4381,3.3836,3.4841,2.5768,3.1841,2.793,2.0257,1.6091,-1.0376,1.272,-1.8416
3.6526,2.4119,1.5228,2.2736,2.8006,1.1133,1.1758,1.4122,1.3673,-1.2507,0.4491,-1.78,2.0402,3.0408,2.761,2.7104,1.6955,0.9866,2.8574,3.8195,3.7659,3.5637,2.6242,3.1269,2.6642,1.7827,1.4888,-1.2508,1.4476,-1.6533
3.9945,2.6743,1.6626,2.5477,3.0362,1.3157,1.1129,1.2809,1.1715,-1.4126,0.2555,-1.8304,2.1984,3.3002,3.1569,3.1023,2.0264,1.2703,3.1339,4.2392,4.1702,3.692,2.7092,3.0395,2.4652,1.4738,1.3176,-1.4857,1.6258,-1.3995
4.3678,2.9918,1.8415,2.8695,3.3205,1.5463,1.094,1.1722,1.0072,-1.5217,0.11,-1.8603,2.3671,3.5822,3.6007,3.5477,2.4349,1.6217,3.476,4.698,4.5904,3.8791,2.8409,2.9463,2.2139,1.1331,1.1288,-1.701,1.7977,-1.0946
4.7531,3.3564,2.0585,3.2326,3.65,1.7971,1.1329,1.0843,0.8835,-1.5549,0.0363,-1.8424,2.5572,3.8884,4.0712,4.0346,2.9052,2.0238,3.8756,5.1887,5.0194,4.1253,3.0195,2.872,1.9351,0.8001,0.9591,-1.859,1.9492,-0.7645
5.1228,3.744,2.2963,3.6162,4.0096,2.0511,1.2334,1.0102,0.8026,-1.5016,0.045,-1.7587,2.7782,4.2166,4.5382,4.5375,3.4074,2.4465,4.3108,5.693,5.4467,4.4194,3.235,2.8362,1.6551,0.5128,0.8418,-1.9334,2.0608,-0.4429
5.4432,4.1159,2.5224,3.9856,4.373,2.2838,1.3882,0.9393,0.76,-1.3655,0.132,-1.6041,3.0346,4.5579,4.9648,5.0171,3.8994,2.8486,4.7467,6.1798,5.8567,4.7385,3.4675,2.8493,1.3978,0.3003,0.7991,-1.9145,2.1091,-0.1657
5.6789,4.4251,2.6949,4.2975,4.7063,2.4672,1.5802,0.8601,0.7459,-1.1648,0.2791,-1.3874,3.3235,4.8966,5.3121,5.4261,4.3328,3.185,5.14,6.6084,6.2279,5.051,3.6902,2.9108,1.1806,0.1783,0.8387,-1.8096,2.0705,0.0348
5.8003,4.6257,2.7723,4.5092,4.9739,2.576,1.7856,0.7632,0.7471,-0.9281,0.458,-1.1296,3.6335,5.2118,5.5455,5.7173,4.6613,3.4149,5.446,6.9358,6.5354,5.3211,3.8736,3.0102,1.012,0.1469,0.9528,-1.6405,1.9272,0.1352
5.7903,4.684,2.7251,4.588,5.146,2.5944,1.9792,0.6438,0.7498,-0.6889,0.6365,-0.8593,3.9476,5.481,5.6414,5.854,4.8496,3.5103,5.628,7.1261,6.7558,5.5152,3.9915,3.1298,0.8912,0.1919,1.1201,-1.4382,1.6735,0.1261
5.6502,4.5873,2.5445,4.521,5.2058,2.5206,2.1389,0.5024,0.7411,-0.4785,0.7853,-0.6068,4.2461,5.6848,5.5935,5.8201,4.8811,3.4617,5.6644,7.1596,6.8725,5.608,4.0262,3.249,0.8099,0.289,1.3117,-1.2371,1.3201,0.0132
5.4006,4.3486,2.2476,4.3187,5.1527,2.369,2.2491,0.3448,0.7112,-0.3211,0.8827,-0.3978,4.511,5.8114,5.4143,5.6247,4.7616,3.2805,5.5548,7.0397,6.8805,5.587,3.9721,3.3489,0.7549,0.4079,1.4961,-1.069,0.8956,-0.1828
5.0784,4.005,1.8753,4.0144,5.0034,2.1677,2.3025,0.1801,0.6536,-0.2308,0.9184,-0.2484,4.7283,5.8583,5.1353,5.3016,4.5182,2.9972,5.32,6.7927,6.7883,5.4553,3.8368,3.4151,0.7117,0.5185,1.6449,-0.9593,0.4428,-0.4295
4.7297,3.6107,1.4837,3.6576,4.7872,1.9522,2.2986,0.0181,0.5653,-0.2115,0.8929,-0.1629,4.8897,5.833,4.8011,4.9035,4.1946,2.6556,4.9994,6.464,6.6168,5.2306,3.6399,3.4393,0.6672,0.5945,1.7364,-0.9242,0.0124,-0.688
4.4003,3.2258,1.133,3.3033,4.54,1.7579,2.2417,-0.1337,0.4459,-0.2591,0.8155,-0.1342,4.9913,5.7501,4.4631,4.4917,3.843,2.306,4.6435,6.1085,6.3957,4.9428,3.4084,3.4182,0.6115,0.6158,1.7567,-0.9703,-0.3471,-0.9184
4.1273,2.9048,0.8739,3.0013,4.2969,1.6129,2.1377,-0.2718,0.2963,-0.3656,0.6989,-0.1479,5.0332,5.6283,4.1707,4.1245,3.5152,1.9974,4.3052,5.7803,6.1575,4.6284,3.1726,3.3518,0.5385,0.5699,1.6996,-1.0948,-0.5979,-1.086
3.9332,2.6877,0.7394,2.7873,4.0864,1.5323,1.992,-0.3976,0.1168,-0.5234,0.5547,-0.1872,5.0173,5.487,3.9647,3.8477,3.2555,1.7711,4.0315,5.523,5.933,4.3249,2.9597,3.2413,0.4447,0.4515,1.5645,-1.2881,-0.7197,-1.1649
3.8243,2.5945,0.74,2.6784,3.9266,1.5167,1.8082,-0.5168,-0.094,-0.7281,0.3891,-0.2384,4.9472,5.3432,3.8714,3.689,3.095,1.6563,3.8559,5.364,5.7473,4.0648,2.7908,3.0876,0.3271,0.2604,1.355,-1.536,-0.7122,-1.1412
3.7948,2.6258,0.8655,2.6744,3.8258,1.5549,1.5883,-0.6375,-0.3387,-0.979,0.2018,-0.2948,4.8284,5.211,3.9015,3.6569,3.0505,1.6681,3.796,5.3132,5.6183,3.8723,2.6775,2.8915,0.1818,0.0014,1.0779,-1.8222,-0.5923,-1.0116
3.8332,2.7678,1.0916,2.7627,3.7848,1.6292,1.3357,-0.7674,-0.6202,-1.277,-0.0124,-0.3578,4.67,5.1018,4.0512,3.7439,3.1253,1.8079,3.8532,5.3667,5.5574,3.7616,2.6233,2.6563,0.0039,-0.3175,0.7434,-2.13,-0.3895,-0.7824
3.9291,2.9986,1.3874,2.9248,3.8004,1.722,1.0572,-0.9115,-0.9391,-1.6199,-0.2595,-0.4349,4.4855,5.0248,4.3054,3.9327,3.3123,2.0657,4.0168,5.512,5.5705,3.7381,2.625,2.3906,-0.2113,-0.6838,0.3671,-2.4437,-0.1376,-0.4664
4.0763,3.2942,1.7223,3.1423,3.8687,1.8211,0.7653,-1.0703,-1.2906,-1.9981,-0.541,-0.5351,4.2938,4.9885,4.6419,4.2009,3.5971,2.4217,4.2682,5.733,5.6591,3.8003,2.6761,2.1104,-0.4652,-1.0803,-0.0292,-2.7479,0.1307,-0.0819
4.2726,3.6323,2.0702,3.3992,3.9851,1.9216,0.4793,-1.2393,-1.6633,-2.3913,-0.8501,-0.6642,4.1173,4.9996,5.034,4.5255,3.96,2.8493,4.5847,6.0131,5.8195,3.9417,2.7687,1.8388,-0.7534,-1.485,-0.4173,-3.0279,0.3879,0.348
4.515,3.992,2.4106,3.6817,4.1438,2.0248,0.2228,-1.4102,-2.039,-2.7693,-1.1703,-0.8203,3.9792,5.0616,5.4522,4.8826,4.3761,3.3164,4.9416,6.3346,6.0411,4.1511,2.8949,1.6032,-1.0641,-1.8718,-0.7658,-3.2698,0.6133,0.7948
4.7942,4.3523,2.7267,3.9754,4.3354,2.1347,0.0207,-1.5727,-2.3949,-3.0959,-1.4777,-0.9935,3.8989,5.1723,5.8652,5.2477,4.8158,3.7873,5.3128,6.6769,6.3057,4.4125,3.0454,1.4294,-1.379,-2.2138,-1.0439,-3.4615,0.792,1.2262
5.0912,4.6906,3.0039,4.2632,4.5461,2.2539,-0.1057,-1.7167,-2.7076,-3.3356,-1.7458,-1.1665,3.8887,5.3231,6.2405,5.5944,5.2447,4.2245,5.6704,7.0149,6.5872,4.7044,3.2085,1.3359,-1.6759,-2.4866,-1.2276,-3.5945,0.9136,1.6089
5.3765,4.9833,3.2283,4.5245,4.7577,2.3804,-0.1433,-1.8342,-2.9575,-3.4614,-1.9525,-1.3197,3.9513,5.4989,6.5464,5.8956,5.6258,4.5919,5.9854,7.319,6.8547,5.0003,3.3696,1.3286,-1.9328,-2.6744,-1.3049,-3.6654,0.9717,1.9133
5.615,5.2077,3.3869,4.7375,4.95,2.5061,-0.0903,-1.9211,-3.1328,-3.4607,-2.0854,-1.436,4.0793,5.6808,6.7568,6.1263,5.9244,4.8588,6.2305,7.5589,7.0777,5.2712,3.512,1.3988,-2.1333,-2.7733,-1.2794,-3.6784,0.9634,2.1198
5.7739,5.3472,3.4697,4.8833,5.1052,2.618,0.0428,-1.9782,-3.232,-3.3393,-2.1454,-1.5062,4.2567,5.8493,6.8554,6.2693,6.1145,5.0046,6.3847,7.7096,7.2325,5.4905,3.6196,1.5245,-2.2703,-2.794,-1.1704,-3.6459,0.8905,2.2228
5.8319,5.3951,3.4728,4.9505,5.211,2.7009,0.2342,-2.011,-3.2642,-3.121,-2.1465,-1.5313,4.4627,5.9892,6.8415,6.3198,6.1854,5.024,6.439,7.7582,7.308,5.6397,3.6812,1.6747,-2.3471,-2.7609,-1.0109,-3.5887,0.7601,2.233
5.7865,5.3578,3.4009,4.9396,5.2638,2.7412,0.4549,-2.0291,-3.2472,-2.8442,-2.1126,-1.5228,4.6748,6.0918,6.7322,6.2893,6.1467,4.9299,6.4009,7.7087,7.308,5.7131,3.6948,1.816,-2.3768,-2.708,-0.8418,-3.5329,0.5841,2.1754
5.6567,5.2547,3.2673,4.8635,5.2688,2.7305,0.6733,-2.0435,-3.204,-2.5543,-2.071,-1.4996,4.8732,6.1567,6.5624,6.2046,6.0291,4.7536,6.2957,7.5832,7.2504,5.7208,3.6698,1.9197,-2.3789,-2.6724,-0.7041,-3.5053,0.3775,2.084
5.4795,5.1151,3.092,4.7453,5.2378,2.6675,0.8602,-2.0649,-3.1588,-2.2968,-2.0467,-1.484,5.043,6.1908,6.3794,6.1035,5.8795,4.5412,6.1635,7.418,7.1627,5.6874,3.6266,1.967,-2.3751,-2.6874,-0.632,-3.5275,0.1568,1.9956
5.3019,4.9731,2.8992,4.6137,5.1865,2.5594,0.9935,-2.1006,-3.1324,-2.109,-2.0572,-1.4956,5.1758,6.2063,6.2341,6.0268,5.7524,4.3454,6.0516,7.2563,7.076,5.6472,3.5932,1.9523,-2.385,-2.7757,-0.6458,-3.6107,-0.0623,1.9428
5.1713,4.8613,2.7128,4.4981,5.1311,2.4209,1.0607,-2.1527,-3.1391,-2.0153,-2.1093,-1.5475,5.2707,6.2181,6.1721,6.0105,5.6989,4.2162,6.0055,7.1397,7.019,5.6373,3.5992,1.8833,-2.4226,-2.9458,-0.7492,-3.753,-0.2656,1.9492
5.1263,4.8062,2.554,4.4238,5.0867,2.2732,1.0609,-2.2172,-3.1842,-2.0239,-2.1992,-1.643,5.3331,6.2419,6.224,6.078,5.7555,4.1906,6.0581,7.1004,7.0139,5.6901,3.6688,1.7784,-2.4942,-3.1901,-0.9281,-3.9393,-0.44,2.0265
5.1894,4.8244,2.4392,4.4086,5.0654,2.1408,1.0033,-2.2845,-3.2637,-2.1274,-2.3149,-1.7756,5.3725,6.2916,6.4,6.2358,5.9362,4.285,6.2231,7.1553,7.0738,5.8259,3.8155,1.6622,-2.5983,-3.4866,-1.1548,-4.1457,-0.5735,2.1745
5.3638,4.9198,2.3777,4.46,5.0755,2.0479,0.9044,-2.3419,-3.3669,-2.3069,-2.44,-1.931,5.3995,6.3762,6.6872,6.4728,6.2286,4.4912,6.4904,7.3035,7.2015,6.0479,4.0373,1.559,-2.7266,-3.8035,-1.3941,-4.3452,-0.6566,2.3816
5.6325,5.0828,2.3711,4.5745,5.1198,2.0126,0.7831,-2.3777,-3.4798,-2.5369,-2.559,-2.0915,5.4214,6.4972,7.0516,6.7616,6.596,4.779,6.8275,7.5267,7.389,6.3407,4.3164,1.4871,-2.8667,-4.1053,-1.6117,-4.5147,-0.6853,2.6279
5.962,5.2919,2.4124,4.7371,5.1945,2.0432,0.6549,-2.3847,-3.5892,-2.7919,-2.6614,-2.2416,5.4384,6.646,7.4447,7.0637,6.9846,5.1028,7.1863,7.7918,7.6175,6.6719,4.6216,1.4544,-3.0045,-4.3595,-1.7819,-4.6401,-0.6636,2.8882
6.3076,5.5162,2.4878,4.9238,5.2883,2.1346,0.5284,-2.3632,-3.6867,-3.0514,-2.7442,-2.3719,5.4418,6.8033,7.8124,7.3363,7.3342,5.4116,7.5126,8.0571,7.8587,6.9982,4.9137,1.4565,-3.1271,-4.5426,-1.8931,-4.7188,-0.6041,3.1358
6.622,5.7207,2.5788,5.1044,5.3828,2.269,0.403,-2.3212,-3.77,-3.3026,-2.8125,-2.4819,5.4152,6.9404,8.1049,7.5387,7.591,5.6605,7.7576,8.2785,8.0778,7.2733,5.1531,1.4784,-3.2243,-4.6438,-1.9489,-4.7584,-0.5265,3.3455
6.8626,5.8723,2.6651,5.2481,5.4547,2.4184,0.2705,-2.2727,-3.8423,-3.5404,-2.877,-2.579,5.3373,7.0235,8.2852,7.6391,7.7179,5.8184,7.8868,8.417,8.2366,7.4564,5.3075,1.4987,-3.2895,-4.666,-1.9654,-4.7727,-0.4537,3.4966
6.9979,5.9449,2.7284,5.328,5.4795,2.5514,0.1188,-2.2331,-3.91,-3.7654,-2.9497,-2.6752,5.1883,7.019,8.3347,7.6187,7.7,5.8729,7.8855,8.4435,8.2992,7.52,5.3575,1.4947,-3.3201,-4.6244,-1.9659,-4.7768,-0.4069,3.5748
7.0115,5.9251,2.7556,5.3272,5.437,2.64,-0.0627,-2.2146,-3.9785,-3.9799,-3.0389,-2.7822,4.9561,6.9016,8.2546,7.4742,7.5457,5.8296,7.7599,8.3442,8.2377,7.4538,5.2999,1.4488,-3.3175,-4.5425,-1.9728,-4.7824,-0.4019,3.5745
6.9035,5.815,2.7416,5.242,5.3174,2.6675,-0.2765,-2.2212,-4.0477,-4.1827,-3.1449,-2.9057,4.6428,6.6609,8.0641,7.2183,7.2833,5.7081,7.5334,8.1222,8.0389,7.2667,5.1473,1.3527,-3.287,-4.4473,-2.0019,-4.7948,-0.4456,3.4998
6.6897,5.6323,2.6908,5.0846,5.1257,2.6328,-0.5134,-2.246,-4.1104,-4.3658,-3.258,-3.0415,4.2673,6.3072,7.7952,6.8778,6.9532,5.5361,7.241,7.7976,7.7093,6.9846,4.9255,1.2107,-3.2371,-4.3637,-2.0576,-4.8124,-0.5347,3.3642
6.3989,5.4079,2.617,4.881,4.8831,2.5521,-0.751,-2.272,-4.1515,-4.5128,-3.3586,-3.1741,3.8653,5.8725,7.4868,6.4892,6.6004,5.3423,6.922,7.4057,7.2775,6.6464,4.668,1.0389,-3.1788,-4.3098,-2.1317,-4.8283,-0.6559,3.189
6.0675,5.1797,2.54,4.667,4.624,2.4543,-0.9575,-2.2762,-4.1519,-4.6015,-3.4211,-3.2792,3.4839,5.4071,7.1774,6.0936,6.2661,5.1513,6.6134,6.9907,6.7918,6.297,4.4106,0.8622,-3.1242,-4.2944,-2.206,-4.8333,-0.7887,3.0001
5.7338,4.9852,2.4811,4.4799,4.3887,2.3734,-1.0978,-2.236,-4.0939,-4.609,-3.4201,-3.3287,3.1733,4.9712,6.8987,5.7294,5.9811,4.9795,6.3443,6.5993,6.3123,5.9805,4.1853,0.7096,-3.0841,-4.3157,-2.2564,-4.8195,-0.9099,2.8227
5.4316,4.8525,2.4573,4.3501,4.2133,2.3384,-1.143,-2.1365,-3.9673,-4.5179,-3.3366,-3.2978,2.9766,4.6235,6.6713,5.4262,5.7625,4.8346,6.1328,6.2714,5.9005,5.733,4.0158,0.6076,-3.0671,-4.3629,-2.2588,-4.7825,-0.9986,2.6768
5.1839,4.7943,2.4747,4.2929,4.1194,2.3637,-1.0779,-1.9758,-3.7735,-4.3226,-3.1635,-3.1703,2.9219,4.4092,6.5026,5.1991,5.6124,4.7158,5.9848,6.0337,5.6065,5.577,3.9138,0.575,-3.0772,-4.4192,-2.1947,-4.7221,-1.042,2.5733
4.9996,4.8039,2.5258,4.304,4.1079,2.4435,-0.9065,-1.7668,-3.5266,-4.032,-2.9071,-2.9433,3.0166,4.3507,6.3866,5.0466,5.5201,4.6174,5.8946,5.8945,5.4586,5.5188,3.8789,0.6197,-3.113,-4.4647,-2.0546,-4.641,-1.0387,2.5117
4.8721,4.8558,2.5884,4.3588,4.1563,2.5507,-0.6527,-1.5355,-3.2514,-3.67,-2.5869,-2.6275,3.2452,4.4423,6.3064,4.9509,5.4653,4.5301,5.848,5.842,5.4568,5.5473,3.8989,0.7371,-3.1673,-4.4805,-1.8393,-4.5421,-0.9993,2.4801
4.7809,4.9105,2.6287,4.4167,4.2226,2.6421,-0.3568,-1.3167,-2.979,-3.2716,-2.2318,-2.2453,3.5725,4.6508,6.2383,4.8815,5.4224,4.4435,5.8243,5.8473,5.572,5.6371,3.9529,0.9115,-3.2271,-4.451,-1.56,-4.4274,-0.945,2.4584
4.6954,4.9216,2.608,4.4286,4.2539,2.667,-0.0692,-1.1476,-2.7418,-2.8787,-1.8754,-1.8275,3.9484,4.9215,6.1557,4.8012,5.3644,4.3462,5.7996,5.8695,5.7517,5.7526,4.0151,1.1192,-3.276,-4.3669,-1.2356,-4.2967,-0.9031,2.4222
4.5803,4.8445,2.4904,4.3473,4.1969,2.5785,0.1586,-1.0618,-2.569,-2.5337,-1.5514,-1.4077,4.3169,5.1891,6.0336,4.6731,5.2663,4.2266,5.7496,5.8638,5.9307,5.8537,4.0588,1.3327,-3.2969,-4.2261,-0.8897,-4.1484,-0.9022,2.3481
4.4022,4.6443,2.25,4.1357,4.0094,2.3433,0.2815,-1.0848,-2.4827,-2.274,-1.2888,-1.0176,4.6246,5.3898,5.8525,4.4665,5.1072,4.0734,5.6523,5.7894,6.0443,5.9026,4.0605,1.5254,-3.2759,-4.0342,-0.547,-3.9813,-0.9671,2.2183
4.135,4.302,1.877,3.7751,3.6685,1.9497,0.2688,-1.2293,-2.4965,-2.1281,-1.108,-0.6823,4.8306,5.4743,5.6006,4.1621,4.8725,3.8763,5.4898,5.6172,6.0414,5.8693,4.0031,1.6764,-3.2049,-3.8032,-0.2293,-3.7956,-1.1145,2.0238
3.7662,3.8185,1.3798,3.2685,3.1758,1.4092,0.1081,-1.4938,-2.6134,-2.1113,-1.0185,-0.4163,4.9121,5.4159,5.2751,3.7552,4.5551,3.6275,5.2504,5.3344,5.8944,5.7358,3.8774,1.7738,-3.0839,-3.5485,0.0477,-3.5941,-1.3507,1.765
3.2995,3.2152,0.7852,2.6411,2.5569,0.7554,-0.1923,-1.8622,-2.826,-2.2247,-1.0171,-0.2217,4.8684,5.2152,4.8827,3.2566,4.1576,3.324,4.9313,4.9472,5.6041,5.499,3.6836,1.8161,-2.9197,-3.2856,0.277,-3.3811,-1.6704,1.4518
2.7568,2.5323,0.1342,1.9368,1.8564,0.0383,-0.6055,-2.3057,-3.1163,-2.4542,-1.0888,-0.0881,4.7195,4.8981,4.4384,2.692,3.6932,2.9703,4.5398,4.4789,5.1976,5.1711,3.4316,1.812,-2.7243,-3.0268,0.4608,-3.1615,-2.0569,1.1015
2.1756,1.8243,-0.5228,1.2125,1.1316,-0.6841,-1.0892,-2.7865,-3.4577,-2.771,-1.208,0.0057,4.5019,4.5098,3.9652,2.0995,3.1875,2.5803,4.0949,3.9671,4.7217,4.7783,3.1404,1.778,-2.5116,-2.7787,0.6093,-2.9384,-2.4837,0.7368
1.6051,1.1537,-1.1329,0.5309,0.4428,-1.3532,-1.5919,-3.2614,-3.816,-3.1348,-1.3425,0.0876,4.2609,4.1056,3.4925,1.5263,2.6773,2.1785,3.628,3.4578,4.2336,4.3586,2.837,1.735,-2.2949,-2.5428,0.7381,-2.7124,-2.9178,0.3834
1.0985,0.5822,-1.6474,-0.0484,-0.1538,-1.918,-2.0594,-3.6869,-4.1529,-3.4975,-1.4567,0.1869,4.0436,3.7411,3.0545,1.0222,2.2075,1.7983,3.1803,2.9997,3.7904,3.9569,2.5539,1.7042,-2.0853,-2.3165,0.8644,-2.4818,-3.3234,0.0666
0.7054,0.1626,-2.028,-0.4763,-0.6127,-2.3403,-2.4411,-4.0235,-4.4287,-3.8084,-1.5165,0.329,3.8907,3.4632,2.6868,0.6341,1.8256,1.4783,2.7987,2.6381,3.4408,3.6196,2.3249,1.7038,-1.8915,-2.0969,1.0023,-2.2444,-3.6672,-0.1918
0.4635,-0.07,-2.2509,-0.721,-0.9034,-2.598,-2.6958,-4.2385,-4.6071,-4.021,-1.4937,0.5305,3.832,3.3044,2.4222,0.3986,1.5737,1.2556,2.5287,2.4086,3.2188,3.3883,2.1798,1.746,-1.7203,-1.8834,1.1601,-1.9998,-3.9231,-0.3774
0.3927,-0.1037,-2.3101,-0.7719,-1.012,-2.6857,-2.7961,-4.3102,-4.6592,-4.0989,-1.3701,0.7962,3.8824,3.2794,2.2849,0.3354,1.4795,1.157,2.4049,2.3327,3.1411,3.2925,2.1383,1.8357,-1.5764,-1.6793,1.3386,-1.7521,-4.0758,-0.4857
0.4915,0.0477,-2.2176,-0.6415,-0.9417,-2.6137,-2.731,-4.23,-4.568,-4.0217,-1.1407,1.1189,4.0418,3.3853,2.2844,0.4431,1.5496,1.1924,2.4434,2.4136,3.2063,3.3437,2.2056,1.9703,-1.4632,-1.4918,1.5316,-1.5101,-4.1236,-0.5239
0.7363,0.346,-2.0022,-0.3636,-0.7123,-2.4052,-2.508,-4.0046,-4.3326,-3.7887,-0.8155,1.4806,4.2962,3.6034,2.4118,0.6971,1.7651,1.3501,2.6347,2.6346,3.3966,3.5321,2.369,2.1408,-1.3814,-1.3299,1.7279,-1.2859,-4.078,-0.509
1.0852,0.7351,-1.7048,0.012,-0.3578,-2.0931,-2.1514,-3.6555,-3.9695,-3.4197,-0.4184,1.8561,4.6207,3.904,2.6394,1.0526,2.0838,1.5972,2.9441,2.9607,3.6812,3.8268,2.6,2.3336,-1.3281,-1.2008,1.9154,-1.092,-3.9613,-0.4633
1.4841,1.1507,-1.3721,0.427,0.0772,-1.7153,-1.6991,-3.2178,-3.5115,-2.9515,0.0158,2.2177,4.9853,4.252,2.9244,1.4525,2.4473,1.8863,3.3166,3.3448,4.0219,4.1816,2.8596,2.5345,-1.2959,-1.1075,2.0849,-0.9377,-3.8022,-0.4077
1.8769,1.5321,-1.0494,0.8249,0.5431,-1.3102,-1.1961,-2.7353,-3.0031,-2.4314,0.4475,2.5408,5.3599,4.6131,3.2177,1.8382,2.7927,2.1652,3.6894,3.7357,4.38,4.5444,3.1066,2.7312,-1.2728,-1.0463,2.2329,-0.8255,-3.6299,-0.3559
2.2146,1.8334,-0.772,1.1602,0.9922,-0.9125,-0.6879,-2.2543,-2.4939,-1.9083,0.8387,2.8077,5.7193,4.9597,3.4739,2.1615,3.0666,2.3887,4.005,4.089,4.7225,4.8683,3.3077,2.9164,-1.243,-1.0075,2.3632,-0.7501,-3.4683,-0.3103
2.4647,2.0317,-0.5602,1.4064,1.3853,-0.5496,-0.213,-1.8176,-2.0302,-1.4249,1.1596,3.0108,6.0469,5.2745,3.6613,2.3943,3.2363,2.5286,4.2244,4.3754,5.0281,5.1206,3.4434,3.0881,-1.1902,-0.9769,2.4849,-0.699,-3.3315,-0.2632
2.6155,2.1297,-0.4165,1.5592,1.6974,-0.2391,0.2016,-1.4588,-1.6489,-1.0118,1.393,3.1524,6.3351,5.5513,3.7678,2.5332,3.296,2.5783,4.3343,4.5863,5.2893,5.2888,3.5122,3.249,-1.1008,-0.9399,2.6089,-0.6559,-3.2221,-0.2012
2.6768,2.1536,-0.3267,1.6352,1.9198,0.0114,0.542,-1.1994,-1.3723,-0.6854,1.535,3.2426,6.5844,5.7943,3.8031,2.5993,3.2672,2.5537,4.3494,4.7341,5.5126,5.3809,3.529,3.4044,-0.967,-0.8852,2.7444,-0.6054,-3.1328,-0.1122
2.6773,2.1453,-0.2651,1.667,2.0605,0.2033,0.8069,-1.0477,-1.2078,-0.4487,1.5935,3.2954,6.8011,6.0145,3.7948,2.632,3.1926,2.4875,4.306,4.8489,5.7156,5.4214,3.52,3.5603,-0.7892,-0.8073,2.8951,-0.5367,-3.05,0.0091
2.6568,2.1528,-0.2015,1.6942,2.1404,0.3447,1.0042,-1.0006,-1.1489,-0.295,1.5843,3.3243,6.9948,6.2262,3.7814,2.6799,3.1258,2.4209,4.253,4.9707,5.9219,5.4437,3.5155,3.7208,-0.576,-0.7083,3.058,-0.4473,-2.9605,0.158
2.658,2.2193,-0.1096,1.7552,2.1883,0.4472,1.1471,-1.0456,-1.1788,-0.2115,1.5263,3.3378,7.1757,6.4428,3.8025,2.7899,3.119,2.393,4.2393,5.1395,6.1546,5.4809,3.5418,3.8873,-0.3428,-0.5972,3.224,-0.3428,-2.8561,0.3203
2.7167,2.3742,0.0265,1.8782,2.2346,0.5234,1.2503,-1.164,-1.2745,-0.1829,1.4376,3.3377,7.3527,6.6732,3.8895,2.9971,3.211,2.4318,4.3022,5.3855,6.4292,5.5577,3.6147,4.0571,-0.1095,-0.4875,3.3794,-0.236,-2.7379,0.4767
2.8539,2.6264,0.2083,2.076,2.3048,0.5835,1.3274,-1.3328,-1.41,-0.1936,1.3329,3.3189,7.5318,6.9191,4.0578,3.3166,3.4186,2.5483,4.4591,5.7204,6.7485,5.6841,3.7353,4.2235,0.1025,-0.3943,3.5096,-0.1433,-2.6159,0.6072
3.0705,2.9624,0.4225,2.3428,2.4139,0.634,1.3895,-1.527,-1.559,-0.2293,1.2232,3.2725,7.7148,7.1738,4.3025,3.7397,3.7327,2.7342,4.7043,6.1331,7.1002,5.8534,3.8901,4.3769,0.2737,-0.3303,3.6024,-0.08,-2.5075,0.6962
3.347,3.348,0.6434,2.655,2.5635,0.6758,1.4446,-1.7208,-1.6963,-0.2769,1.1167,3.1901,7.8988,7.4234,4.5996,4.2347,4.12,2.9646,5.0107,6.5904,7.4582,6.0447,4.0543,4.5067,0.3902,-0.3023,3.651,-0.057,-2.4325,0.7349
3.6473,3.7342,0.8387,2.9755,2.7413,0.7048,1.4985,-1.8896,-1.7994,-0.3251,1.0203,3.0682,8.0761,7.6493,4.91,4.7511,4.5295,3.2034,5.336,7.0428,7.7871,6.2285,4.1983,4.6036,0.4456,-0.309,3.6562,-0.0772,-2.409,0.7222
3.9256,4.0655,0.9751,3.2599,2.9227,0.7124,1.5542,-2.012,-1.8501,-0.3644,0.9405,2.9106,8.2348,7.8311,5.1874,5.2279,4.9021,3.4116,5.6315,7.4328,8.05,6.3737,4.2945,4.662,0.4434,-0.3413,3.6261,-0.136,-2.4486,0.6632
4.1357,4.2895,1.0247,3.4635,3.0758,0.688,1.6128,-2.0721,-1.8368,-0.3877,0.8836,2.7279,8.3596,7.9502,5.3869,5.6039,5.1813,3.5544,5.8511,7.7066,8.2144,6.4552,4.3238,4.681,0.3954,-0.3836,3.5745,-0.2224,-2.5545,0.566
4.2386,4.3655,0.9705,3.5494,3.1672,0.6217,1.6726,-2.0618,-1.7564,-0.3911,0.8552,2.5348,8.433,7.9919,5.4731,5.8275,5.3229,3.6076,5.9592,7.8229,8.2588,6.4573,4.2784,4.6642,0.32,-0.4188,3.5172,-0.3223,-2.7202,0.4395
4.21,4.2725,0.81,3.4953,3.1689,0.5078,1.7303,-1.9818,-1.615,-0.3736,0.859,2.3465,8.438,7.9473,5.4262,5.866,5.3021,3.5609,5.9356,7.7611,8.1757,6.3764,4.163,4.6181,0.2374,-0.4324,3.4677,-0.4222,-2.9311,0.2914
4.0442,4.0138,0.5569,3.2984,3.0652,0.3474,1.7816,-1.8413,-1.4269,-0.3376,0.8957,2.1747,8.3609,7.8151,5.2463,5.7127,5.118,3.4193,5.7794,7.5254,7.9727,6.2203,3.9926,4.5501,0.1647,-0.4175,3.4334,-0.5128,-3.1663,0.1284
3.7569,3.6179,0.24,2.9782,2.8572,0.1503,1.8226,-1.655,-1.2116,-0.2872,0.9633,2.0259,8.1945,7.6018,4.9536,5.3893,4.7945,3.2021,5.5084,7.1447,7.6717,6.0059,3.789,4.4664,0.1124,-0.3763,3.4138,-0.5904,-3.401,-0.0424
3.3837,3.1358,-0.0997,2.5746,2.5645,-0.0643,1.8508,-1.4403,-0.9905,-0.2284,1.0564,1.9017,7.9416,7.3222,4.5861,4.9441,4.3775,2.9395,5.1575,6.6693,7.3054,5.7569,3.5767,4.371,0.0827,-0.3201,3.4008,-0.6575,-3.6094,-0.2116
2.9758,2.6336,-0.4154,2.1425,2.2226,-0.2701,1.8657,-1.2144,-0.7826,-0.1681,1.1672,1.7996,7.6158,6.9989,4.1941,4.4449,3.9278,2.6683,4.7739,6.1623,6.9134,5.5003,3.3792,4.2664,0.0709,-0.2654,3.3814,-0.7206,-3.7673,-0.366
2.5923,2.1818,-0.6614,1.7435,1.8776,-0.4378,1.8682,-0.9918,-0.6022,-0.1143,1.2849,1.7146,7.2414,6.6599,3.8318,3.9672,3.5116,2.4267,4.4091,5.6901,6.5365,5.2626,3.2159,4.1542,0.0692,-0.2288,3.3417,-0.7879,-3.8547,-0.4886
2.2898,1.8446,-0.8011,1.435,1.5784,-0.5397,1.8594,-0.784,-0.4578,-0.0767,1.3958,1.6405,6.8493,6.3359,3.5487,3.5818,3.1888,2.2482,4.1111,5.3108,6.2115,5.0668,3.0998,4.0367,0.0708,-0.2213,3.2708,-0.8662,-3.8586,-0.5601
2.113,1.6694,-0.8123,1.2615,1.368,-0.5547,1.8389,-0.599,-0.3526,-0.0662,1.484,1.5705,6.4727,6.056,3.381,3.3421,3.0032,2.1567,3.916,5.066,5.9668,4.9297,3.0366,3.9178,0.0743,-0.2443,3.1642,-0.9586,-3.7741,-0.5615
2.0869,1.6802,-0.6906,1.2475,1.2769,-0.472,1.8048,-0.442,-0.2858,-0.0941,1.5325,1.498,6.1411,5.844,3.3471,3.2769,2.9756,2.1626,3.8427,4.9748,5.8192,4.8597,3.0245,3.8033,0.0847,-0.2891,3.024,-1.0639,-3.6057,-0.4778
2.2136,1.876,-0.4484,1.3956,1.3195,-0.2925,1.7537,-0.3154,-0.2539,-0.17,1.5256,1.4177,5.8758,5.7155,3.4458,3.3877,3.1023,2.2627,3.8918,5.0333,5.7731,4.8575,3.0562,3.7004,0.1125,-0.3384,2.8589,-1.1764,-3.3657,-0.301
2.4747,2.2337,-0.1111,1.6885,1.4933,-0.0272,1.6822,-0.2183,-0.2514,-0.2993,1.4526,1.3258,5.687,5.6756,3.6591,3.6522,3.3586,2.4422,4.0471,5.2189,5.8214,4.9163,3.1205,3.6157,0.1708,-0.3715,2.6812,-1.288,-3.0716,-0.0323
2.8378,2.7151,0.2898,2.0946,1.7805,0.3051,1.5886,-0.1471,-0.2715,-0.482,1.3104,1.2213,5.5728,5.7185,3.9582,4.0323,3.7071,2.6787,4.2819,5.497,5.9478,5.0239,3.2048,3.5534,0.2702,-0.3705,2.503,-1.3911,-2.7426,0.3182
3.2647,3.2757,0.7234,2.5755,2.1527,0.6824,1.474,-0.0949,-0.3068,-0.7111,1.1059,1.105,5.52,5.8283,4.31,4.4834,4.1075,2.9482,4.5654,5.8291,6.1293,5.1652,3.2978,3.5135,0.4143,-0.3262,2.3332,-1.4807,-2.396,0.7329
3.7197,3.8729,1.1647,3.0934,2.5759,1.0831,1.3432,-0.053,-0.349,-0.9739,0.8553,0.9795,5.5073,5.9815,4.6838,4.9642,4.5244,3.2292,4.8687,6.1806,6.3405,5.3238,3.3903,3.4915,0.597,-0.2412,2.1749,-1.5571,-2.045,1.1898
4.1746,4.4713,1.5973,3.6153,3.0153,1.4881,1.2035,-0.0124,-0.3902,-1.2532,0.5819,0.8485,5.5101,6.1509,5.0552,5.4421,4.9331,3.5061,5.1693,6.5252,6.557,5.4845,3.4767,3.4785,0.8029,-0.1291,2.0261,-1.6248,-1.6981,1.6642
