FP1,F3,F7,FC3,C3,C5,P3,P7,PO7,PO3,O1,Oz,Pz,CPz,FP2,Fz,F4,F8,FC4,FCz,Cz,C4,C6,P4,P8,PO8,PO4,O2,(corr) HEOG,(corr) VEOG
-0.6253,-1.0599,-0.1223,-0.5945,-0.3037,-0.1884,0.5578,0.3001,0.3832,0.9866,0.5532,0.323,0.1347,-0.4784,-0.6617,-0.9599,-1.6368,0.1156,-0.8715,-1.1017,-1.1629,-0.39,-0.5158,0.6679,0.708,0.645,1.0408,0.5955,0.7504,2.4234
-0.7244,-1.2057,-0.1455,-0.7366,-0.5024,-0.3498,0.3605,0.1945,0.2925,0.8031,0.4266,0.2392,-0.0451,-0.5953,-0.7333,-1.0444,-1.7116,0.1765,-0.8832,-1.1791,-1.269,-0.3794,-0.4275,0.614,0.6673,0.5194,0.9056,0.465,0.7064,2.4125
-0.8016,-1.3244,-0.1795,-0.8751,-0.7001,-0.5311,0.1356,0.0875,0.1945,0.5915,0.2824,0.1398,-0.2403,-0.7152,-0.7667,-1.0776,-1.6993,0.2499,-0.8367,-1.213,-1.3412,-0.3595,-0.3384,0.5208,0.6006,0.3707,0.7389,0.3135,0.6433,2.3809
-0.8374,-1.3899,-0.205,-0.9798,-0.8695,-0.7086,-0.0998,-0.012,0.0968,0.368,0.1322,0.0289,-0.4369,-0.8273,-0.7512,-1.043,-1.5879,0.3282,-0.7266,-1.1884,-1.3654,-0.3287,-0.2575,0.3877,0.5047,0.1999,0.545,0.1459,0.5712,2.3487
-0.8175,-1.382,-0.1999,-1.0251,-0.9883,-0.8583,-0.3306,-0.0991,0.0038,0.1456,-0.0153,-0.0903,-0.6247,-0.9244,-0.684,-0.9332,-1.3812,0.4018,-0.557,-1.0966,-1.3341,-0.2892,-0.1963,0.2145,0.3751,0.006,0.3261,-0.0339,0.5045,2.334
-0.7343,-1.2894,-0.144,-0.9931,-1.0409,-0.959,-0.5435,-0.1719,-0.0818,-0.0648,-0.1527,-0.2148,-0.7972,-1.0021,-0.5695,-0.7496,-1.0977,0.4621,-0.3401,-0.9368,-1.2463,-0.2463,-0.1671,0.0031,0.2079,-0.212,0.0848,-0.2222,0.4582,2.3488
-0.5873,-1.1108,-0.0226,-0.8764,-1.0204,-0.995,-0.7268,-0.2295,-0.1579,-0.2539,-0.2735,-0.3392,-0.9504,-1.0588,-0.4171,-0.5011,-0.7661,0.505,-0.0936,-0.7146,-1.1065,-0.2062,-0.1804,-0.2411,0.0014,-0.4529,-0.1744,-0.4131,0.445,2.3959
-0.3825,-0.8538,0.1702,-0.6773,-0.9273,-0.9574,-0.8695,-0.2702,-0.2212,-0.4132,-0.3718,-0.4563,-1.0821,-1.0939,-0.2377,-0.2023,-0.4177,0.5325,0.1642,-0.4411,-0.9224,-0.1741,-0.2412,-0.5076,-0.2406,-0.7111,-0.4427,-0.5998,0.4712,2.4694
-0.1312,-0.5339,0.4306,-0.407,-0.7689,-0.8452,-0.9626,-0.2914,-0.2677,-0.536,-0.4436,-0.5593,-1.1912,-1.1082,-0.042,0.1297,-0.0809,0.5527,0.417,-0.131,-0.7038,-0.1523,-0.3479,-0.7819,-0.5089,-0.9772,-0.709,-0.7754,0.5349,2.5568
0.1502,-0.1735,0.7444,-0.0844,-0.5584,-0.6663,-1.0014,-0.2903,-0.2947,-0.6202,-0.4904,-0.6461,-1.2798,-1.1047,0.1601,0.476,0.2232,0.5757,0.6521,0.1984,-0.4622,-0.1407,-0.4918,-1.0478,-0.7897,-1.2403,-0.9628,-0.9376,0.6261,2.6441
0.4404,0.1994,1.0886,0.2648,-0.3155,-0.438,-0.9904,-0.2664,-0.3032,-0.6718,-0.5229,-0.7242,-1.3555,-1.0912,0.357,0.8161,0.4811,0.6088,0.8589,0.5258,-0.2124,-0.1394,-0.6602,-1.2935,-1.0678,-1.4917,-1.1995,-1.0922,0.7282,2.7211
0.712,0.5511,1.4328,0.6083,-0.0672,-0.1871,-0.946,-0.2249,-0.3013,-0.7086,-0.5638,-0.8143,-1.435,-1.0831,0.5322,1.1253,0.6826,0.6501,1.0254,0.8254,0.0248,-0.1525,-0.8413,-1.5161,-1.3303,-1.7281,-1.4249,-1.2554,0.8224,2.7849
0.9312,0.8434,1.7409,0.9074,0.1518,0.0503,-0.8987,-0.1774,-0.3043,-0.7606,-0.647,-0.9493,-1.5453,-1.1059,0.6611,1.3738,0.8163,0.6847,1.1346,1.0643,0.2198,-0.1921,-1.0294,-1.7261,-1.5702,-1.9534,-1.6574,-1.4531,0.8915,2.8408
1.0586,1.0355,1.9738,1.1188,0.3001,0.2323,-0.8903,-0.1415,-0.3326,-0.8676,-0.8126,-1.1692,-1.7222,-1.1942,0.7109,1.5249,0.8645,0.6839,1.1616,1.2031,0.3341,-0.28,-1.2286,-1.9464,-1.7874,-2.1779,-1.9254,-1.7156,0.9238,2.9001
1.0528,1.0869,2.0917,1.1978,0.3337,0.3156,-0.9676,-0.138,-0.4065,-1.0713,-1.0975,-1.5105,-2.0049,-1.3881,0.6424,1.5379,0.8022,0.61,1.0748,1.1985,0.3235,-0.4463,-1.4538,-2.2087,-1.9885,-2.4137,-2.2611,-2.0696,0.9154,2.9757
0.8759,0.9625,2.0585,1.1045,0.2124,0.262,-1.1718,-0.1849,-0.5391,-1.4043,-1.5232,-1.9952,-2.4264,-1.7247,0.4177,1.3727,0.6004,0.4232,0.8409,1.0096,0.145,-0.7231,-1.7269,-2.5441,-2.1833,-2.6697,-2.6899,-2.5284,0.87,3.0771
0.5016,0.6386,1.8471,0.811,-0.0911,0.0459,-1.5271,-0.2923,-0.7296,-1.8791,-2.0844,-2.6196,-3.0031,-2.2282,0.0084,0.9976,0.2324,0.0916,0.4327,0.6056,-0.2335,-1.1361,-2.0704,-2.9728,-2.3805,-2.9455,-3.2204,-3.0836,0.7968,3.2072
-0.0772,0.1093,1.4447,0.3095,-0.5838,-0.3397,-2.0308,-0.4577,-0.9586,-2.4775,-2.7421,-3.3474,-3.7248,-2.8996,-0.5947,0.3982,-0.3163,-0.4002,-0.1616,-0.0243,-0.8231,-1.695,-2.4987,-3.4936,-2.5825,-3.2273,-3.8348,-3.7003,0.7078,3.3614
-0.8422,-0.6084,0.8576,-0.3827,-1.246,-0.8783,-2.6467,-0.6631,-1.1879,-3.1467,-3.422,-4.1082,-4.5487,-3.7099,-1.3751,-0.4155,-1.0403,-1.0458,-0.9307,-0.8645,-1.6061,-2.3854,-3.0097,-4.0775,-2.7814,-3.4849,-4.4847,-4.3161,0.6139,3.5286
-1.7473,-1.473,0.1134,-1.2215,-2.0297,-1.5298,-3.3059,-0.8761,-1.3638,-3.8003,-4.0205,-4.8023,-5.3988,-4.5979,-2.2876,-1.4051,-1.9093,-1.8151,-1.8364,-1.8687,-2.533,-3.1649,-3.5796,-4.6655,-2.9553,-3.6729,-5.0915,-4.8453,0.5227,3.6945
-2.7206,-2.4195,-0.74,-2.1387,-2.8617,-2.2331,-3.9131,-1.054,-1.4246,-4.3274,-4.4163,-5.3109,-6.1721,-5.4744,-3.2611,-2.5039,-2.8671,-2.6576,-2.8138,-2.9622,-3.5248,-3.9647,-4.1614,-5.1727,-3.0678,-3.7326,-5.553,-5.1865,0.437,3.8446
-3.6716,-3.3653,-1.6389,-3.0492,-3.6516,-2.913,-4.3594,-1.1506,-1.3104,-4.607,-4.4876,-5.5104,-6.7506,-6.2327,-4.2058,-3.6228,-3.8365,-3.5083,-3.7773,-4.0487,-4.481,-4.6963,-4.6884,-5.4986,-3.0696,-3.5975,-5.7554,-5.2335,0.3561,3.9676
-4.5026,-4.2203,-2.5114,-3.8616,-4.3038,-3.4905,-4.5387,-1.1239,-0.9738,-4.527,-4.1307,-5.2903,-7.0183,-6.7633,-5.0241,-4.6599,-4.7276,-4.2963,-4.6296,-5.0215,-5.293,-5.2631,-5.0827,-5.5414,-2.9045,-3.2016,-5.5891,-4.8887,0.2772,4.0566
-5.1216,-4.8988,-3.2861,-4.4908,-4.731,-3.8929,-4.3656,-0.9445,-0.39,-4.0037,-3.279,-4.5709,-6.879,-6.9704,-5.6245,-5.514,-5.4497,-4.9536,-5.2752,-5.7781,-5.8592,-5.575,-5.2666,-5.2144,-2.5175,-2.4889,-4.9665,-4.078,0.198,4.1098
-5.4567,-5.3337,-3.901,-4.8706,-4.8686,-4.0655,-3.7906,-0.6021,0.4365,-2.9982,-1.9177,-3.3198,-6.2741,-6.7882,-5.9348,-6.0994,-5.9242,-5.4234,-5.6336,-6.2354,-6.1008,-5.5627,-5.1757,-4.4629,-1.8667,-1.4249,-3.8386,-2.7655,0.1185,4.129
-5.4675,-5.4879,-4.3098,-4.9641,-4.6852,-3.9801,-2.8116,-0.1088,1.4684,-1.5284,-0.0924,-1.5621,-5.1952,-6.193,-5.9142,-6.3594,-6.0988,-5.6675,-5.6543,-6.3429,-5.976,-5.1917,-4.7723,-3.2774,-0.9346,-0.0082,-2.209,-0.9646,0.0414,4.118
-5.1528,-5.3629,-4.4863,-4.7707,-4.1893,-3.6405,-1.4777,0.5012,2.6385,0.3286,2.0914,0.6167,-3.6902,-5.2104,-5.5617,-6.277,-5.9573,-5.6718,-5.3269,-6.093,-5.4877,-4.4709,-4.0558,-1.7018,0.2616,1.7215,-0.1408,1.2547,-0.0275,4.0798
-4.5522,-4.999,-4.4273,-4.3271,-3.4298,-3.0833,0.1141,1.176,3.8567,2.4424,4.4781,3.076,-1.8611,-3.9147,-4.918,-5.8793,-5.5254,-5.4486,-4.6868,-5.5231,-4.6857,-3.4549,-3.0682,0.1671,1.6651,3.6796,2.2442,3.7667,-0.0807,4.0143
-3.7407,-4.4688,-4.1519,-3.7018,-2.4891,-2.3722,1.8305,1.853,5.0222,4.6446,6.8807,5.6355,0.1467,-2.4204,-4.0613,-5.234,-4.8682,-5.0362,-3.8122,-4.7108,-3.6592,-2.2394,-1.8921,2.1881,3.1815,5.7409,4.7756,6.3998,-0.1103,3.9184
-2.818,-3.8631,-3.7003,-2.9832,-1.4705,-1.5889,3.5192,2.4686,6.0366,6.7501,9.1044,8.0951,2.1623,-0.8673,-3.0956,-4.4385,-4.0804,-4.4939,-2.8125,-3.7615,-2.5229,-0.9476,-0.6411,4.1924,4.6885,7.7514,7.2538,8.9543,-0.1098,3.787
-1.8921,-3.2728,-3.13,-2.2642,-0.4819,-0.8197,5.0297,2.9665,6.8168,8.5814,10.9714,10.26,4.0123,0.6002,-2.1349,-3.6031,-3.2699,-3.8939,-1.8108,-2.7906,-1.3982,0.2875,0.5563,6.0058,6.0516,9.5474,9.4743,11.2262,-0.0754,3.6163
-1.0631,-2.7721,-2.509,-1.6266,0.3803,-0.143,6.2332,3.3052,7.3048,9.9908,12.3422,11.9632,5.5436,1.8533,-1.2846,-2.8319,-2.5388,-3.3111,-0.9231,-1.9047,-0.3938,1.3434,1.5766,7.4726,7.1438,10.9774,11.2545,13.0333,-0.0072,3.4069
-0.4084,-2.4057,-1.9075,-1.1288,1.0447,0.3817,7.0393,3.4616,7.4738,10.8785,13.131,13.0856,6.6435,2.7972,-0.6264,-2.2063,-1.9666,-2.8125,-0.2392,-1.185,0.4098,2.1265,2.3202,8.4764,7.8645,11.9236,12.4576,14.2391,0.09,3.1654
0.0268,-2.1854,-1.3882,-0.7993,1.4728,0.7199,7.4048,3.4324,7.3287,11.2019,13.3119,13.5672,7.252,3.3818,-0.2075,-1.7737,-1.5982,-2.4483,0.19,-0.6777,0.9696,2.5842,2.7265,8.9545,8.1543,12.3185,13.0086,14.7694,0.207,2.9042
0.2329,-2.0934,-0.9968,-0.6369,1.6598,0.864,7.3362,3.2324,6.9035,10.9777,12.9178,13.411,7.3664,3.6044,-0.0371,-1.5439,-1.44,-2.2456,0.3574,-0.3911,1.2811,2.71,2.7813,8.9036,8.0025,12.1523,12.9016,14.6185,0.3314,2.6398
0.2323,-2.0922,-0.755,-0.6166,1.63,0.8299,6.8844,2.8917,6.2553,10.2751,12.0313,12.678,7.0355,3.5034,-0.0897,-1.4936,-1.4635,-2.2072,0.2952,-0.3014,1.3721,2.5387,2.5153,8.3751,7.4459,11.4717,12.1952,13.8456,0.4506,2.3907
0.0711,-2.1374,-0.6585,-0.6986,1.4276,0.6515,6.1335,2.4509,5.4565,9.2027,10.7709,11.4748,6.3474,3.1465,-0.3149,-1.5763,-1.6156,-2.3138,0.0636,-0.3622,1.2915,2.1363,1.9949,7.463,6.5602,10.3694,10.9996,12.5619,0.5547,2.1753
-0.1923,-2.1888,-0.6792,-0.8387,1.1069,0.3724,5.1867,1.957,4.5864,7.892,9.2747,9.937,5.4124,2.6152,-0.6495,-1.7357,-1.8331,-2.5297,-0.2643,-0.5179,1.0961,1.5843,1.3075,6.2864,5.4458,8.9676,9.4571,10.9116,0.6397,2.0097
-0.499,-2.2188,-0.7728,-0.9971,0.7223,0.038,4.151,1.4585,3.7229,6.4796,7.6838,8.2107,4.3453,1.9907,-1.0301,-1.9181,-2.0566,-2.8116,-0.618,-0.7144,0.8399,0.9653,0.5447,4.9712,4.2116,7.3992,7.7213,9.0509,0.7085,1.9066
-0.7986,-2.215,-0.8892,-1.1442,0.3214,-0.3109,3.1245,1.0019,2.9362,5.0912,6.1278,6.4355,3.2505,1.3429,-1.4039,-2.0816,-2.2421,-3.1167,-0.9414,-0.9076,0.5664,0.3499,-0.2121,3.6329,2.9601,5.7902,5.9377,7.1294,0.7701,1.8733
-1.0564,-2.1785,-0.984,-1.2618,-0.0583,-0.642,2.1869,0.6278,2.2832,3.8297,4.7135,4.7309,2.2113,0.7245,-1.7349,-2.2013,-2.3673,-3.4099,-1.1994,-1.0679,0.3059,-0.2107,-0.9017,2.3647,1.7759,4.2469,4.2283,5.2745,0.8374,1.9116
-1.255,-2.1194,-1.0281,-1.3422,-0.39,-0.9331,1.3943,0.3678,1.8044,2.7682,3.5176,3.1873,1.2846,0.1691,-2.0058,-2.2692,-2.432,-3.6686,-1.3794,-1.1805,0.0762,-0.6861,-1.4877,1.2313,0.7194,2.8476,2.6836,3.5831,0.9234,2.0178
-1.3938,-2.051,-1.0145,-1.3842,-0.6565,-1.1713,0.7779,0.2425,1.5219,1.9468,2.5843,1.8628,0.5013,-0.3065,-2.2165,-2.2913,-2.4538,-3.8851,-1.4875,-1.2434,-0.1148,-1.065,-1.9568,0.2679,-0.1748,1.6408,1.3592,2.1174,1.0377,2.1843
-1.4859,-1.9855,-0.9589,-1.3911,-0.8494,-1.3513,0.3465,0.2595,1.4391,1.3756,1.9261,0.7841,-0.1306,-0.6992,-2.3802,-2.2834,-2.4613,-4.0657,-1.5432,-1.2653,-0.266,-1.3498,-2.3139,-0.5153,-0.8943,0.6477,0.278,0.9073,1.1847,2.4001
-1.5542,-1.934,-0.8957,-1.3696,-0.9686,-1.4745,0.0899,0.413,1.5426,1.038,1.5283,-0.0488,-0.6211,-1.0155,-2.5189,-2.2672,-2.4869,-4.2286,-1.5736,-1.2629,-0.3823,-1.5516,-2.5751,-1.127,-1.4443,-0.1316,-0.5634,-0.0449,1.3617,2.6517
-1.6277,-1.9073,-0.8705,-1.3306,-1.023,-1.5487,-0.0164,0.6844,1.8037,0.8985,1.3557,-0.6562,-0.9925,-1.269,-2.6598,-2.268,-2.5619,-4.4011,-1.6086,-1.2593,-0.4741,-1.687,-2.7626,-1.5886,-1.8412,-0.712,-1.1879,-0.7569,1.5601,2.9235
-1.7371,-1.9194,-0.9292,-1.2912,-1.031,-1.5873,-0.0066,1.0452,2.1833,0.9096,1.3605,-1.0716,-1.2736,-1.478,-2.832,-2.3129,-2.7131,-4.6147,-1.6777,-1.2819,-0.5574,-1.776,-2.9001,-1.9276,-2.1076,-1.1161,-1.63,-1.2597,1.7671,3.1978
-1.912,-1.9887,-1.1093,-1.2749,-1.0193,-1.6096,0.0802,1.4597,2.6351,1.0193,1.4895,-1.3348,-1.4957,-1.6641,-3.0637,-2.429,-2.9612,-4.9006,-1.8075,-1.3603,-0.6543,-1.8408,-3.0105,-2.1735,-2.2677,-1.3701,-1.9287,-1.5911,1.9683,3.4565
-2.177,-2.1376,-1.433,-1.3108,-1.0212,-1.6394,0.204,1.8893,3.1108,1.1771,1.6898,-1.4875,-1.688,-1.8498,-3.3789,-2.6409,-3.32,-5.2842,-2.0198,-1.5229,-0.7907,-1.906,-3.1154,-2.355,-2.3452,-1.5003,-2.1233,-1.7908,2.1502,3.6836
-2.5491,-2.3898,-1.905,-1.4305,-1.0726,-1.7033,0.3268,2.2959,3.5637,1.3385,1.9129,-1.5699,-1.8758,-2.0573,-3.7946,-2.9681,-3.7954,-5.7804,-2.3296,-1.7939,-0.9942,-1.9967,-3.2346,-2.4985,-2.3611,-1.5319,-2.2491,-1.8974,2.3018,3.8667
-3.0364,-2.7657,-2.5145,-1.663,-1.2069,-1.828,0.4147,2.6446,3.952,1.4677,2.1165,-1.6188,-2.0786,-2.3061,-4.3186,-3.4222,-4.3851,-6.3911,-2.7441,-2.1895,-1.2892,-2.1374,-3.3854,-2.6271,-2.3325,-1.4884,-2.3364,-1.9465,2.416,3.9994
-3.6375,-3.2785,-3.2391,-2.0302,-1.4508,-2.0373,0.4406,2.9064,4.2417,1.5388,2.2656,-1.666,-2.309,-2.6111,-4.948,-4.0045,-5.0785,-7.1036,-3.2614,-2.7156,-1.6928,-2.3483,-3.5821,-2.7586,-2.2723,-1.3909,-2.4091,-1.969,2.4885,4.0806
-4.341,-3.9294,-4.0507,-2.541,-1.819,-2.3483,0.3857,3.0603,4.4092,1.5359,2.3336,-1.7367,-2.5727,-2.9799,-5.669,-4.7049,-5.856,-7.8926,-3.8704,-3.3653,-2.2106,-2.6424,-3.8336,-2.9046,-2.1884,-1.2573,-2.4832,-1.9896,2.5179,4.1132
-5.1267,-4.7055,-4.9198,-3.1885,-2.3116,-2.7678,0.2422,3.095,4.443,1.4533,2.3039,-1.8473,-2.8677,-3.4115,-6.4571,-5.5021,-6.6903,-8.7221,-4.5514,-4.1194,-2.8346,-3.0222,-4.141,-3.0679,-2.0835,-1.1017,-2.5663,-2.0253,2.5042,4.1015
-5.9662,-5.5794,-5.8182,-3.9492,-2.913,-3.2899,0.014,3.0101,4.345,1.2956,2.1717,-2.0038,-3.1837,-3.8945,-7.2792,-6.3648,-7.5472,-9.5502,-5.2769,-4.9468,-3.5425,-3.4771,-4.4959,-3.2411,-1.9556,-0.9326,-2.6561,-2.0832,2.4478,4.0498
-6.825,-6.5112,-6.7188,-4.785,-3.5931,-3.8951,-0.2822,2.8162,4.1299,1.0766,1.9454,-2.2001,-3.5024,-4.4074,-8.0962,-7.2546,-8.389,-10.3326,-6.014,-5.8087,-4.2999,-3.9837,-4.8796,-3.4068,-1.799,-0.7524,-2.7402,-2.1592,2.3496,3.9615
-7.6641,-7.4531,-7.5948,-5.6483,-4.3109,-4.5517,-0.6186,2.5339,3.8233,0.8192,1.6477,-2.4181,-3.7988,-4.92,-8.867,-8.1294,-9.1773,-11.0279,-6.7266,-6.6617,-5.0644,-4.5076,-5.2642,-3.5389,-1.606,-0.5565,-2.7964,-2.2375,2.2111,3.8404
-8.4432,-8.3549,-8.4185,-6.4884,-5.0197,-5.2194,-0.959,2.1912,3.4593,0.5533,1.3139,-2.6282,-4.0424,-5.3962,-9.5518,-8.9473,-9.8766,-11.6015,-7.3784,-7.4632,-5.7906,-5.0077,-5.6165,-3.6056,-1.3681,-0.3344,-2.7956,-2.2913,2.0352,3.6931
-9.1244,-9.17,-9.1616,-7.2581,-5.6728,-5.8541,-1.2631,1.8205,3.0765,0.3136,0.9898,-2.7925,-4.2013,-5.7986,-10.1162,-9.6703,-10.4577,-12.0284,-7.9358,-8.1751,-6.4355,-5.4416,-5.9021,-3.5738,-1.0778,-0.0701,-2.7045,-2.2856,1.8268,3.5295
-9.6754,-9.8608,-9.7974,-7.9196,-6.2296,-6.4142,-1.4915,1.4543,2.7137,0.1365,0.7256,-2.8688,-4.2455,-6.0929,-10.5344,-10.268,-10.8999,-12.2955,-8.3717,-8.7681,-6.9635,-5.7711,-6.0906,-3.4148,-0.7296,0.2553,-2.4907,-2.1814,1.5933,3.3627
-10.0738,-10.4028,-10.3042,-8.4487,-6.6596,-6.8656,-1.612,1.1223,2.4063,0.0552,0.5694,-2.8171,-4.1522,-6.2534,-10.7918,-10.7207,-11.1929,-12.4014,-8.6679,-9.2239,-7.3508,-5.9684,-6.1608,-3.1087,-0.3212,0.6599,-2.1285,-1.942,1.3433,3.2052
-10.3099,-10.7868,-10.6688,-8.8368,-6.9462,-7.1863,-1.6041,0.8473,2.1817,0.0946,0.5587,-2.6067,-3.9099,-6.2671,-10.8867,-11.0216,-11.3376,-12.3565,-8.8177,-9.5371,-7.5878,-6.0193,-6.1036,-2.6497,0.1452,1.1562,-1.6042,-1.5408,1.0856,3.0658
-10.3887,-11.0193,-10.8891,-9.0901,-7.0877,-7.3689,-1.4634,0.6436,2.0561,0.2661,0.7122,-2.2244,-3.5221,-6.1364,-10.8306,-11.1779,-11.346,-12.1803,-8.8268,-9.7148,-7.6797,-5.9254,-5.9232,-2.0484,0.6613,1.7465,-0.9219,-0.969,0.8276,2.946
-10.3295,-11.1205,-10.9749,-9.227,-7.0969,-7.4203,-1.2029,0.5147,2.0308,0.5623,1.0234,-1.6811,-3.0094,-5.8793,-10.6471,-11.2087,-11.2388,-11.8994,-8.7116,-9.7749,-7.6454,-5.7038,-5.6366,-1.3332,1.2122,2.4174,-0.1067,-0.2425,0.5746,2.8403
-10.1626,-11.1206,-10.9459,-9.2732,-6.9983,-7.3609,-0.853,0.4532,2.0908,0.9548,1.4566,-1.0163,-2.409,-5.5271,-10.3688,-11.1422,-11.0432,-11.5442,-8.4972,-9.7424,-7.5138,-5.3841,-5.271,-0.5489,1.7747,3.1367,0.7941,0.5941,0.3292,2.7374
-9.9254,-11.0536,-10.8278,-9.2569,-6.8245,-7.2199,-0.458,0.4407,2.2037,1.3948,1.9472,-0.2971,-1.7718,-5.1213,-10.033,-11.0103,-10.7879,-11.1448,-8.2128,-9.6453,-7.319,-5.0039,-4.8593,0.2472,2.3187,3.8542,1.7139,1.4682,0.093,2.6251
-9.6564,-10.9522,-10.6482,-9.2035,-6.6112,-7.0313,-0.0711,0.45,2.3223,1.8172,2.4086,0.3874,-1.1566,-4.7072,-9.6764,-10.8438,-10.4996,-10.7276,-7.888,-9.5099,-7.0954,-4.6035,-4.4363,0.9914,2.8088,4.5049,2.5731,2.2865,-0.1321,2.4955
-9.3894,-10.8419,-10.4318,-9.1317,-6.3921,-6.828,0.2538,0.4487,2.3903,2.1503,2.7431,0.9383,-0.6222,-4.3276,-9.3308,-10.6673,-10.1997,-10.3125,-7.5483,-9.3576,-6.8728,-4.2196,-4.0337,1.6226,3.2087,5.0185,3.2897,2.9475,-0.3429,2.3495
-9.1491,-10.7385,-10.1979,-9.0517,-6.1942,-6.6371,0.4704,0.4044,2.3517,2.3274,2.8594,1.2638,-0.2178,-4.0168,-9.0187,-10.4967,-9.902,-9.9129,-7.2132,-9.2018,-6.6719,-3.8805,-3.6763,2.0907,3.487,5.3307,3.7923,3.3585,-0.5338,2.1993
-8.9491,-10.6467,-9.9593,-8.9653,-6.0343,-6.4766,0.5494,0.2914,2.1617,2.3013,2.6911,1.2974,0.026,-3.7943,-8.7528,-10.3386,-9.6131,-9.5375,-6.8949,-9.048,-6.5028,-3.6022,-3.3794,2.3655,3.623,5.3966,4.0329,3.4546,-0.697,2.0674
-8.7917,-10.562,-9.7245,-8.8675,-5.9169,-6.3535,0.4844,0.097,1.7991,2.0558,2.2144,1.0146,0.1026,-3.6625,-8.5356,-10.1915,-9.3339,-9.1931,-6.5993,-8.8945,-6.3642,-3.3875,-3.1475,2.4429,3.612,5.2017,3.998,3.2146,-0.8232,1.9817
-8.67,-10.4747,-9.4993,-8.7505,-5.8351,-6.2649,0.2949,-0.1735,1.2748,1.6134,1.4601,0.4428,0.0322,-3.6062,-8.3623,-10.0487,-9.063,-8.8867,-6.328,-8.7351,-6.2453,-3.2269,-2.9753,2.3455,3.4679,4.7689,3.7133,2.6697,-0.9034,1.9686
-8.572,-10.374,-9.2905,-8.6067,-5.7728,-6.2004,0.0245,-0.4956,0.6357,1.036,0.5155,-0.3383,-0.1414,-3.5969,-8.2231,-9.9023,-8.8,-8.6269,-6.0805,-8.5623,-6.1293,-3.1027,-2.8501,2.1204,3.2224,4.158,3.2419,1.9029,-0.9304,2.0456
-8.4846,-10.2526,-9.1068,-8.4325,-5.7096,-6.1461,-0.2659,-0.8273,-0.0389,0.4166,-0.4849,-1.2064,-0.3588,-3.5987,-8.1068,-9.7472,-8.5474,-8.4224,-5.8572,-8.3708,-5.9986,-2.9945,-2.7554,1.831,2.9206,3.4574,2.6751,1.0375,-0.9012,2.2161
-8.3968,-10.1089,-8.9589,-8.2303,-5.6251,-6.0881,-0.5085,-1.1155,-0.649,-0.1342,-1.379,-2.0156,-0.5544,-3.5765,-8.0031,-9.5834,-8.3115,-8.2803,-5.66,-8.1595,-5.8392,-2.8834,-2.6747,1.5464,2.6141,2.7702,2.1173,0.2166,-0.819,2.4671
-8.3016,-9.9476,-8.8567,-8.0077,-5.5036,-6.015,-0.6397,-1.3048,-1.0904,-0.5078,-2.0056,-2.6223,-0.6681,-3.5022,-7.9039,-9.4158,-8.1011,-8.2035,-5.492,-7.9321,-5.6439,-2.7566,-2.594,1.3302,2.3517,2.1951,1.6686,-0.4226,-0.6937,2.7717
-8.1954,-9.7775,-8.8058,-7.7761,-5.3359,-5.9194,-0.6107,-1.3475,-1.275,-0.617,-2.2341,-2.9103,-0.6546,-3.3588,-7.8037,-9.2523,-7.9244,-8.1894,-5.3555,-7.6954,-5.4131,-2.6077,-2.5031,1.2311,2.1713,1.8083,1.4077,-0.7737,-0.5415,3.0935
-8.0766,-9.6076,-8.8041,-7.546,-5.1191,-5.7967,-0.3944,-1.2134,-1.1478,-0.4113,-1.9893,-2.8114,-0.4887,-3.1411,-7.698,-9.0995,-7.7857,-8.2285,-5.2491,-7.4562,-5.1526,-2.4363,-2.3955,1.2763,2.0936,1.6505,1.3795,-0.7796,-0.3825,3.3939
-7.942,-9.4423,-8.839,-7.323,-4.8549,-5.6434,0.0118,-0.8954,-0.699,0.1144,-1.2664,-2.3162,-0.1668,-2.8534,-7.582,-8.9583,-7.6826,-8.3047,-5.1654,-7.2167,-4.8692,-2.2456,-2.2683,1.4698,2.1197,1.7205,1.5899,-0.4407,-0.2376,3.6398
-7.7852,-9.2778,-8.8873,-7.1038,-4.5456,-5.4551,0.5879,-0.4122,0.0325,0.9193,-0.1334,-1.4736,0.2955,-2.5056,-7.4479,-8.8207,-7.6038,-8.3953,-5.0894,-6.9721,-4.5663,-2.0391,-2.1204,1.7944,2.232,1.9784,2.008,0.1888,-0.1244,3.8103
-7.5951,-9.1007,-8.918,-6.8749,-4.192,-5.225,1.2953,0.1941,0.9637,1.9245,1.2795,-0.3808,0.8695,-2.1082,-7.2844,-8.6686,-7.5292,-8.4725,-4.9994,-6.7085,-4.2404,-1.8179,-1.9516,2.2176,2.3992,2.3555,2.5738,1.0128,-0.0545,3.9016
-7.3568,-8.8894,-8.8972,-6.6137,-3.7919,-4.944,2.0837,0.8642,1.9797,3.0256,2.7992,0.833,1.5195,-1.6691,-7.0767,-8.4765,-7.4319,-8.5066,-4.8691,-6.4047,-3.8799,-1.5793,-1.7614,2.6979,2.5829,2.7676,3.2111,1.912,-0.0318,3.927
-7.055,-8.6183,-8.7943,-6.293,-3.3404,-4.6028,2.8978,1.5298,2.9508,4.1087,4.2359,2.0266,2.2094,-1.1918,-6.8092,-8.2152,-7.282,-8.4699,-4.6714,-6.0356,-3.4679,-1.3162,-1.5483,3.1931,2.7456,3.1308,3.841,2.7633,-0.0529,3.9133
-6.6775,-8.2637,-8.5887,-5.8878,-2.8332,-4.1945,3.6834,2.1239,3.7521,5.067,5.4115,3.0675,2.9067,-0.6766,-6.4691,-7.8591,-7.0528,-8.3419,-4.3842,-5.5784,-2.9865,-1.0184,-1.3094,3.6664,2.8577,3.3755,4.3948,3.459,-0.1092,3.8935
-6.2196,-7.8103,-8.2737,-5.3821,-2.2701,-3.719,4.3935,2.5903,4.2835,5.8152,6.1873,3.8504,3.5856,-0.1228,-6.0505,-7.3921,-6.7262,-8.1123,-3.995,-5.0189,-2.4237,-0.6755,-1.0414,4.0909,2.9025,3.4573,4.8249,3.9227,-0.1899,3.8977
-5.687,-7.2563,-7.8587,-4.7748,-1.6586,-3.1848,4.9923,2.8915,4.4849,6.3012,6.4856,4.3125,4.2268,0.4672,-5.557,-6.813,-6.2984,-7.784,-3.5052,-4.3571,-1.7786,-0.2809,-0.7425,4.4524,2.8786,3.3642,5.1104,4.1204,-0.2842,3.9471
-5.0971,-6.6162,-7.3673,-4.083,-1.0165,-2.611,5.4581,3.0138,4.3463,6.5123,6.3027,4.4424,4.817,1.0844,-5.004,-6.1388,-5.7823,-7.3723,-2.9326,-3.6105,-1.0656,0.1646,-0.4144,4.7485,2.7992,3.1177,5.2585,4.065,-0.3832,4.0493
-4.4782,-5.9214,-6.8342,-3.3408,-0.3717,-2.0258,5.7841,2.9677,3.9085,6.4743,5.7094,4.2799,5.3466,1.7105,-4.4177,-5.404,-5.2079,-6.9033,-2.3102,-2.8144,-0.3157,0.6496,-0.0653,4.9859,2.6882,2.7694,5.2998,3.8127,-0.4806,4.1989
-3.8668,-5.217,-6.2999,-2.5967,0.2399,-1.4646,5.9767,2.7846,3.2549,6.2451,4.8373,3.9078,5.807,2.3173,-3.8328,-4.6577,-4.6188,-6.4101,-1.683,-2.0184,0.4264,1.1516,0.2899,5.176,2.5746,2.3901,5.2799,3.4517,-0.5726,4.3801
-3.3041,-4.5567,-5.8054,-1.907,0.7785,-0.9655,6.0527,2.5106,2.4967,5.9021,3.855,3.4353,6.188,2.8676,-3.2894,-3.9573,-4.0663,-5.9291,-1.1021,-1.281,1.1065,1.6383,0.6291,5.3298,2.4853,2.0569,5.2476,3.0842,-0.6576,4.5707
-2.8317,-3.9965,-5.3885,-1.3294,1.2054,-0.5647,6.0346,2.1976,1.7532,5.5271,2.9367,2.9766,6.4771,3.3193,-2.8276,-3.3618,-3.6025,-5.4951,-0.6186,-0.6618,1.6681,2.0708,0.9249,5.4532,2.4389,1.8376,5.2436,2.8053,-0.7355,4.7479
-2.4865,-3.5868,-5.0798,-0.9147,1.4883,-0.2916,5.9461,1.896,1.1325,5.1919,2.231,2.6298,6.6586,3.6307,-2.4834,-2.924,-3.2732,-5.1381,-0.277,-0.2139,2.0602,2.4088,1.1482,5.5447,2.4417,1.7778,5.292,2.6849,-0.8075,4.8915
-2.2971,-3.366,-4.9,-0.7005,1.6061,-0.1645,5.8087,1.6469,0.7143,4.9463,1.8364,2.4593,6.7166,3.7664,-2.2847,-2.6837,-3.1122,-4.8807,-0.1098,0.0236,2.2442,2.6169,1.2721,5.5959,2.4862,1.8925,5.3956,2.7546,-0.8755,4.9872
-2.2797,-3.3547,-4.8584,-0.705,1.5524,-0.1875,5.6396,1.4783,0.5406,4.8126,1.7877,2.4865,6.6379,3.7038,-2.248,-2.6638,-3.1369,-4.7366,-0.1338,0.0305,2.1999,2.6694,1.277,5.5937,2.554,2.1647,5.5379,3.0045,-0.941,5.0275
-2.4357,-3.5526,-4.9508,-0.9248,1.3369,-0.3497,5.4507,1.4027,0.6122,4.7855,2.0559,2.6898,6.4167,3.4378,-2.3765,-2.8666,-3.3463,-4.7108,-0.3482,-0.1916,1.9287,2.556,1.1545,5.5249,2.6199,2.55,5.6879,3.388,-1.0049,5.0112
-2.7503,-3.9375,-5.1594,-1.3336,0.9848,-0.6256,5.2498,1.4185,0.893,4.8381,2.5596,3.0124,6.0583,2.9843,-2.6589,-3.2739,-3.7217,-4.7999,-0.7343,-0.6193,1.4545,2.2837,0.9103,5.3806,2.658,2.9855,5.8087,3.8337,-1.0662,4.9434
-3.1923,-4.4666,-5.4531,-1.8852,0.535,-0.9777,5.0422,1.5123,1.3199,4.9301,3.1851,3.3759,5.582,2.3797,-3.0701,-3.8479,-4.2276,-4.9912,-1.2566,-1.2094,0.8218,1.8783,0.5654,5.1605,2.6471,3.4019,5.8659,4.2603,-1.1223,4.8346
-3.7163,-5.0805,-5.7901,-2.5171,0.0366,-1.36,4.8327,1.6629,1.8155,5.019,3.8099,3.6979,5.0214,1.6788,-3.5716,-4.5335,-4.8154,-5.2631,-1.8656,-1.9031,0.0915,1.3818,0.1545,4.8744,2.5748,3.7349,5.8348,4.5923,-1.1695,4.6998
-4.2659,-5.709,-6.1212,-3.1577,-0.4553,-1.7224,4.6277,1.846,2.3024,5.0688,4.3249,3.9079,4.423,0.9491,-4.1138,-5.2627,-5.4275,-5.5852,-2.5021,-2.6311,-0.665,0.8485,-0.2778,4.5437,2.4388,3.9359,5.706,4.7737,-1.2043,4.5562
-4.7793,-6.2791,-6.3961,-3.7332,-0.8844,-2.0157,4.4371,2.038,2.7154,5.0579,4.6525,3.9616,3.8422,0.2643,-4.6404,-5.9606,-6.0025,-5.9187,-3.1024,-3.3209,-1.3724,0.3391,-0.6822,4.1993,2.2475,3.9782,5.4878,4.7769,-1.2244,4.421
-5.1962,-6.7238,-6.5692,-4.1766,-1.1987,-2.1968,4.2749,2.2196,3.011,4.983,4.757,3.8484,3.3386,-0.3035,-5.0932,-6.5532,-6.4823,-6.22,-3.6049,-3.9032,-1.9593,-0.0866,-1.0111,3.8797,2.0182,3.8613,5.2062,4.6075,-1.2295,4.3079
-5.4648,-6.9905,-6.6058,-4.4354,-1.356,-2.2339,4.1596,2.3782,3.1718,4.8601,4.6477,3.5935,2.9695,-0.6916,-5.4189,-6.9764,-6.8178,-6.4446,-3.9569,-4.3196,-2.3654,-0.3764,-1.2237,3.6265,1.7753,3.6105,4.9023,4.302,-1.2219,4.224
-5.5482,-7.0474,-6.4857,-4.4778,-1.3282,-2.1095,4.1125,2.5087,3.2066,4.7218,4.3739,3.2532,2.7837,-0.8527,-5.5751,-7.1838,-6.9748,-6.552,-4.1205,-4.5282,-2.547,-0.4916,-1.2909,3.4802,1.5476,3.2722,4.6269,3.9221,-1.2052,4.1674
-5.4285,-6.8866,-6.2063,-4.2956,-1.1049,-1.8229,4.156,2.6136,3.1461,4.6117,4.0141,2.904,2.8161,-0.76,-5.5355,-7.1523,-6.937,-6.512,-4.0764,-4.5082,-2.482,-0.4111,-1.1975,3.475,1.3655,2.9077,4.4337,3.5437,-1.1846,4.1275
-5.1092,-6.5246,-5.782,-3.9039,-0.6939,-1.3891,4.3097,2.7015,3.0349,4.5769,3.6601,2.6286,3.0827,-0.4098,-5.2938,-6.8853,-6.7081,-6.3094,-3.8267,-4.2619,-2.1713,-0.1335,-0.944,3.6345,1.2575,2.5834,4.3712,3.2446,-1.1655,4.087
-4.6144,-5.9984,-5.2422,-3.3382,-0.1208,-0.8367,4.5859,2.7849,2.9222,4.6586,3.4002,2.4996,3.5772,0.1774,-4.8653,-6.4117,-6.3109,-5.9481,-3.3944,-3.8143,-1.6398,0.3225,-0.5461,3.9664,1.2466,2.3603,4.4746,3.0908,-1.1538,4.0271
-3.9864,-5.3604,-4.6281,-2.6493,0.5743,-0.2039,4.9859,2.8772,2.8521,4.8834,3.3029,2.5662,4.2705,0.9584,-4.2855,-5.782,-5.7843,-5.453,-2.8212,-3.2104,-0.9332,0.9206,-0.0334,4.4604,1.3468,2.2841,4.7586,3.125,-1.1556,3.9326
-3.2799,-4.6708,-3.9862,-1.896,1.3413,0.4667,5.497,2.9896,2.8559,5.2572,3.4059,2.844,5.1117,1.8712,-3.6065,-5.0613,-5.1793,-4.8669,-2.1624,-2.5096,-0.1144,1.6105,0.554,5.0868,1.5591,2.3775,5.2134,3.3591,-1.1759,3.7974
-2.5554,-3.99,-3.3628,-1.1382,2.1264,1.1329,6.0917,3.1285,2.9466,5.7618,3.7092,3.3114,6.0334,2.8411,-2.8902,-4.321,-4.5521,-4.2452,-1.4805,-1.7793,0.744,2.3339,1.1702,5.7992,1.8708,2.6357,5.8042,3.7708,-1.2181,3.6268
-1.8713,-3.3703,-2.7972,-0.4303,2.8771,1.7576,6.7298,3.2933,3.1181,6.3563,4.1761,3.9125,6.9585,3.7895,-2.1998,-3.6284,-3.957,-3.6458,-0.8369,-1.0858,1.5681,3.0315,1.7685,6.5393,2.2558,3.0269,6.4757,4.3072,-1.2816,3.4371
-1.2757,-2.8504,-2.3168,0.1849,3.5485,2.3111,7.3628,3.4762,3.3462,6.9825,4.7404,4.567,7.8105,4.6425,-1.5906,-3.0379,-3.4389,-3.1192,-0.283,-0.486,2.2918,3.6501,2.3076,7.2447,2.678,3.4975,7.1593,4.8931,-1.3615,3.2516
-0.8009,-2.4507,-1.9342,0.68,4.1069,2.7738,7.9396,3.6624,3.5945,7.5737,5.3176,5.1833,8.5225,5.3405,-1.1017,-2.5833,-3.0265,-2.7002,0.1466,-0.0199,2.8664,4.1499,2.7556,7.8576,3.0961,3.981,7.7837,5.4439,-1.4485,3.0952
-0.4596,-2.1735,-1.647,1.0447,4.5325,3.1358,8.4141,3.8331,3.821,8.0645,5.8198,5.6745,9.0461,5.8454,-0.7514,-2.2743,-2.7295,-2.4022,0.4392,0.2952,3.2662,4.5087,3.0941,8.3324,3.47,4.4097,8.2856,5.8789,-1.5304,2.9879
-0.2453,-2.0048,-1.4403,1.2847,4.8201,3.3963,8.751,3.9678,3.9856,8.4017,6.1703,5.9728,9.3574,6.1445,-0.5358,-2.0961,-2.5378,-2.2175,0.6041,0.4654,3.4918,4.7245,3.3188,8.6422,3.7665,4.7257,8.6189,6.1352,-1.5949,2.939
-0.1356,-1.92,-1.2907,1.4185,4.9784,3.5624,8.9308,4.0484,4.0572,8.5516,6.3157,6.0402,9.4586,6.2507,-0.4324,-2.0152,-2.4257,-2.1216,0.6695,0.5187,3.5681,4.8141,3.4391,8.781,3.9636,4.89,8.7612,6.1769,-1.6314,2.9453
-0.0978,-1.8892,-1.1711,1.4734,5.0274,3.6471,8.9526,4.0622,4.0185,8.5054,6.2342,5.8739,9.3761,6.1994,-0.4059,-1.9869,-2.3583,-2.0798,0.6748,0.4979,3.5386,4.809,3.4748,8.7637,4.053,4.888,8.7157,6.001,-1.6323,2.9917
-0.0954,-1.8827,-1.0559,1.4801,4.9955,3.6674,8.833,4.0042,3.8681,8.2789,5.9382,5.5051,9.1549,6.0413,-0.4164,-1.965,-2.2995,-2.0559,0.6621,0.4525,3.4567,4.7485,3.4522,8.6219,4.0404,4.7307,8.5094,5.6364,-1.5936,3.0547
-0.095,-1.8759,-0.9254,1.4689,4.9147,3.6427,8.6037,3.8781,3.6203,7.9103,5.471,4.9935,8.8504,5.8338,-0.4267,-1.9107,-2.2189,-2.0192,0.6672,0.429,3.376,4.673,3.3993,8.3981,3.9442,4.4511,8.1876,5.1394,-1.515,3.1068
-0.0708,-1.851,-0.7689,1.4653,4.8173,3.592,8.3054,3.696,3.3016,7.4528,4.8991,4.417,8.5206,5.6325,-0.4085,-1.7994,-2.0979,-1.9497,0.7141,0.4628,3.3411,4.6171,3.3419,8.1389,3.7919,4.0986,7.8074,4.5843,-1.4005,3.1204
-0.0085,-1.7985,-0.5874,1.488,4.7306,3.5326,7.9828,3.4759,2.9472,6.967,4.301,3.8599,8.2181,5.4838,-0.3458,-1.6226,-1.9321,-1.8396,0.812,0.5722,3.3813,4.6051,3.2999,7.8888,3.6158,3.7304,7.4287,4.0527,-1.2591,3.0714
0.0944,-1.7169,-0.3936,1.5464,4.6743,3.4776,7.6774,3.2396,2.5945,6.5125,3.755,3.4011,7.9846,5.4199,-0.2358,-1.3884,-1.7303,-1.6932,0.9556,0.7571,3.5074,4.6484,3.2861,7.6847,3.4483,3.4028,7.1072,3.6216,-1.1054,2.9412
0.2294,-1.612,-0.2089,1.6407,4.6584,3.4346,7.4225,3.0092,2.2778,6.1388,3.3268,3.1029,7.8467,5.4558,-0.0864,-1.1171,-1.5108,-1.5235,1.1292,1.0006,3.7122,4.7459,3.3053,7.5522,3.3166,3.1625,6.8866,3.3521,-0.9587,2.7196
0.3804,-1.4946,-0.0593,1.7619,4.6826,3.4049,7.2388,2.8035,2.0233,5.8795,3.0601,3.0025,7.8147,5.5898,0.0864,-0.8362,-1.2961,-1.3492,1.3114,1.2743,3.9737,4.8868,3.3555,7.5035,3.2386,3.0388,6.7929,3.2803,-0.8399,2.407
0.5279,-1.3786,0.0316,1.8949,4.7385,3.3841,7.1323,2.636,1.8448,5.747,2.9706,3.1063,7.8818,5.8051,0.263,-0.5743,-1.1064,-1.1898,1.4814,1.5453,4.2614,5.0533,3.4291,7.5368,3.2201,3.0394,6.8311,3.4108,-0.7672,2.0162
0.6538,-1.2772,0.0486,2.0224,4.8127,3.3645,7.0941,2.5132,1.7428,5.7321,3.0441,3.3893,8.027,6.0742,0.4247,-0.3548,-0.9557,-1.0627,1.623,1.784,4.5426,5.2255,3.5153,7.6372,3.2538,3.1487,6.9838,3.7156,-0.7512,1.5719
0.7447,-1.2,-0.0109,2.1284,4.8908,3.3374,7.103,2.4343,1.7041,5.8054,3.2399,3.7984,8.2187,6.3637,0.5567,-0.1925,-0.8487,-0.9799,1.7275,1.9699,4.7893,5.3844,3.6024,7.7798,3.3208,3.3299,7.2139,4.1372,-0.7915,1.1081
0.7947,-1.1505,-0.1356,2.2021,4.9605,3.2962,7.1297,2.3921,1.7055,5.9232,3.4974,4.2602,8.4192,6.6405,0.65,-0.0916,-0.7822,-0.9455,1.7942,2.0946,4.9822,5.5148,3.6792,7.9334,3.3935,3.5312,7.4695,4.5967,-0.8758,0.6629
0.8055,-1.1253,-0.302,2.2387,5.0131,3.2381,7.1422,2.3744,1.7167,6.0338,3.7452,4.6916,8.5908,6.8754,0.7019,-0.0465,-0.7475,-0.9561,1.8281,2.1611,5.1125,5.6057,3.7358,8.0649,3.4404,3.6935,7.6918,5.0058,-0.9824,0.2725
0.7843,-1.1156,-0.4802,2.2393,5.0439,3.1648,7.111,2.3661,1.7063,6.0867,3.9123,5.0119,8.7,7.0472,0.7147,-0.0456,-0.7347,-1.0007,1.8367,2.1809,5.1812,5.6508,3.7649,8.1438,3.431,3.7595,7.8238,5.28,-1.0854,-0.0345
0.7414,-1.1089,-0.64,2.2092,5.0515,3.0819,7.0146,2.3518,1.6464,6.04,3.9384,5.1549,8.7228,7.1435,0.694,-0.0741,-0.7362,-1.0641,1.8269,2.1691,5.1961,5.6475,3.7612,8.1464,3.3408,3.6831,7.8187,5.3513,-1.16,-0.2423
0.688,-1.0921,-0.7562,2.1566,5.0373,2.9978,6.8427,2.3184,1.5176,5.8681,3.7836,5.0786,8.6471,7.1619,0.6473,-0.1174,-0.7483,-1.1296,1.8031,2.1398,5.169,5.5962,3.7226,8.0582,3.1555,3.4363,7.6478,5.1788,-1.1871,-0.3506
0.6349,-1.0535,-0.8126,2.0918,5.0055,2.9232,6.5992,2.2576,1.3128,5.5662,3.4343,4.7714,8.4751,7.1092,0.5831,-0.1626,-0.771,-1.1821,1.7666,2.1045,5.113,5.5005,3.6502,7.8767,2.8734,3.0146,7.3046,4.7551,-1.1571,-0.3754
0.5918,-0.9835,-0.8028,2.0267,4.9642,2.8698,6.3016,2.1683,1.0388,5.1517,2.9067,4.2536,8.224,7.0013,0.5109,-0.1985,-0.8052,-1.2097,1.7181,2.0714,5.0417,5.3677,3.5489,7.6118,2.5061,2.4374,6.807,4.1073,-1.0701,-0.346
0.5682,-0.8756,-0.7289,1.9755,4.9257,2.8503,5.9799,2.0573,0.7162,4.6625,2.2449,3.575,7.9241,6.8617,0.4421,-0.215,-0.8497,-1.2043,1.6596,2.0468,4.9693,5.2099,3.4281,7.2855,2.0771,1.7466,6.1956,3.2937,-0.9352,-0.2993
0.5739,-0.7255,-0.5985,1.9544,4.906,2.8772,5.6721,1.9393,0.3768,4.1519,1.5154,2.8078,7.6152,6.7198,0.3905,-0.2016,-0.8983,-1.1613,1.5981,2.038,4.9111,5.0439,3.3021,6.9298,1.6189,0.9998,5.5276,2.3953,-0.7676,-0.272
0.6191,-0.5314,-0.4209,1.9803,4.9232,2.9616,5.4189,1.8343,0.0594,3.6805,0.7984,2.0369,7.3414,6.6065,0.3716,-0.1477,-0.938,-1.0786,1.5461,2.0539,4.883,4.8913,3.1887,6.5831,1.1686,0.263,4.8696,1.5047,-0.5849,-0.2925
0.7139,-0.2945,-0.204,2.0684,4.9931,3.1106,5.2569,1.7648,-0.1962,3.3072,0.1766,1.348,7.1437,6.5496,0.4007,-0.0437,-0.9503,-0.9562,1.5205,2.1048,4.8996,4.7747,3.1072,6.2848,0.7631,-0.3996,4.288,0.7127,-0.4036,-0.3751
0.8657,-0.0193,0.0476,2.2282,5.1258,3.325,5.2119,1.751,-0.3554,3.0796,-0.2763,0.8166,7.0524,6.5675,0.4903,0.1167,-0.915,-0.7968,1.5387,2.1992,4.9703,4.7139,3.0753,6.0688,0.4337,-0.9339,3.8386,0.0963,-0.2352,-0.5175
1.0768,0.2843,0.3318,2.4596,5.3212,3.5969,5.2941,1.8067,-0.3936,3.027,-0.5055,0.4986,7.0808,6.6638,0.6463,0.3333,-0.8154,-0.6057,1.6126,2.3401,5.0955,4.7208,3.105,5.9579,0.2022,-1.3035,3.5595,-0.2912,-0.0853,-0.7017
1.3418,0.6013,0.6467,2.75,5.5675,3.9092,5.4956,1.9365,-0.3003,3.1561,-0.4821,0.4233,7.2219,6.8253,0.865,0.5968,-0.6436,-0.3918,1.7438,2.5216,5.2637,4.7947,3.1991,5.9587,0.077,-1.4941,3.465,-0.4262,0.0465,-0.8991
1.6464,0.9121,0.9876,3.0749,5.8419,4.2368,5.7911,2.1347,-0.0806,3.4503,-0.2068,0.5918,7.4493,7.0228,1.1325,0.8887,-0.404,-0.1669,1.9208,2.7275,5.4518,4.9216,3.3497,6.0602,0.0529,-1.5144,3.5447,-0.3163,0.164,-1.0759
1.9687,1.1958,1.3446,3.4012,6.1141,4.5504,6.1426,2.3857,0.246,3.8732,0.2915,0.9775,7.7213,7.2168,1.4261,1.1833,-0.1136,0.0552,2.1205,2.9333,5.6279,5.0754,3.5384,6.2354,0.1116,-1.3936,3.766,0.0025,0.2715,-1.201
2.2818,1.4331,1.7017,3.6928,6.3517,4.8211,6.5048,2.6671,0.6478,4.374,0.9595,1.5309,7.9887,7.3648,1.7179,1.4521,0.1999,0.2603,2.3124,3.1105,5.7576,5.2232,3.7391,6.4452,0.225,-1.1757,4.0795,0.4724,0.3706,-1.2525
2.5584,1.6098,2.0378,3.9167,6.525,5.0242,6.8325,2.9523,1.0849,4.8945,1.7268,2.1869,8.2022,7.4293,1.9792,1.6693,0.5028,0.4369,2.4651,3.2322,5.8099,5.3318,3.9227,6.646,0.3598,-0.9127,4.4277,1.0227,0.4582,-1.2234
2.7739,1.7178,2.329,4.0485,6.6114,5.1427,7.0856,3.2139,1.5136,5.3759,2.5141,2.8722,8.3203,7.384,2.1848,1.8155,0.7612,0.5773,2.553,3.2776,5.763,5.3736,4.0623,6.7958,0.4831,-0.6559,4.7531,1.5804,0.527,-1.1249
2.9094,1.7557,2.5522,4.0751,6.5977,5.1682,7.2337,3.4263,1.8905,5.7658,3.2422,3.5149,8.3142,7.2169,2.3161,1.8807,0.9452,0.6782,2.5605,3.2353,5.6069,5.3315,4.1378,6.8616,0.5677,-0.4487,5.0068,2.0796,0.5673,-0.9845
2.9538,1.7263,2.6884,3.995,6.4807,5.1006,7.2579,3.568,2.1769,6.0226,3.8409,4.0521,8.17,6.9303,2.3625,1.8638,1.034,0.74,2.4843,3.1037,5.3438,5.2002,4.139,6.8234,0.5961,-0.3204,5.1547,2.4703,0.5706,-0.8413
2.904,1.6352,2.7268,3.8165,6.2665,4.9467,7.1521,3.6237,2.3432,6.1196,4.2567,4.4372,7.8901,6.5397,2.3217,1.7717,1.0177,0.7643,2.3322,2.8906,4.9871,4.9866,4.0661,6.6766,0.5627,-0.2827,5.1807,2.7235,0.5326,-0.7355
2.7663,1.49,2.6679,3.5563,5.9699,4.7194,6.9224,3.5855,2.3722,6.0479,4.4581,4.6446,7.4914,6.0705,2.1992,1.6175,0.8997,0.7532,2.1211,2.6115,4.5589,4.7067,3.9289,6.4315,0.4747,-0.3288,5.0884,2.8332,0.4552,-0.6992
2.5559,1.301,2.5252,3.2372,5.6131,4.437,6.587,3.4543,2.2617,5.8169,4.439,4.6719,7.0043,5.5558,2.0087,1.4188,0.6964,0.7085,1.8742,2.2884,4.0884,4.3841,3.7447,6.112,0.3496,-0.4361,4.8986,2.8149,0.3469,-0.7472
2.2971,1.0822,2.3243,2.8877,5.2252,4.1229,6.1748,3.2404,2.0249,5.4541,4.2179,4.5394,6.47,5.0346,1.771,1.1969,0.4359,0.6339,1.6181,1.9483,3.6105,4.0465,3.5359,5.7522,0.2123,-0.5709,4.6457,2.7011,0.2207,-0.8743
2.0214,0.8532,2.0994,2.5407,4.841,3.8055,5.7245,2.963,1.6891,5.0026,3.8359,4.2868,5.9378,4.5498,1.5144,0.9766,0.1551,0.5367,1.3805,1.623,3.1644,3.7245,3.3276,5.3928,0.0906,-0.6945,4.3735,2.5351,0.091,-1.0576
1.7647,0.6385,1.888,2.232,4.4981,3.5163,5.2812,2.6486,1.2925,4.5161,3.3504,3.9679,5.4619,4.1458,1.2718,0.7845,-0.105,0.4304,1.1881,1.3466,2.7916,3.4491,3.1452,5.0771,0.0111,-0.7704,4.1286,2.3646,-0.0301,-1.2644
1.5629,0.465,1.7238,1.9971,4.2337,3.2863,4.8924,2.3284,0.8792,4.0532,2.829,3.6434,5.0953,3.8651,1.0779,0.6473,-0.3052,0.3338,1.0636,1.1524,2.5317,3.2494,3.0125,4.8465,-0.0056,-0.7697,3.9551,2.2345,-0.1355,-1.4615
1.4456,0.357,1.6315,1.8652,4.0782,3.1419,4.6025,2.0342,0.4941,3.6699,2.3405,3.3726,4.884,3.7425,0.9632,0.5874,-0.4154,0.2687,1.0233,1.0681,2.4172,3.1487,2.9489,4.7349,0.0525,-0.676,3.8886,2.1819,-0.2241,-1.624
1.4306,0.3301,1.6219,1.8538,4.0505,3.0997,4.4461,1.7948,0.178,3.4117,1.9472,3.206,4.8593,3.799,0.9482,0.6183,-0.4199,0.2542,1.0732,1.1099,2.4663,3.1605,2.9669,4.7637,0.186,-0.4879,3.9512,2.2313,-0.2999,-1.7407
1.5197,0.3868,1.6904,1.9632,4.1523,3.1623,4.4426,1.6321,-0.0372,3.3085,1.6975,3.1779,5.0316,4.0358,1.0375,0.7398,-0.3225,0.3006,1.2071,1.2775,2.6779,3.2849,3.0685,4.9374,0.3844,-0.2192,4.1478,2.392,-0.3691,-1.8152
1.697,0.5137,1.8191,2.1742,4.3669,3.3173,4.5919,1.559,-0.131,3.37,1.6205,3.3023,5.3867,4.4313,1.2176,0.9363,-0.1465,0.4056,1.4052,1.5519,3.0284,3.5061,3.2439,5.2405,0.6266,0.1031,4.4644,2.6567,-0.437,-1.8633
1.9321,0.6844,1.981,2.4507,4.6598,3.5382,4.8743,1.5788,-0.0961,3.5855,1.7238,3.5714,5.886,4.9424,1.4583,1.177,0.0692,0.5535,1.6363,1.8964,3.4741,3.7932,3.4709,5.639,0.884,0.4425,4.8696,3.0026,-0.5058,-1.9076
2.1851,0.8639,2.146,2.7462,4.9849,3.7888,5.2535,1.685,0.0625,3.9266,1.9944,3.9579,6.4722,5.5104,1.7188,1.4219,0.2779,0.7193,1.8626,2.263,3.9574,4.1044,3.7179,6.085,1.1239,0.758,5.319,3.3952,-0.5739,-1.9725
2.4154,1.017,2.2867,3.0127,5.2926,4.0303,5.6826,1.864,0.328,4.3525,2.4016,4.4201,7.0774,6.071,1.9564,1.6293,0.4365,0.875,2.0471,2.6008,4.4167,4.3943,3.9487,6.5241,1.3147,1.0107,5.7619,3.7931,-0.6361,-2.0778
2.5892,1.1152,2.3825,3.2103,5.5384,4.2272,6.1113,2.0963,0.675,4.8159,2.9022,4.9087,7.6345,6.5642,2.1357,1.7651,0.5144,0.9973,2.1611,2.8659,4.7977,4.6222,4.1288,6.904,1.4307,1.1692,6.1492,4.1546,-0.6864,-2.2357
2.685,1.1419,2.4222,3.3145,5.6901,4.3538,6.4925,2.3589,1.0712,5.2694,3.4462,5.3741,8.0861,6.9437,2.2358,1.8093,0.5012,1.0728,2.1894,3.0289,5.0613,4.7588,4.2323,7.1826,1.4556,1.2146,6.4399,4.4435,-0.72,-2.4472
2.696,1.0943,2.4035,3.3186,5.7315,4.3965,6.7877,2.6266,1.4806,5.6709,3.9824,5.7725,8.3914,7.1819,2.2525,1.7595,0.4077,1.1004,2.1332,3.0789,5.1891,4.7908,4.2454,7.3327,1.3843,1.1419,6.606,4.6333,-0.7357,-2.7021
2.629,0.9815,2.3321,3.2321,5.6622,4.354,6.9702,2.8739,1.8663,5.986,4.4634,6.0708,8.529,7.2704,2.1975,1.6299,0.2623,1.0904,2.0087,3.0228,5.1824,4.721,4.1692,7.3438,1.2231,0.9598,6.6338,4.7091,-0.7358,-2.9796
2.5006,0.8204,2.2191,3.0757,5.4948,4.2352,7.0255,3.0772,2.1938,6.1907,4.8499,6.2486,8.4965,7.2169,2.0927,1.446,0.1032,1.0604,1.8421,2.8812,5.0589,4.5664,4.0179,7.2204,0.9875,0.6877,6.5236,4.6675,-0.7264,-3.2523
2.332,0.6308,2.0783,2.8753,5.2502,4.0557,6.9512,3.2166,2.4347,6.2716,5.114,6.2992,8.3068,7.0403,1.9643,1.2381,-0.0316,1.0301,1.6635,2.6821,4.8456,4.3521,3.8149,6.979,0.6989,0.3506,6.2869,4.5147,-0.7151,-3.4905
2.1441,0.4313,1.9245,2.6564,4.9533,3.8341,6.756,3.2784,2.5696,6.226,5.2409,6.2285,7.9836,6.7647,1.8356,1.0343,-0.1127,1.0167,1.4993,2.4545,4.5722,4.1061,3.5878,6.6437,0.3811,-0.0248,5.9435,4.2641,-0.7098,-3.6683
1.9545,0.2363,1.7716,2.4398,4.629,3.5899,6.4577,3.2569,2.5904,6.0614,5.2297,6.053,7.5573,6.4155,1.7235,0.8551,-0.1258,1.0314,1.368,2.2229,4.2658,3.853,3.3618,6.242,0.0563,-0.4141,5.5187,3.9336,-0.7163,-3.7687
1.7756,0.056,1.6317,2.2401,4.3,3.3415,6.0817,3.1559,2.5017,5.7945,5.0929,5.7964,7.0617,6.0171,1.636,0.7115,-0.0728,1.0782,1.2771,2.0053,3.9485,3.6113,3.1559,5.8022,-0.2566,-0.798,5.04,3.544,-0.7372,-3.7874
1.6154,-0.1037,1.5146,2.066,3.9858,3.1051,5.6591,2.9883,2.3196,5.4505,4.8543,5.487,6.5311,5.5922,1.5742,0.6065,0.0306,1.1554,1.2241,1.8128,3.6369,3.3919,2.9805,5.3515,-0.5439,-1.1618,4.5364,3.1175,-0.7717,-3.734
1.4785,-0.2393,1.4273,1.9217,3.7024,2.8946,5.2244,2.7748,2.0696,5.0608,4.5459,5.1546,5.9999,5.1629,1.5345,0.5375,0.1606,1.2567,1.2004,1.6518,3.3437,3.1998,2.8377,4.9148,-0.7962,-1.4947,4.0367,2.6779,-0.8161,-3.6307
1.3671,-0.349,1.3726,1.8083,3.462,2.7203,4.8119,2.5407,1.7826,4.6605,4.2043,4.828,5.5005,4.7504,1.5115,0.5,0.2917,1.3735,1.1944,1.5254,3.0787,3.0363,2.7235,4.5152,-1.0073,-1.7875,3.5691,2.2508,-0.8661,-3.5081
1.2819,-0.4328,1.3485,1.7253,3.2722,2.5878,4.4527,2.3117,1.4901,4.2842,3.8656,4.5327,5.0621,4.3748,1.4996,0.4891,0.4014,1.4954,1.1952,1.4348,2.8499,2.9013,2.6314,4.1731,-1.1724,-2.0308,3.1606,1.863,-0.9187,-3.3987
1.2211,-0.493,1.3474,1.6699,3.135,2.4972,4.17,2.1093,1.2195,3.962,3.5612,4.2892,4.7075,4.053,1.4934,0.5004,0.4735,1.6099,1.194,1.3792,2.6624,2.7945,2.5548,3.9052,-1.2865,-2.2133,2.8356,1.542,-0.9732,-3.3304
1.18,-0.5352,1.3567,1.6371,3.0459,2.4424,3.9764,1.9472,0.99,3.7152,3.3135,4.1112,4.4506,3.7959,1.4873,0.528,0.4985,1.7032,1.1848,1.3542,2.5176,2.7156,2.4891,3.7237,-1.3436,-2.3222,2.6142,1.3135,-1.0324,-3.3206
1.1512,-0.5687,1.361,1.6199,2.9939,2.4122,3.8712,1.829,0.8099,3.5533,3.1338,4.0057,4.2942,3.6067,1.4749,0.5646,0.4736,1.7614,1.1638,1.3518,2.4119,2.6638,2.4331,3.6343,-1.3373,-2.3447,2.5101,1.1993,-1.1012,-3.373
1.1251,-0.6044,1.3464,1.6095,2.9634,2.3923,3.8414,1.7483,0.6767,3.4732,3.0219,3.972,4.2292,3.4803,1.4497,0.6003,0.4019,1.7734,1.129,1.3604,2.3375,2.6362,2.3875,3.6355,-1.2621,-2.2706,2.5279,1.2131,-1.1856,-3.4781
1.093,-0.6525,1.3039,1.5973,2.9373,2.3683,3.8635,1.6912,0.5791,3.4602,2.9671,4.0031,4.237,3.4047,1.407,0.6246,0.2912,1.7341,1.0802,1.3672,2.2836,2.6286,2.3538,3.7178,-1.1161,-2.0959,2.6614,1.3582,-1.2903,-3.616
1.0488,-0.7194,1.2322,1.577,2.9,2.3287,3.9085,1.6403,0.5011,3.4913,2.9521,4.0863,4.2922,3.3645,1.345,0.6285,0.1541,1.6461,1.019,1.361,2.2398,2.6348,2.3329,3.8645,-0.9032,-1.8257,2.8925,1.6245,-1.4168,-3.7615
0.9911,-0.8054,1.1381,1.5453,2.8405,2.2665,3.9474,1.5795,0.4265,3.5393,2.957,4.205,4.3675,3.3439,1.2657,0.6067,0.006,1.5191,0.9487,1.3349,2.1981,2.6484,2.3231,4.0531,-0.6354,-1.4767,3.1926,1.9886,-1.5614,-3.8895
0.9221,-0.9053,1.0334,1.5022,2.7539,2.1799,3.9557,1.4978,0.3436,3.5778,2.9637,4.3409,4.4372,3.3293,1.1741,0.5585,-0.1367,1.3671,0.8731,1.2876,2.1545,2.6625,2.3196,4.2575,-0.3336,-1.0759,3.5244,2.4143,-1.7155,-3.9795
0.8458,-1.011,0.9299,1.4497,2.6403,2.0709,3.9169,1.3924,0.2479,3.5853,2.9587,4.4754,4.4798,3.3101,1.0759,0.487,-0.261,1.2035,0.7951,1.222,2.1077,2.6705,2.3144,4.4495,-0.026,-0.6592,3.8461,2.8566,-1.866,-4.0195
0.7645,-1.1149,0.8347,1.3892,2.5031,1.9438,3.8237,1.2683,0.1431,3.5472,2.935,4.5912,4.4786,3.2773,0.9741,0.3967,-0.3598,1.0376,0.7144,1.1435,2.0568,2.665,2.2963,4.6009,0.2544,-0.2672,4.1152,3.2657,-1.9985,-4.0064
0.6766,-1.2133,0.7463,1.3201,2.3459,1.8027,3.6765,1.137,0.04,3.4571,2.8913,4.6728,4.4203,3.2217,0.8676,0.2914,-0.4349,0.872,0.6272,1.0561,1.9991,2.6369,2.2517,4.6849,0.474,0.0597,4.2937,3.5935,-2.1,-3.9459
0.5759,-1.3076,0.6554,1.2387,2.171,1.6497,3.4811,1.0136,-0.047,3.3156,2.8309,4.708,4.2946,3.1324,0.7509,0.1731,-0.4961,0.7035,0.5263,0.9606,1.9276,2.5753,2.1665,4.6785,0.6032,0.286,4.3519,3.7986,-2.1618,-3.851
0.4537,-1.4029,0.5477,1.1387,1.9776,1.4845,3.2461,0.9131,-0.1034,3.1292,2.7596,4.6882,4.0934,2.9971,0.6158,0.0419,-0.559,0.5265,0.403,0.8538,1.8319,2.4685,2.0284,4.5644,0.6213,0.3866,4.2719,3.8526,-2.1819,-3.7409
0.302,-1.5054,0.4103,1.0135,1.763,1.3046,2.98,0.8468,-0.1186,2.9078,2.6834,4.6092,3.8116,2.8038,0.4549,-0.1035,-0.6398,0.3367,0.2502,0.7288,1.6997,2.3065,1.8296,4.3348,0.5201,0.3501,4.0501,3.7434,-2.1666,-3.6385
0.1171,-1.6192,0.2371,0.8583,1.5232,1.1069,2.6903,0.8198,-0.0886,2.6629,2.6074,4.4719,3.4494,2.544,0.2648,-0.2639,-0.7505,0.135,0.0647,0.5778,1.5199,2.0837,1.5692,3.9929,0.3065,0.1812,3.6978,3.4775,-2.1298,-3.5671
-0.0977,-1.7443,0.0325,0.6723,1.2557,0.8888,2.3829,0.8299,-0.0172,2.4063,2.5349,4.2824,3.0139,2.2162,0.0487,-0.4388,-0.895,-0.07,-0.1505,0.395,1.2864,1.8017,1.2547,3.5553,0.0022,-0.0992,3.2404,3.079,-2.0916,-3.5466
-0.3322,-1.876,-0.1886,0.4604,0.9607,0.6501,2.0634,0.8679,0.0851,2.1489,2.4676,4.0515,2.5218,1.8281,-0.1831,-0.6255,-1.0676,-0.2629,-0.386,0.1791,1.0004,1.4708,0.9016,3.0509,-0.3586,-0.4563,2.7148,2.5871,-2.0744,-3.59
-0.5705,-2.0066,-0.4047,0.2329,0.6434,0.3942,1.7385,0.92,0.2035,1.9015,2.406,3.7945,1.9988,1.3974,-0.4152,-0.8189,-1.2545,-0.4255,-0.6272,-0.0649,0.6719,1.1095,0.5314,2.5176,-0.7348,-0.8465,2.1651,2.051,-2.0977,-3.7004
-0.7949,-2.1277,-0.5924,0.0039,0.3137,0.1289,1.4177,0.9706,0.3225,1.6744,2.3506,3.5298,1.4783,0.9503,-0.6308,-1.0121,-1.4384,-0.5428,-0.8576,-0.3257,0.3194,0.7416,0.1674,1.9982,-1.084,-1.2229,1.6372,1.5233,-2.172,-3.8709
-0.9895,-2.2325,-0.7336,-0.2107,-0.0135,-0.1342,1.1141,1.0063,0.4297,1.4784,2.3034,3.2778,0.9973,0.5181,-0.8155,-1.1969,-1.6029,-0.6092,-1.0621,-0.5868,-0.0321,0.3928,-0.1694,1.5335,-1.3694,-1.5423,1.1734,1.0537,-2.2955,-4.0855
-1.1428,-2.317,-0.8193,-0.3955,-0.3196,-0.38,0.8446,1.0193,0.5187,1.3248,2.2689,3.0591,0.5921,0.1336,-0.9606,-1.3649,-1.7362,-0.6308,-1.2296,-0.8285,-0.3543,0.0866,-0.463,1.1577,-1.565,-1.7707,0.8077,0.6828,-2.4534,-4.3217
-1.249,-2.3799,-0.8517,-0.5378,-0.5839,-0.5913,0.6292,1.0098,0.5916,1.2255,2.2552,2.8939,0.2936,-0.1731,-1.063,-1.5069,-1.8319,-0.6248,-1.3537,-1.0304,-0.6186,-0.1584,-0.7031,0.894,-1.6581,-1.8871,0.5629,0.4384,-2.6213,-4.5536
-1.3074,-2.4216,-0.8428,-0.6286,-0.7854,-0.7501,0.4888,0.9869,0.6577,1.1925,2.2741,2.8,0.1238,-0.3776,-1.1237,-1.6139,-1.8872,-0.6135,-1.4319,-1.1735,-0.7998,-0.3296,-0.8847,0.7533,-1.6495,-1.8845,0.4495,0.3335,-2.772,-4.7551
-1.3215,-2.4443,-0.8106,-0.6636,-0.9059,-0.8409,0.4423,0.9667,0.7323,1.2366,2.34,2.7911,0.0935,-0.4636,-1.1457,-1.6773,-1.9013,-0.6179,-1.4645,-1.243,-0.8788,-0.4205,-1.0055,0.7349,-1.5511,-1.7692,0.4667,0.3671,-2.8827,-4.9034
-1.2972,-2.4515,-0.7749,-0.6434,-0.9323,-0.8523,0.5034,0.9696,0.8329,1.3656,2.4674,2.8764,0.2022,-0.4241,-1.1323,-1.6904,-1.8733,-0.6517,-1.4536,-1.2303,-0.8453,-0.4304,-1.0645,0.8288,-1.3819,-1.5568,0.605,0.527,-2.9399,-4.9824
-1.242,-2.4487,-0.753,-0.574,-0.8598,-0.7805,0.6779,1.0154,0.9749,1.5827,2.668,3.0582,0.4386,-0.2617,-1.0865,-1.6501,-1.803,-0.7197,-1.4028,-1.1348,-0.699,-0.3633,-1.0616,1.0187,-1.1636,-1.2687,0.8481,0.7932,-2.9413,-4.9843
-1.1644,-2.4421,-0.7564,-0.4653,-0.6926,-0.6291,0.9617,1.1188,1.1689,1.8853,2.9477,3.3324,0.7833,0.0115,-1.0118,-1.5584,-1.6919,-0.8182,-1.3174,-0.9636,-0.4492,-0.2278,-0.9985,1.285,-0.9162,-0.9274,1.1767,1.142,-2.8941,-4.9103
-1.0727,-2.4385,-0.7902,-0.3296,-0.4439,-0.4095,1.3416,1.2863,1.4182,2.2642,3.3048,3.6877,1.2117,0.376,-0.9127,-1.4219,-1.5442,-0.9391,-1.2045,-0.7306,-0.1136,-0.0361,-0.8806,1.607,-0.6555,-0.5536,1.5695,1.549,-2.8111,-4.7693
-0.9744,-2.4425,-0.8531,-0.1791,-0.1336,-0.1387,1.7962,1.5144,1.718,2.7041,3.7287,4.1067,1.6966,0.8069,-0.7955,-1.2514,-1.3675,-1.0732,-1.0723,-0.4536,0.2843,0.1963,-0.7178,1.9647,-0.3924,-0.1639,2.0054,1.9917,-2.707,-4.5766
-0.8752,-2.4556,-0.9387,-0.024,0.2142,0.1634,2.2988,1.7896,2.0569,3.1849,4.2011,4.5671,2.2111,1.2763,-0.6673,-1.0602,-1.172,-1.2126,-0.9296,-0.1519,0.7186,0.4522,-0.5252,2.3391,-0.1334,0.2292,2.4636,2.4499,-2.5948,-4.3514
-0.7791,-2.4757,-1.0379,0.1283,0.5746,0.4762,2.82,2.0912,2.4177,3.6832,4.6979,5.0438,2.7302,1.7563,-0.5359,-0.8616,-0.9692,-1.3523,-0.7849,0.1561,1.1633,0.7136,-0.3214,2.7132,0.1178,0.6167,2.9245,2.9062,-2.4844,-4.115
