FP1,F3,F7,FC3,C3,C5,P3,P7,PO7,PO3,O1,Oz,Pz,CPz,FP2,Fz,F4,F8,FC4,FCz,Cz,C4,C6,P4,P8,PO8,PO4,O2,HEOG_left,HEOG_right
1.2852,2.4277,1.9503,2.2927,2.5764,2.3514,1.6622,0.9567,0.5206,1.0918,0.1363,0.193,1.8894,2.4715,1.6839,3.1383,1.3094,0.8098,1.5658,2.8763,2.8776,1.8293,1.6966,0.7556,0.2201,0.3983,-0.0584,-0.0741,1.25,1.1034
1.1953,2.1121,1.7095,2.0043,2.2702,2.1251,1.6096,1.0063,0.6012,1.1179,0.2547,0.0734,1.6495,2.2632,1.3882,2.6046,1.1221,0.5999,1.3222,2.5633,2.5725,1.6701,1.4907,1.0124,0.1941,0.2973,-0.1702,-0.259,1.12,0.8724
1.0874,1.7962,1.4609,1.7135,1.9668,1.8945,1.5482,1.0346,0.665,1.1281,0.3562,-0.0445,1.4188,2.055,1.1019,2.0946,0.9438,0.4009,1.0944,2.2519,2.2776,1.5169,1.2962,1.2389,0.178,0.211,-0.2657,-0.4299,0.9813,0.6577
0.9505,1.4829,1.1998,1.4209,1.67,1.6577,1.472,1.0256,0.6985,1.1096,0.4277,-0.1571,1.2063,1.8464,0.8327,1.6319,0.7828,0.2255,0.8965,1.9445,1.9995,1.3751,1.1249,1.4077,0.1779,0.1509,-0.3297,-0.5703,0.8269,0.4728
0.7789,1.1766,0.9254,1.1299,1.3845,1.415,1.3767,0.9704,0.6937,1.054,0.4614,-0.2603,1.0199,1.639,0.5861,1.2342,0.646,0.0832,0.7374,1.6441,1.7432,1.2485,0.9846,1.5029,0.1964,0.1236,-0.3531,-0.6666,0.6528,0.323
0.574,0.883,0.6423,0.8462,1.1157,1.1691,1.2603,0.8684,0.6486,0.9592,0.4555,-0.3499,0.8651,1.4351,0.3647,0.9108,0.5375,-0.0213,0.6194,1.3544,1.5104,1.1381,0.8772,1.5218,0.2313,0.1303,-0.3331,-0.7091,0.4594,0.2048
0.3442,0.6093,0.3601,0.5777,0.8688,0.9243,1.123,0.7275,0.5679,0.8297,0.414,-0.4211,0.7432,1.2373,0.1687,0.6626,0.458,-0.0896,0.5373,1.0791,1.299,1.0417,0.7993,1.4731,0.2767,0.1669,-0.2735,-0.6929,0.2523,0.1088
0.1035,0.3631,0.0931,0.3329,0.6485,0.6861,0.9678,0.5627,0.4618,0.6755,0.3459,-0.468,0.6513,1.0475,-0.0039,0.4835,0.4039,-0.1284,0.4805,0.8215,1.1037,0.9542,0.7428,1.3728,0.3239,0.2247,-0.1827,-0.6184,0.0429,0.0237
-0.1302,0.1518,-0.1427,0.1205,0.4581,0.4606,0.8002,0.3924,0.3437,0.5106,0.2627,-0.4846,0.5817,0.866,-0.1553,0.362,0.3684,-0.1483,0.4347,0.5847,0.9176,0.868,0.6966,1.2398,0.3633,0.2926,-0.0727,-0.4916,-0.1531,-0.0591
-0.3383,-0.0184,-0.3322,-0.052,0.2984,0.2537,0.6276,0.2348,0.2273,0.3502,0.1766,-0.4657,0.5242,0.6925,-0.287,0.2845,0.3423,-0.1604,0.3861,0.3712,0.7344,0.7753,0.6484,1.0916,0.3863,0.3587,0.0436,-0.3233,-0.3178,-0.1423
-0.5039,-0.1432,-0.4642,-0.1792,0.1678,0.0714,0.4585,0.1038,0.124,0.2079,0.0981,-0.4082,0.4675,0.5261,-0.3987,0.237,0.3165,-0.1744,0.3235,0.1832,0.5501,0.6692,0.5865,0.9424,0.3874,0.4124,0.1532,-0.1276,-0.4345,-0.2225
-0.616,-0.2218,-0.5337,-0.2589,0.0625,-0.0808,0.3008,0.0069,0.0413,0.0933,0.0349,-0.3123,0.4028,0.3667,-0.4883,0.2068,0.2834,-0.1968,0.2411,0.0227,0.3654,0.5462,0.5017,0.8026,0.3655,0.4463,0.2457,0.0798,-0.4915,-0.2914
-0.6706,-0.2569,-0.5424,-0.2929,-0.022,-0.198,0.1612,-0.055,-0.0182,0.0114,-0.0085,-0.1824,0.3258,0.2158,-0.5522,0.1832,0.2395,-0.2299,0.1394,-0.1088,0.1856,0.4071,0.3894,0.6799,0.3247,0.4579,0.3146,0.2843,-0.484,-0.3396
-0.6717,-0.255,-0.4983,-0.2867,-0.0901,-0.2764,0.0437,-0.0859,-0.0555,-0.0376,-0.0303,-0.0264,0.2383,0.0769,-0.5861,0.158,0.1866,-0.272,0.0252,-0.2097,0.0206,0.258,0.2506,0.5805,0.2734,0.4501,0.3586,0.4736,-0.4156,-0.3597
-0.6295,-0.225,-0.413,-0.2484,-0.1444,-0.3135,-0.0499,-0.0929,-0.0734,-0.0565,-0.0302,0.145,0.1485,-0.0438,-0.5858,0.1258,0.1326,-0.3175,-0.0896,-0.278,-0.1173,0.1098,0.0928,0.5096,0.2233,0.4304,0.3812,0.6393,-0.2977,-0.3484
-0.5578,-0.1767,-0.2999,-0.1878,-0.1856,-0.3086,-0.1192,-0.083,-0.0749,-0.0497,-0.0088,0.3197,0.0693,-0.1383,-0.548,0.085,0.0901,-0.3576,-0.1897,-0.3121,-0.2158,-0.0234,-0.0703,0.4706,0.186,0.4091,0.3902,0.7769,-0.1473,-0.3078
-0.4703,-0.1192,-0.1719,-0.1151,-0.2122,-0.2629,-0.1635,-0.0614,-0.0622,-0.0215,0.033,0.4857,0.0151,-0.1984,-0.4724,0.0371,0.0729,-0.3815,-0.2592,-0.3111,-0.2661,-0.1266,-0.221,0.4641,0.1706,0.396,0.3954,0.8849,0.0155,-0.2442
-0.3787,-0.0604,-0.0409,-0.0397,-0.2223,-0.1806,-0.1811,-0.0314,-0.0363,0.0239,0.093,0.6326,-0.0023,-0.2175,-0.3624,-0.0137,0.092,-0.3789,-0.285,-0.2766,-0.2659,-0.1876,-0.3412,0.4866,0.1812,0.3981,0.4062,0.9637,0.1708,-0.1669
-0.291,-0.0066,0.0829,0.0295,-0.2156,-0.0699,-0.1691,0.0054,0.002,0.082,0.1674,0.7522,0.0223,-0.1936,-0.2275,-0.0623,0.1498,-0.3427,-0.2609,-0.2141,-0.2212,-0.2004,-0.4163,0.5293,0.2148,0.4168,0.4282,1.0138,0.3011,-0.0865
-0.2115,0.0366,0.19,0.0842,-0.1956,0.056,-0.1253,0.0472,0.0505,0.1475,0.2498,0.8383,0.085,-0.1315,-0.0829,-0.1049,0.2379,-0.2727,-0.1901,-0.1346,-0.1462,-0.1677,-0.4397,0.5787,0.2622,0.4469,0.4616,1.0339,0.394,-0.0129
-0.1425,0.0641,0.2717,0.1168,-0.1703,0.1795,-0.0508,0.0907,0.104,0.2125,0.3309,0.8867,0.1719,-0.0442,0.0519,-0.1404,0.3374,-0.1761,-0.0862,-0.0533,-0.0615,-0.1018,-0.4145,0.6179,0.3087,0.4768,0.4998,1.0201,0.4433,0.0458
-0.0843,0.0718,0.3211,0.1211,-0.151,0.2802,0.0475,0.1299,0.1546,0.2669,0.3988,0.8933,0.2622,0.0491,0.1566,-0.1704,0.423,-0.0671,0.0293,0.0127,0.0102,-0.0216,-0.3526,0.6294,0.3382,0.4914,0.5305,0.9656,0.4495,0.0843
-0.0366,0.0571,0.3347,0.0938,-0.149,0.3392,0.1564,0.1571,0.1915,0.2985,0.4404,0.8544,0.3318,0.1261,0.2151,-0.198,0.4703,0.0376,0.1321,0.0485,0.0487,0.0506,-0.271,0.5978,0.3363,0.4747,0.5384,0.8623,0.4198,0.1018
0.002,0.0202,0.3132,0.0357,-0.1721,0.3429,0.2572,0.1638,0.2038,0.2957,0.4439,0.766,0.359,0.1662,0.2201,-0.2259,0.4622,0.1229,0.2009,0.0455,0.0404,0.0957,-0.1871,0.5132,0.2945,0.4142,0.509,0.704,0.3662,0.1018
0.0336,-0.0351,0.2626,-0.0476,-0.2219,0.2865,0.3288,0.1437,0.1832,0.2501,0.4006,0.6254,0.3296,0.155,0.1749,-0.2552,0.3942,0.1799,0.2226,0.0027,-0.0186,0.1013,-0.1142,0.3732,0.2117,0.3038,0.4322,0.4885,0.3027,0.0921
0.0606,-0.1027,0.1926,-0.1467,-0.2937,0.1751,0.352,0.0939,0.1264,0.159,0.3082,0.4326,0.2393,0.0876,0.0927,-0.2857,0.2746,0.2077,0.1952,-0.0731,-0.1225,0.0649,-0.0587,0.1839,0.0951,0.1456,0.3049,0.2209,0.2421,0.0818
0.0838,-0.1757,0.1145,-0.2506,-0.3781,0.0219,0.313,0.0163,0.0367,0.0272,0.1717,0.1926,0.095,-0.0315,-0.007,-0.3166,0.1213,0.2121,0.1271,-0.1705,-0.2579,-0.0071,-0.0208,-0.0411,-0.0418,-0.0501,0.1326,-0.0854,0.1922,0.0793
0.1013,-0.2485,0.038,-0.3492,-0.4634,-0.1542,0.2073,-0.0823,-0.0754,-0.1328,0.0039,-0.0826,-0.0875,-0.1889,-0.1035,-0.3483,-0.0436,0.2023,0.0336,-0.2774,-0.4069,-0.1019,0.0039,-0.2825,-0.1823,-0.2655,-0.0711,-0.4087,0.1539,0.0888
0.1084,-0.3178,-0.031,-0.4351,-0.5386,-0.3329,0.0415,-0.1916,-0.1938,-0.3022,-0.1757,-0.3734,-0.2861,-0.365,-0.1805,-0.3826,-0.1995,0.1876,-0.0677,-0.3836,-0.5502,-0.2039,0.0207,-0.519,-0.3087,-0.478,-0.2867,-0.7209,0.1217,0.1089
0.0987,-0.3822,-0.0903,-0.5037,-0.5947,-0.4949,-0.1668,-0.2984,-0.2988,-0.4587,-0.3429,-0.6527,-0.4762,-0.5371,-0.2284,-0.4214,-0.3319,0.1742,-0.1611,-0.4825,-0.6702,-0.2982,0.034,-0.7296,-0.4056,-0.6626,-0.4902,-0.9905,0.0861,0.1333
0.0673,-0.4408,-0.1403,-0.5525,-0.6249,-0.6239,-0.3904,-0.3883,-0.3706,-0.5796,-0.4723,-0.8892,-0.6338,-0.6829,-0.2455,-0.4649,-0.4335,0.1645,-0.2356,-0.5704,-0.7531,-0.3738,0.0455,-0.897,-0.4615,-0.7953,-0.6569,-1.1864,0.0382,0.1523
0.0135,-0.491,-0.1814,-0.5797,-0.6245,-0.7076,-0.5968,-0.4472,-0.3923,-0.6456,-0.541,-1.0519,-0.7392,-0.7832,-0.2359,-0.5103,-0.5039,0.1574,-0.286,-0.6446,-0.79,-0.4241,0.0544,-1.0095,-0.4697,-0.8564,-0.7641,-1.2829,-0.0264,0.1567
-0.0564,-0.5278,-0.2125,-0.5832,-0.5905,-0.7387,-0.7529,-0.4635,-0.3534,-0.6443,-0.5338,-1.1167,-0.7793,-0.8254,-0.2073,-0.5508,-0.547,0.1501,-0.3118,-0.7023,-0.7778,-0.4478,0.0581,-1.0622,-0.4301,-0.8347,-0.7949,-1.2634,-0.1054,0.1398
-0.1298,-0.5436,-0.23,-0.5599,-0.5214,-0.7148,-0.8317,-0.4304,-0.2529,-0.5725,-0.4466,-1.0711,-0.7493,-0.8048,-0.1674,-0.5766,-0.5674,0.1401,-0.3151,-0.7387,-0.7191,-0.4467,0.0537,-1.057,-0.3479,-0.7298,-0.7401,-1.1242,-0.1898,0.0997
-0.1891,-0.5293,-0.2286,-0.5059,-0.4178,-0.6387,-0.8172,-0.3481,-0.1003,-0.4375,-0.2885,-0.918,-0.6534,-0.7251,-0.1216,-0.5769,-0.5675,0.126,-0.2989,-0.7474,-0.6213,-0.4248,0.04,-1.0019,-0.2339,-0.5527,-0.6,-0.8755,-0.2661,0.0403
-0.2167,-0.4767,-0.2034,-0.4178,-0.2836,-0.5183,-0.7084,-0.2253,0.0838,-0.2572,-0.0817,-0.6758,-0.5038,-0.5976,-0.0711,-0.5424,-0.5462,0.1091,-0.2655,-0.7215,-0.496,-0.3866,0.0179,-0.9085,-0.1021,-0.3254,-0.3845,-0.5408,-0.3202,-0.0301
-0.1992,-0.3818,-0.1528,-0.2947,-0.1274,-0.3669,-0.5215,-0.079,0.2709,-0.0574,0.1424,-0.3757,-0.3198,-0.4401,-0.0143,-0.468,-0.4999,0.093,-0.2162,-0.6567,-0.3572,-0.3363,-0.0092,-0.7907,0.0317,-0.0771,-0.1137,-0.1547,-0.342,-0.0999
-0.1324,-0.248,-0.0808,-0.1421,0.0369,-0.2028,-0.288,0.067,0.4279,0.1312,0.3477,-0.0569,-0.1264,-0.2747,0.0515,-0.3564,-0.4254,0.0823,-0.1534,-0.5541,-0.2213,-0.279,-0.0378,-0.6632,0.1519,0.1599,0.1843,0.2417,-0.3283,-0.1572
-0.0228,-0.0884,0.0022,0.027,0.1898,-0.0478,-0.0503,0.1862,0.5242,0.2779,0.5001,0.2402,0.0486,-0.126,0.1261,-0.2191,-0.3245,0.0803,-0.0817,-0.4227,-0.1056,-0.2215,-0.0657,-0.5413,0.245,0.3552,0.4756,0.6053,-0.2841,-0.1933
0.1123,0.0747,0.08,0.1913,0.3091,0.0744,0.1456,0.2541,0.537,0.3568,0.5734,0.4803,0.1772,-0.0181,0.2035,-0.0767,-0.2066,0.0877,-0.0098,-0.2799,-0.0276,-0.1731,-0.0944,-0.4403,0.3001,0.4849,0.7239,0.8971,-0.2216,-0.2042
0.2484,0.2127,0.1334,0.3234,0.3729,0.142,0.2587,0.2536,0.4566,0.3514,0.5536,0.6393,0.2347,0.0277,0.271,0.0439,-0.0901,0.1013,0.0492,-0.1498,-0.0033,-0.1464,-0.1297,-0.375,0.3102,0.5342,0.8959,1.0866,-0.1571,-0.192
0.358,0.296,0.1441,0.3954,0.3635,0.1384,0.2601,0.1779,0.2886,0.2569,0.4411,0.7063,0.2037,-0.0037,0.3113,0.1145,0.0006,0.1142,0.0786,-0.0593,-0.0452,-0.1559,-0.1817,-0.3598,0.2715,0.4988,0.9659,1.156,-0.1075,-0.1641
0.4164,0.2998,0.0989,0.3842,0.2713,0.055,0.1394,0.0329,0.0523,0.0808,0.249,0.6845,0.077,-0.1187,0.3071,0.1112,0.0395,0.1167,0.0616,-0.0328,-0.1602,-0.2159,-0.2624,-0.4067,0.1841,0.3834,0.9202,1.1012,-0.0873,-0.1307
0.4065,0.2101,-0.0079,0.2773,0.0965,-0.1067,-0.0945,-0.1651,-0.2232,-0.1594,0.0007,0.5877,-0.1406,-0.3133,0.2468,0.02,0.0056,0.0991,-0.0157,-0.086,-0.3471,-0.3367,-0.3825,-0.524,0.0509,0.1999,0.7589,0.9313,-0.1057,-0.1024
0.3225,0.0278,-0.1719,0.0772,-0.1494,-0.335,-0.4146,-0.3919,-0.5054,-0.4393,-0.2761,0.4361,-0.432,-0.5729,0.1293,-0.1586,-0.1108,0.0534,-0.1595,-0.2217,-0.5948,-0.5215,-0.5474,-0.7136,-0.1224,-0.0359,0.496,0.6657,-0.1654,-0.0879
0.171,-0.23,-0.3796,-0.1972,-0.4448,-0.6091,-0.7813,-0.6212,-0.7641,-0.7318,-0.554,0.2515,-0.7697,-0.8732,-0.0337,-0.4083,-0.3043,-0.0231,-0.3653,-0.4268,-0.8824,-0.763,-0.7538,-0.9693,-0.327,-0.3065,0.1563,0.3306,-0.2618,-0.0918
-0.0292,-0.5321,-0.6093,-0.5128,-0.7604,-0.9015,-1.1493,-0.8285,-0.9763,-1.0113,-0.8096,0.0534,-1.1193,-1.1836,-0.2195,-0.6982,-0.5537,-0.1266,-0.6161,-0.6737,-1.1809,-1.0424,-0.9879,-1.2755,-0.5515,-0.594,-0.2284,-0.0452,-0.3837,-0.1134
-0.2506,-0.8375,-0.8346,-0.8274,-1.0634,-1.1816,-1.4754,-0.9952,-1.1284,-1.2565,-1.0259,-0.1432,-1.4449,-1.4713,-0.3983,-0.9877,-0.8242,-0.2465,-0.8846,-0.9246,-1.4575,-1.3312,-1.2263,-1.608,-0.7821,-0.8814,-0.6244,-0.4335,-0.5143,-0.1465
-0.4615,-1.1034,-1.0288,-1.097,-1.3224,-1.4206,-1.726,-1.1106,-1.2164,-1.4526,-1.1926,-0.3279,-1.7145,-1.7065,-0.5392,-1.2334,-1.0742,-0.3661,-1.1366,-1.1387,-1.6811,-1.5956,-1.4396,-1.9369,-1.0038,-1.1531,-1.0005,-0.8099,-0.6346,-0.1807
-0.6313,-1.2928,-1.1697,-1.2847,-1.5128,-1.5958,-1.8814,-1.1719,-1.2444,-1.5917,-1.3054,-0.494,-1.9052,-1.867,-0.6165,-1.3978,-1.2633,-0.4664,-1.3379,-1.2803,-1.8286,-1.8025,-1.5974,-2.2315,-1.2023,-1.3957,-1.332,-1.1546,-0.7263,-0.2027
-0.7357,-1.3818,-1.243,-1.3678,-1.6207,-1.6943,-1.9384,-1.1833,-1.222,-1.6722,-1.365,-0.6371,-2.0066,-1.9424,-0.6145,-1.4559,-1.3605,-0.5298,-1.4605,-1.326,-1.8886,-1.926,-1.6753,-2.4656,-1.3656,-1.5985,-1.6024,-1.4535,-0.7758,-0.1994
-0.7599,-1.3634,-1.2454,-1.3421,-1.6443,-1.7148,-1.9089,-1.154,-1.162,-1.6979,-1.3755,-0.754,-2.0217,-1.9349,-0.5315,-1.4007,-1.3494,-0.5444,-1.4887,-1.2692,-1.8642,-1.9531,-1.6601,-2.6223,-1.4865,-1.7543,-1.8043,-1.6974,-0.776,-0.1613
-0.7008,-1.2484,-1.1837,-1.222,-1.5933,-1.6668,-1.8161,-1.0959,-1.078,-1.6762,-1.3437,-0.8415,-1.9649,-1.859,-0.3802,-1.2438,-1.2313,-0.5066,-1.4217,-1.1212,-1.7716,-1.8863,-1.5545,-2.6961,-1.5632,-1.8599,-1.9377,-1.8812,-0.727,-0.0845
-0.5662,-1.0618,-1.0726,-1.0367,-1.4854,-1.5674,-1.6892,-1.0206,-0.9826,-1.6173,-1.2775,-0.8961,-1.8584,-1.7375,-0.1859,-1.0122,-1.0235,-0.4231,-1.2743,-0.9084,-1.6362,-1.7434,-1.377,-2.6935,-1.5991,-1.9155,-2.0081,-2.0021,-0.635,0.0277
-0.3739,-0.8372,-0.9313,-0.823,-1.3422,-1.4373,-1.5574,-0.9378,-0.8862,-1.5323,-1.1849,-0.9147,-1.727,-1.5977,0.0185,-0.7432,-0.7561,-0.3089,-1.0737,-0.6666,-1.4878,-1.5542,-1.1597,-2.6305,-1.6018,-1.9241,-2.0237,-2.0589,-0.5101,0.1649
-0.1494,-0.6102,-0.779,-0.6182,-1.1858,-1.2965,-1.4442,-0.8536,-0.7956,-1.4328,-1.0737,-0.895,-1.5934,-1.4662,0.2001,-0.4768,-0.4657,-0.185,-0.8544,-0.434,-1.3549,-1.3544,-0.942,-2.5281,-1.5805,-1.8899,-1.9937,-2.0511,-0.3647,0.3123
0.0777,-0.4126,-0.6325,-0.4523,-1.0351,-1.1613,-1.3648,-0.7711,-0.7147,-1.3295,-0.9511,-0.8367,-1.4753,-1.3645,0.3325,-0.2496,-0.1907,-0.0735,-0.6518,-0.2442,-1.2594,-1.1791,-0.763,-2.4076,-1.5439,-1.8174,-1.9265,-1.9789,-0.2114,0.4529
0.2774,-0.2672,-0.5042,-0.3442,-0.9039,-1.0425,-1.3245,-0.6916,-0.6447,-1.2324,-0.8235,-0.7422,-1.3832,-1.3067,0.4012,-0.0893,0.0352,0.0066,-0.4955,-0.1207,-1.2144,-1.0559,-0.6536,-2.2857,-1.4981,-1.7105,-1.829,-1.8441,-0.0621,0.5714
0.424,-0.1864,-0.4013,-0.2996,-0.8,-0.9464,-1.3202,-0.6161,-0.5853,-1.1491,-0.6969,-0.6171,-1.3209,-1.2975,0.4046,-0.0116,0.1872,0.0429,-0.404,-0.0737,-1.2222,-0.9998,-0.6304,-2.1728,-1.4463,-1.572,-1.7069,-1.6511,0.0722,0.6567
0.4996,-0.1713,-0.3273,-0.3124,-0.7257,-0.8754,-1.3436,-0.547,-0.5364,-1.0851,-0.5767,-0.4706,-1.287,-1.333,0.352,-0.0197,0.2519,0.0318,-0.3823,-0.0998,-1.2754,-1.0116,-0.6929,-2.0718,-1.3879,-1.4047,-1.5653,-1.4078,0.1824,0.7033
0.496,-0.215,-0.2843,-0.3686,-0.6795,-0.8315,-1.3846,-0.4894,-0.4989,-1.0435,-0.468,-0.3153,-1.277,-1.4035,0.259,-0.1066,0.2274,-0.0228,-0.4236,-0.1852,-1.3607,-1.0794,-0.8248,-1.9809,-1.3207,-1.2122,-1.4098,-1.1273,0.2602,0.7109
0.414,-0.3059,-0.2753,-0.4521,-0.6592,-0.8182,-1.4363,-0.4516,-0.4765,-1.0266,-0.3779,-0.1682,-1.2868,-1.497,0.1413,-0.2591,0.1214,-0.1131,-0.5134,-0.3113,-1.4633,-1.1847,-1.0007,-1.8974,-1.2424,-1.0012,-1.249,-0.8296,0.2978,0.682
0.2603,-0.4338,-0.3067,-0.5501,-0.6661,-0.843,-1.4982,-0.445,-0.4769,-1.0384,-0.316,-0.0516,-1.3172,-1.6054,0.0088,-0.4629,-0.053,-0.2315,-0.6366,-0.4611,-1.5732,-1.3094,-1.1941,-1.8225,-1.1541,-0.7841,-1.0966,-0.5431,0.2872,0.6179
0.0428,-0.594,-0.3895,-0.6589,-0.7077,-0.9182,-1.5787,-0.4833,-0.5117,-1.0871,-0.2967,0.0076,-1.3761,-1.7284,-0.1383,-0.708,-0.2827,-0.3757,-0.7841,-0.6262,-1.6901,-1.4436,-1.3869,-1.7653,-1.0619,-0.5804,-0.9727,-0.3042,0.2191,0.5153
-0.234,-0.7911,-0.5396,-0.7865,-0.7997,-1.0607,-1.6954,-0.5809,-0.5958,-1.1865,-0.3376,-0.0208,-1.4807,-1.877,-0.3116,-0.9929,-0.5589,-0.552,-0.9577,-0.8113,-1.8266,-1.5907,-1.5755,-1.7446,-0.9781,-0.4163,-0.9039,-0.1542,0.0826,0.3641
-0.5729,-1.0402,-0.7754,-0.9534,-0.9652,-1.2898,-1.8722,-0.7502,-0.7442,-1.3544,-0.4575,-0.1652,-1.6555,-2.0733,-0.5334,-1.3265,-0.8805,-0.7753,-1.1716,-1.035,-2.0078,-1.7687,-1.773,-1.7885,-0.9199,-0.3205,-0.9199,-0.1328,-0.1351,0.1478
-0.9836,-1.365,-1.1159,-1.1894,-1.2312,-1.6246,-2.1348,-0.9984,-0.9681,-1.6089,-0.6716,-0.4459,-1.9285,-2.3469,-0.8328,-1.7269,-1.2553,-1.0665,-1.4497,-1.327,-2.2675,-2.0066,-2.0052,-1.9286,-0.9057,-0.3185,-1.0471,-0.2689,-0.448,-0.1527
-1.4804,-1.7922,-1.576,-1.5274,-1.6231,-2.079,-2.5033,-1.3243,-1.27,-1.9624,-0.9864,-0.868,-2.3234,-2.7275,-1.2395,-2.2169,-1.6972,-1.4471,-1.8194,-1.7213,-2.6401,-2.3366,-2.3029,-2.1926,-0.9502,-0.4244,-1.3017,-0.571,-0.8688,-0.5541
-2.076,-2.344,-2.162,-1.9944,-2.1564,-2.6564,-2.9849,-1.7162,-1.6401,-2.4155,-1.3945,-1.4157,-2.8523,-3.2356,-1.7751,-2.816,-2.2201,-1.9319,-2.3035,-2.2458,-3.151,-2.784,-2.6911,-2.5949,-1.0592,-0.635,-1.6829,-1.0211,-1.405,-1.0637
-2.7738,-3.0284,-2.8668,-2.6024,-2.8292,-3.3449,-3.5692,-2.1516,-2.0554,-2.9524,-1.8728,-2.0515,-3.5076,-3.8733,-2.4442,-3.5315,-2.8303,-2.5211,-2.9101,-2.9125,-3.8069,-3.3568,-3.1786,-3.1286,-1.2268,-0.9268,-2.1688,-1.5736,-2.0533,-1.673
-3.5606,-3.832,-3.6661,-3.3399,-3.6163,-4.1139,-4.2255,-2.5993,-2.4824,-3.5409,-2.3824,-2.7189,-4.2589,-4.6187,-3.2269,-4.3498,-3.5178,-3.1952,-3.6257,-3.7089,-4.5887,-4.0388,-3.7518,-3.7618,-1.4348,-1.2589,-2.7177,-2.161,-2.7943,-2.3536
-4.4014,-4.7156,-4.5167,-4.169,-4.4678,-4.9152,-4.9053,-3.0236,-2.882,-4.1346,-2.8728,-3.3505,-5.0537,-5.4246,-4.0764,-5.2322,-4.252,-3.9127,-4.4115,-4.5945,-5.4498,-4.7875,-4.3729,-4.4403,-1.6557,-1.5805,-3.2731,-2.7055,-3.5895,-3.0569
-5.2399,-5.6154,-5.3587,-5.0266,-5.3139,-5.6869,-5.5484,-3.3897,-3.2164,-4.6793,-3.2889,-3.8771,-5.8239,-6.2241,-4.9217,-6.1159,-4.9814,-4.6134,-5.2057,-5.5038,-6.3207,-5.5387,-4.9853,-5.0945,-1.8581,-1.8406,-3.7728,-3.1319,-4.3818,-3.7178
-6.0041,-6.4512,-6.1218,-5.8333,-6.074,-6.3624,-6.0915,-3.6686,-3.4551,-5.1212,-3.5793,-4.2388,-6.4956,-6.9408,-5.6774,-6.9215,-5.6409,-5.227,-5.9321,-6.355,-7.1195,-6.2166,-5.5232,-5.6508,-2.0132,-1.9991,-4.1587,-3.3815,-5.1014,-4.2653
-6.6175,-7.1385,-6.7345,-6.5059,-6.6699,-6.8795,-6.4795,-3.8412,-3.5794,-5.4151,-3.7052,-4.3925,-7.0017,-7.5018,-6.2572,-7.5663,-6.162,-5.6848,-6.5128,-7.0632,-7.7648,-6.7467,-5.9245,-6.0447,-2.1005,-2.0339,-4.3872,-3.4208,-5.6749,-4.6339
-7.0121,-7.6027,-7.1351,-6.9711,-7.0386,-7.1899,-6.6746,-3.9007,-3.5844,-5.5311,-3.6471,-4.3181,-7.2928,-7.8499,-6.5895,-7.9786,-6.4868,-5.9321,-6.8814,-7.5544,-8.1898,-7.0694,-6.1415,-6.2316,-2.1117,-1.9445,-4.4355,-3.2454,-6.0374,-4.7763
-7.1395,-7.7919,-7.2815,-7.1775,-7.1429,-7.2659,-6.6625,-3.8518,-3.4794,-5.4591,-3.4083,-4.0195,-7.3443,-7.9522,-6.6292,-8.1106,-6.5775,-5.9377,-6.9945,-7.7774,-8.3523,-7.1492,-6.1494,-6.194,-2.0513,-1.7507,-4.3043,-2.8793,-6.1438,-4.6718
-6.9787,-7.6838,-7.1571,-7.1027,-6.9753,-7.1024,-6.4537,-3.7097,-3.285,-5.2096,-3.0143,-3.523,-7.1593,-7.8038,-6.3649,-7.9463,-6.4232,-5.6984,-6.8373,-7.7096,-8.2385,-6.9788,-5.9481,-5.9422,-1.9349,-1.4873,-4.0166,-2.3683,-5.9761,-4.3285
-6.5382,-7.2867,-6.7725,-6.7529,-6.556,-6.7158,-6.0795,-3.4961,-3.0302,-4.8118,-2.5091,-2.8731,-6.7656,-7.4245,-5.8189,-7.5012,-6.0391,-5.2373,-6.4231,-7.357,-7.8618,-6.5769,-5.5597,-5.5105,-1.7857,-1.1964,-3.612,-1.7723,-5.5464,-3.7806
-5.8524,-6.6346,-6.1622,-6.158,-5.9265,-6.139,-5.5853,-3.2373,-2.7481,-4.3088,-1.9479,-2.1267,-6.2096,-6.8535,-5.042,-6.8168,-5.4603,-4.5977,-5.7876,-6.749,-7.2559,-5.982,-5.0223,-4.9491,-1.6295,-0.9199,-3.1402,-1.1566,-4.8939,-3.0808
-4.9755,-5.7786,-5.3769,-5.3631,-5.14,-5.416,-5.0219,-2.9605,-2.4716,-3.7519,-1.3888,-1.3471,-5.5484,-6.1408,-4.104,-5.9498,-4.7334,-3.8343,-4.9805,-5.9299,-6.4667,-5.2436,-4.382,-4.3153,-1.4901,-0.6936,-2.653,-0.5838,-4.078,-2.2904
-3.973,-4.7778,-4.4757,-4.4202,-4.2525,-4.5954,-4.4387,-2.692,-2.2299,-3.1941,-0.8856,-0.5977,-4.8413,-5.3395,-3.0826,-4.9616,-3.9078,-3.0035,-4.0568,-4.9512,-5.5448,-4.4147,-3.6864,-3.6659,-1.3865,-0.5427,-2.197,-0.1077,-3.1687,-1.4706
-2.9132,-3.6912,-3.5176,-3.3817,-3.317,-3.7271,-3.8777,-2.4544,-2.0449,-2.684,-0.481,0.0632,-4.1429,-4.5002,-2.0539,-3.9098,-3.0286,-2.1576,-3.0708,-3.8658,-4.5401,-3.5457,-2.979,-3.0504,-1.3305,-0.4811,-1.8092,0.2313,-2.2373,-0.6761
-1.8609,-2.5736,-2.5566,-2.2972,-2.3801,-2.8586,-3.3707,-2.2643,-1.9291,-2.2599,-0.2029,0.5877,-3.4986,-3.6671,-1.084,-2.8432,-2.1344,-1.3407,-2.0713,-2.7243,-3.4997,-2.6811,-2.2973,-2.5082,-1.3267,-0.5111,-1.5134,0.4093,-1.3479,0.0491
-0.8725,-1.4737,-1.6386,-1.2128,-1.4813,-2.0331,-2.9372,-2.1304,-1.8838,-1.9456,-0.0625,0.9421,-2.9405,-2.8763,-0.2241,-1.8015,-1.257,-0.5884,-1.1011,-1.5745,-2.4666,-1.8585,-1.6715,-2.066,-1.3732,-0.6254,-1.32,0.4197,-0.552,0.6717
0.0066,-0.4344,-0.801,-0.1715,-0.653,-1.2877,-2.5847,-2.0519,-1.899,-1.748,-0.0542,1.1102,-2.487,-2.1549,0.4916,-0.8178,-0.4237,0.0716,-0.1958,-0.461,-1.4793,-1.1082,-1.1257,-1.7375,-1.4628,-0.8085,-1.2263,0.2738,0.1139,1.1691
0.743,0.5065,-0.0741,0.7868,0.0794,-0.6512,-2.3098,-2.0186,-1.954,-1.6562,-0.1571,1.0948,-2.142,-1.5209,1.0454,0.0794,0.3409,0.6183,0.6151,0.5747,-0.5706,-0.453,-0.677,-1.5243,-1.5844,-1.0387,-1.2189,-0.0013,0.6283,1.5265
1.3144,1.3162,0.5175,1.6255,0.6979,-0.1426,-2.1001,-2.0123,-2.0209,-1.645,-0.339,0.9173,-1.8974,-0.9838,1.4335,0.8637,1.0128,1.0362,1.3091,1.496,0.2344,0.092,-0.3357,-1.4163,-1.7232,-1.2892,-1.2763,-0.3655,0.9813,1.7361
1.7084,1.9673,0.954,2.3136,1.1924,0.2297,-1.9368,-2.0109,-2.069,-1.6797,-0.5601,0.615,-1.7354,-0.5446,1.6617,1.511,1.5697,1.316,1.8706,2.2728,0.9197,0.5208,-0.1037,-1.3933,-1.8622,-1.5302,-1.3722,-0.7707,1.1708,1.795
1.9212,2.4406,1.2205,2.8295,1.5609,0.468,-1.7983,-1.993,-2.0704,-1.7231,-0.78,0.2366,-1.6329,-0.1971,1.7416,2.0019,1.9923,1.4556,2.2921,2.885,1.4797,0.8364,0.0266,-1.427,-1.9818,-1.7308,-1.4793,-1.1671,1.1994,1.7059
1.9564,2.727,1.3088,3.1633,1.8096,0.5839,-1.6636,-1.9423,-2.0057,-1.7432,-0.963,-0.165,-1.5653,0.071,1.6877,2.3248,2.2675,1.4609,2.5748,3.3252,1.9189,1.0513,0.0721,-1.4843,-2.0623,-1.8629,-1.5723,-1.5092,1.0723,1.4771
1.8246,2.83,1.22,3.3192,1.9514,0.5958,-1.5159,-1.8512,-1.8676,-1.7188,-1.0835,-0.541,-1.51,0.276,1.5164,2.4796,2.3912,1.3461,2.7286,3.5999,2.2507,1.1856,0.0581,-1.5313,-2.0848,-1.9039,-1.6306,-1.7615,0.7977,1.124
1.5439,2.7667,0.9664,3.3158,2.0036,0.5257,-1.346,-1.7221,-1.6627,-1.6427,-1.1295,-0.8541,-1.4501,0.4358,1.2455,2.4797,2.371,1.1324,2.7717,3.7297,2.4945,1.2645,0.0144,-1.5383,-2.0345,-1.8406,-1.6407,-1.9027,0.3882,0.6687
1.1395,2.5661,0.5726,3.183,1.9855,0.3965,-1.1536,-1.5667,-1.41,-1.5214,-1.1033,-1.0835,-1.3745,0.5679,0.8947,2.3514,2.2266,0.8456,2.7285,3.7464,2.6724,1.3144,-0.029,-1.4842,-1.9029,-1.6711,-1.5964,-1.9275,-0.1365,0.1405
0.6444,2.2664,0.074,2.958,1.9154,0.2288,-0.9473,-1.4025,-1.137,-1.3722,-1.0193,-1.2267,-1.279,0.687,0.486,2.1309,1.9886,0.5132,2.6279,3.6888,2.8057,1.3596,-0.0468,-1.36,-1.6891,-1.4053,-1.4984,-1.8447,-0.7484,-0.4273
0.0965,1.9098,-0.4871,2.6797,1.8091,0.0404,-0.7415,-1.2496,-0.8747,-1.2179,-0.9,-1.2965,-1.1643,0.8039,0.0419,1.8589,1.6948,0.1611,2.499,3.5963,2.9127,1.4181,-0.0231,-1.17,-1.4009,-1.0626,-1.3528,-1.6744,-1.4124,-0.9999
-0.4655,1.5363,-1.0675,2.3829,1.6784,-0.1555,-0.5529,-1.1264,-0.6521,-1.0812,-0.7712,-1.3148,-1.0347,0.9248,-0.4158,1.5745,1.3842,-0.189,2.3681,3.5035,3.0065,1.5,0.047,-0.9307,-1.0532,-0.6685,-1.1692,-1.4423,-2.0903,-1.5462
-1.0079,1.1776,-1.6298,2.0936,1.531,-0.3509,-0.3961,-1.0468,-0.4913,-0.98,-0.6561,-1.3057,-0.8965,1.0501,-0.8686,1.3087,1.0909,-0.5221,2.2552,3.4337,3.0937,1.6063,0.1572,-0.667,-0.6662,-0.2499,-0.9581,-1.1742,-2.7461,-2.0435
-1.5077,0.8528,-2.1483,1.8255,1.3703,-0.5434,-0.2808,-1.0186,-0.405,-0.9241,-0.5714,-1.2877,-0.7567,1.1756,-1.3031,1.0801,0.8385,-0.8302,2.1709,3.3962,3.1744,1.7297,0.2915,-0.406,-0.2621,0.1698,-0.7298,-0.8916,-3.352,-2.4807
-1.9561,0.567,-2.6123,1.5801,1.1962,-0.7362,-0.211,-1.0436,-0.395,-0.9142,-0.5246,-1.2697,-0.6225,1.2926,-1.7121,0.8937,0.6362,-1.113,2.1155,3.3849,3.2428,1.857,0.4287,-0.1708,0.1379,0.5734,-0.4927,-0.6077,-3.8931,-2.86
-2.3576,0.3124,-3.0258,1.3493,1.0061,-0.937,-0.1853,-1.1177,-0.4535,-0.9428,-0.5136,-1.2499,-0.5008,1.3902,-2.0949,0.7417,0.4783,-1.3765,2.0794,3.381,3.2886,1.9715,0.546,0.0239,0.5163,0.9519,-0.2533,-0.3275,-4.3687,-3.1951
-2.7268,0.0732,-3.4038,1.1194,0.7962,-1.1554,-0.1991,-1.2325,-0.5647,-0.9966,-0.5281,-1.2175,-0.3977,1.4573,-2.4557,0.6072,0.3475,-1.6307,2.046,3.3584,3.3,2.0569,0.6237,0.1744,0.8609,1.3029,-0.0155,-0.0489,-4.79,-3.5067
-3.0819,-0.1691,-3.7653,0.8765,0.5634,-1.4001,-0.2462,-1.3759,-0.7078,-1.0595,-0.5537,-1.1584,-0.3175,1.4854,-2.8014,0.469,0.2191,-1.8869,1.9948,3.2896,3.2665,2.0995,0.649,0.2856,1.1649,1.6282,0.2186,0.2326,-5.1761,-3.8176
-3.4381,-0.4295,-4.1269,0.6109,0.3072,-1.6748,-0.3196,-1.5334,-0.8602,-1.1159,-0.5759,-1.0609,-0.2619,1.4709,-3.1381,0.3073,0.0689,-2.1541,1.907,3.1537,3.1819,2.0915,0.6184,0.3684,1.4263,1.9302,0.4477,0.5193,-5.5468,-4.1458
-3.8013,-0.7148,-4.4959,0.3211,0.0314,-1.9753,-0.4109,-1.6894,-1.0005,-1.153,-0.5838,-0.9212,-0.2283,1.4176,-3.4678,0.1086,-0.1215,-2.436,1.7694,2.9413,3.0474,2.0321,0.5385,0.4347,1.6461,2.2088,0.6703,0.8063,-5.9163,-4.4996
-4.1656,-1.0209,-4.8673,0.0147,-0.2541,-2.2874,-0.5092,-1.8275,-1.1112,-1.1621,-0.5727,-0.7458,-0.209,1.337,-3.7858,-0.1302,-0.359,-2.7285,1.5785,2.6579,2.873,1.9289,0.4256,0.4951,1.8274,2.4592,0.884,1.0802,-6.2879,-4.8746
-4.5131,-1.3326,-5.2234,-0.2918,-0.5331,-2.5874,-0.5993,-1.9328,-1.1803,-1.1393,-0.544,-0.5513,-0.1912,1.2486,-4.0802,-0.4002,-0.6373,-3.0198,1.3419,2.3243,2.677,1.797,0.3028,0.5581,1.9738,2.6727,1.0851,1.3197,-6.6516,-5.2528
-4.8174,-1.6262,-5.5375,-0.5761,-0.7826,-2.8451,-0.6626,-1.9923,-1.2022,-1.0842,-0.5038,-0.3601,-0.1577,1.1767,-4.3334,-0.6821,-0.9378,-3.2914,1.0775,1.9724,2.4842,1.6575,0.1961,0.6301,2.089,2.8377,1.2688,1.5,-6.9856,-5.6059
-5.0506,-1.8747,-5.7803,-0.8141,-0.9761,-3.0291,-0.6776,-1.9969,-1.1762,-0.9988,-0.4602,-0.1948,-0.0899,1.1476,-4.5258,-0.9496,-1.2342,-3.5218,0.8102,1.6393,2.3218,1.5334,0.1283,0.7172,2.1759,2.9432,1.4295,1.5989,-7.2615,-5.9014
-5.1902,-2.054,-5.9275,-0.9845,-1.0869,-3.1126,-0.6239,-1.9414,-1.1056,-0.8859,-0.4204,-0.0726,0.0293,1.1845,-4.6407,-1.1759,-1.4987,-3.692,0.5664,1.3596,2.2142,1.4455,0.1145,0.8247,2.2365,2.9819,1.5624,1.6028,-7.4524,-6.1103
-5.2258,-2.1485,-5.9664,-1.0741,-1.0941,-3.0798,-0.4856,-1.826,-0.9954,-0.7481,-0.3871,-0.0007,0.2114,1.303,-4.6697,-1.3403,-1.7091,-3.7905,0.3686,1.1579,2.1778,1.4082,0.1583,0.9579,2.2717,2.9528,1.6644,1.511,-7.5404,-6.2151
-5.1631,-2.1556,-5.9006,-1.0807,-0.988,-2.9293,-0.2554,-1.6556,-0.8512,-0.5868,-0.357,0.0258,0.4592,1.5069,-4.6164,-1.4337,-1.8545,-3.8179,0.2302,1.044,2.2171,1.4262,0.2505,1.1205,2.2825,2.8634,1.7352,1.338,-7.5229,-6.2159
-5.0247,-2.0868,-5.7493,-1.0141,-0.7738,-2.6759,0.0629,-1.4399,-0.6778,-0.4029,-0.3197,0.0231,0.7651,1.7862,-4.4994,-1.4614,-1.9376,-3.7885,0.1524,1.0105,2.3225,1.4935,0.3717,1.3134,2.2704,2.73,1.7782,1.112,-7.4142,-6.1317
-4.8459,-1.9663,-5.5443,-0.8951,-0.4717,-2.3484,0.4532,-1.1921,-0.4798,-0.1976,-0.2605,0.0154,1.111,2.1175,-4.3513,-1.4426,-1.9735,-3.7284,0.125,1.0351,2.4723,1.5948,0.4968,1.532,2.239,2.5765,1.8004,0.871,-7.2442,-5.9983
-4.6693,-1.8258,-5.3233,-0.7514,-0.1145,-1.9841,0.8884,-0.928,-0.2624,0.027,-0.1635,0.0294,1.4714,2.4672,-4.2149,-1.4064,-1.9857,-3.6704,0.1286,1.0847,2.6369,1.7088,0.6017,1.7664,2.1949,2.4314,1.812,0.6563,-7.0522,-5.8612
-4.5364,-1.699,-5.1238,-0.6126,0.2583,-1.6232,1.3344,-0.6638,-0.0319,0.2661,-0.017,0.0882,1.8174,2.7975,-4.1366,-1.3854,-2.0003,-3.6478,0.1406,1.1233,2.7855,1.8136,0.6685,2.0007,2.1478,2.3244,1.8248,0.5065,-6.8805,-5.7676
-4.4814,-1.6159,-4.9772,-0.5045,0.6071,-1.3015,1.7538,-0.4154,0.2028,0.5119,0.1823,0.2062,2.1216,3.0732,-4.1583,-1.41,-2.0412,-3.6865,0.1398,1.1183,2.8917,1.8911,0.6903,2.2169,2.1103,2.2811,1.851,0.4504,-6.7682,-5.7569
-4.5265,-1.598,-4.906,-0.446,0.899,-1.0466,2.1118,-0.1962,0.4307,0.7535,0.4276,0.3854,2.3632,3.2675,-4.3101,-1.5028,-2.1265,-3.8005,0.1114,1.0468,2.9381,1.9306,0.6711,2.3977,2.0961,2.3192,1.9014,0.5033,-6.7455,-5.8543
-4.681,-1.6581,-4.9232,-0.4477,1.1109,-0.8751,2.3808,-0.0169,0.6398,0.978,0.7034,0.6165,2.5299,3.3657,-4.6049,-1.6774,-2.2674,-3.9896,0.0483,0.8974,2.9178,1.9299,0.624,2.5307,2.1182,2.4455,1.9842,0.6663,-6.8329,-6.0682
-4.9443,-1.8008,-5.0341,-0.5132,1.2309,-0.7938,2.5436,0.1162,0.8188,1.1726,0.9894,0.8822,2.6191,3.3662,-5.0372,-1.9386,-2.4694,-4.2416,-0.0493,0.6698,2.832,1.8934,0.5661,2.6111,2.1865,2.6554,2.1038,0.9283,-7.0401,-6.3907
-5.3093,-2.026,-5.2386,-0.6421,1.2571,-0.802,2.5963,0.2017,0.9602,1.3276,1.2667,1.1637,2.6366,3.2776,-5.5847,-2.2854,-2.7339,-4.5367,-0.1774,0.3713,2.6863,1.8289,0.5127,2.642,2.3058,2.9353,2.2612,1.2717,-7.3683,-6.8023
-5.7669,-2.3315,-5.5338,-0.8327,1.1943,-0.8938,2.5482,0.2433,1.0625,1.4385,1.5232,1.447,2.5932,3.115,-6.2139,-2.7136,-3.0602,-4.854,-0.332,0.0126,2.4865,1.744,0.4733,2.634,2.4749,3.2661,2.4535,1.678,-7.8107,-7.2775
-6.3074,-2.7138,-5.9145,-1.0838,1.0509,-1.0611,2.4196,0.2493,1.1319,1.5076,1.7563,1.7276,2.5025,2.8959,-6.8867,-3.2168,-3.4454,-5.1761,-0.5111,-0.3955,2.2365,1.643,0.4495,2.6024,2.6864,3.6276,2.6749,2.1321,-8.3545,-7.7899
-6.9205,-3.1679,-6.3726,-1.3939,0.8367,-1.2943,2.238,0.231,1.1811,1.5441,1.9733,2.0108,2.3781,2.6371,-7.5667,-3.786,-3.8841,-5.4919,-0.7155,-0.8428,1.9381,1.5272,0.4359,2.5641,2.9273,4.0011,2.9171,2.6239,-8.98,-8.3153
-7.5921,-3.6839,-6.8949,-1.7591,0.5629,-1.5818,2.0331,0.2009,1.2266,1.562,2.1874,2.3081,2.2324,2.3539,-8.2232,-4.4066,-4.3661,-5.7956,-0.946,-1.3186,1.5945,1.396,0.4234,2.5337,3.1807,4.3705,3.1696,3.1464,-9.6617,-8.8329
-8.3011,-4.2442,-7.4605,-2.1689,0.2427,-1.9085,1.8333,0.1707,1.2848,1.5776,2.4133,2.632,2.0775,2.0611,-8.8318,-5.0556,-4.8743,-6.0828,-1.1999,-1.8089,1.2142,1.2507,0.4042,2.5206,3.4275,4.7208,3.4206,3.6904,-10.3675,-9.3237
-9.0165,-4.82,-8.039,-2.6033,-0.1051,-2.2536,1.6622,0.1504,1.3684,1.6068,2.6607,2.9887,1.9262,1.7756,-9.3724,-5.699,-5.3827,-6.3459,-1.4656,-2.2921,0.8158,1.0979,0.3761,2.528,3.6472,5.0353,3.6571,4.2389,-11.0594,-9.7681
-9.6961,-5.3707,-8.5901,-3.0299,-0.4536,-2.5889,1.5385,0.1474,1.4831,1.6617,2.9304,3.3737,1.7934,1.5185,-9.8261,-6.2914,-5.8565,-6.57,-1.7206,-2.737,0.4301,0.9523,0.3453,2.5526,3.8194,5.292,3.8645,4.7615,-11.6953,-10.144
-10.288,-5.8447,-9.0658,-3.4043,-0.7663,-2.8783,1.4757,0.1664,1.6266,1.7493,3.212,3.7691,1.697,1.3163,-10.1722,-6.7786,-6.2536,-6.7309,-1.9308,-3.1025,0.0999,0.8372,0.3273,2.587,3.925,5.4629,4.0274,5.2138,-12.2307,-10.4261
-10.736,-6.1844,-9.4143,-3.6737,-0.9988,-3.08,1.4828,0.2102,1.7886,1.8704,3.4851,4.1446,1.6567,1.1995,-10.3869,-7.1034,-6.5284,-6.7981,-2.0547,-3.3415,-0.1251,0.7822,0.345,2.6229,3.9478,5.5158,4.1299,5.5407,-12.623,-10.5877
-10.9872,-6.3343,-9.5866,-3.7838,-1.1039,-3.151,1.5645,0.2792,1.9533,2.0196,3.7228,4.4616,1.6911,1.1991,-10.4461,-7.2141,-6.6379,-6.7399,-2.0509,-3.4073,-0.1962,0.8182,0.4245,2.6529,3.8773,5.42,4.1577,5.686,-12.8355,-10.6043
-11.0019,-6.2512,-9.5448,-3.6891,-1.0412,-3.0553,1.7202,0.3717,2.102,2.186,3.8968,4.6798,1.814,1.3393,-10.3308,-7.0743,-6.5491,-6.5312,-1.8868,-3.2637,-0.0759,0.9706,0.5888,2.6726,3.7114,5.1551,4.1012,5.6054,-12.8431,-10.4591
-10.7633,-5.9137,-9.2699,-3.3633,-0.7861,-2.7715,1.9425,0.484,2.2165,2.3552,3.9829,4.7655,2.0296,1.6322,-10.0338,-6.6716,-6.2461,-6.1617,-1.5477,-2.894,0.2537,1.252,0.852,2.6809,3.4591,4.7195,3.959,5.2798,-12.638,-10.1487
-10.2842,-5.3302,-8.7684,-2.8072,-0.3384,-2.3004,2.217,0.61,2.2829,2.5106,3.9653,4.698,2.3298,2.0712,-9.5672,-6.0242,-5.737,-5.6416,-1.0418,-2.3077,0.7837,1.6578,1.214,2.6791,3.1412,4.1365,3.7397,4.7238,-12.2335,-9.6871
-9.6093,-4.5418,-8.0761,-2.0534,0.274,-1.6691,2.5218,0.7419,2.2936,2.6361,3.8394,4.4746,2.6927,2.6296,-8.9656,-5.1816,-5.0558,-5.004,-0.4026,-1.5427,1.4774,2.164,1.6577,2.6707,2.7898,3.4551,3.4631,3.9883,-11.6659,-9.1074
-8.8126,-3.6199,-7.256,-1.1652,0.9965,-0.9303,2.8294,0.8704,2.249,2.7182,3.6133,4.1124,3.0843,3.2614,-8.2859,-4.2203,-4.262,-4.3028,0.3142,-0.6628,2.273,2.729,2.1493,2.6594,2.444,2.7454,3.1587,3.1545,-10.9932,-8.4601
-7.9892,-2.6582,-6.393,-0.2294,1.7547,-0.1572,3.1091,0.9858,2.1585,2.749,3.3081,3.6468,3.4624,3.9067,-7.6012,-3.235,-3.4342,-3.606,1.0379,0.2499,3.0915,3.2983,2.6424,2.6488,2.1441,2.088,2.8615,2.3223,-10.2895,-7.8083
-7.2426,-1.7607,-5.5828,0.655,2.4648,0.5666,3.3324,1.0802,2.0399,2.7282,2.9574,3.1283,3.7829,4.4994,-6.9915,-2.3251,-2.6604,-2.9864,1.6925,1.1059,3.8481,3.8127,3.0837,2.6411,1.9255,1.561,2.6074,1.5944,-9.6363,-7.2199
-6.6698,-1.0255,-4.9181,1.3918,3.0471,1.1591,3.4777,1.1486,1.9178,2.6642,2.6047,2.6165,4.0077,4.9777,-6.5312,-1.5804,-2.0251,-2.5097,2.2086,1.8214,4.4645,4.217,3.4213,2.6369,1.8117,1.2267,2.4271,1.0615,-9.1115,-6.7582
-6.3456,-0.5305,-4.4745,1.9025,3.4384,1.5533,3.5346,1.1908,1.8208,2.5739,2.3,2.1735,4.111,5.2936,-6.277,-1.0676,-1.5964,-2.2242,2.5343,2.3302,4.8807,4.4689,3.6133,2.6358,1.8112,1.122,2.3425,0.7895,-8.7774,-6.4725
-6.3105,-0.3207,-4.2991,2.1393,3.6024,1.708,3.5057,1.2114,1.7766,2.48,2.0921,1.8558,4.0847,5.4208,-6.258,-0.8211,-1.4157,-2.1531,2.6437,2.5933,5.0642,4.5461,3.6359,2.6368,1.9163,1.2525,2.3633,0.8117,-8.6713,-6.3895
-6.5631,-0.4016,-4.4027,2.0923,3.5349,1.615,3.4061,1.2184,1.8058,2.4064,2.02,1.7056,3.9395,5.3589,-6.4707,-0.8384,-1.4907,-2.2908,2.5412,2.6042,5.0136,4.4505,3.4886,2.6389,2.106,1.5935,2.4866,1.125,-8.7991,-6.5085
-7.0596,-0.7388,-4.7583,1.7905,3.2636,1.3002,3.2591,1.2212,1.9168,2.373,2.1042,1.7435,3.7027,5.1332,-6.8783,-1.0827,-1.7953,-2.6045,2.2601,2.3891,4.7581,4.2081,3.1954,2.6422,2.3503,2.0942,2.698,1.6914,-9.134,-6.8012
-7.7207,-1.265,-5.3058,1.2959,2.8422,0.8189,3.0921,1.2281,2.1022,2.3911,2.3399,1.9626,3.4126,4.7889,-7.4172,-1.4903,-2.2732,-3.0395,1.8566,2.0008,4.3511,3.8643,2.8024,2.6479,2.6157,2.6871,2.9737,2.4427,-9.6196,-7.2152
-8.4446,-1.8918,-5.961,0.6913,2.3397,0.2464,2.9308,1.2439,2.3391,2.46,2.6955,2.3284,3.1109,4.3834,-8.0075,-1.9827,-2.8474,-3.5275,1.3999,1.5094,3.8606,3.4761,2.3694,2.6583,2.8703,3.2971,3.284,3.2898,-10.1781,-7.6821
-9.1246,-2.5255,-6.6287,0.0665,1.8271,-0.3348,2.7962,1.2699,2.5926,2.5668,3.1168,2.7835,2.8358,3.9756,-8.5655,-2.4805,-3.4333,-3.9973,0.9593,0.9904,3.3573,3.1015,1.96,2.6757,3.0874,3.8526,3.5964,4.133,-10.7214,-8.1279
-9.6666,-3.0814,-7.2175,-0.4969,1.3662,-0.848,2.7018,1.3034,2.823,2.6895,3.5361,3.2569,2.6165,3.6175,-9.0164,-2.9157,-3.9522,-4.3849,0.5935,0.5121,2.9041,2.7897,1.6301,2.7001,3.2483,4.2943,3.8793,4.8754,-11.1647,-8.4844
-10.0036,-3.4969,-7.6535,-0.9368,1.0006,-1.2336,2.6532,1.3394,2.993,2.8016,3.8855,3.6774,2.4699,3.3474,-9.3046,-3.2413,-4.3435,-4.6424,0.341,0.1263,2.5471,2.5734,1.4183,2.7281,3.3432,4.582,4.1043,5.4353,-11.4399,-8.6983
-10.1044,-3.7388,-7.8906,-1.2184,0.7519,-1.4564,2.6496,1.3717,3.0751,2.8787,4.1094,3.9865,2.4008,3.1855,-9.4002,-3.4361,-4.5737,-4.744,0.2167,-0.1379,2.3108,2.4645,1.3404,2.7534,3.3708,4.6981,4.2499,5.7568,-11.506,-8.7382
-9.9754,-3.805,-7.9157,-1.3359,0.6213,-1.5084,2.6853,1.3947,3.0566,2.9033,4.175,4.1489,2.4029,3.135,-9.3009,-3.504,-4.6381,-4.6876,0.2126,-0.2756,2.1976,2.4555,1.3887,2.7683,3.3381,4.6487,4.3034,5.8172,-11.3547,-8.5968
-9.6546,-3.7203,-7.7472,-1.3094,0.5937,-1.407,2.7518,1.4041,2.9406,2.8688,4.077,4.1577,2.4626,3.1837,-9.0295,-3.4692,-4.5583,-4.4924,0.3032,-0.3029,2.191,2.5237,1.5365,2.7662,3.2584,4.46,4.2636,5.6291,-11.0091,-8.289
-9.2012,-3.5286,-7.4285,-1.1779,0.6444,-1.1891,2.8397,1.3974,2.7446,2.7801,3.837,4.0337,2.5615,3.3082,-8.6287,-3.3682,-4.3742,-4.1932,0.4529,-0.2513,2.2616,2.6382,1.7455,2.744,3.1498,4.1736,4.1405,5.2368,-10.517,-7.8473
-8.6831,-3.2825,-7.0181,-0.9899,0.7448,-0.9032,2.938,1.3739,2.4961,2.6508,3.4969,3.8185,2.6798,3.4789,-8.1522,-3.2417,-4.1342,-3.8329,0.624,-0.1601,2.3739,2.766,1.9734,2.702,3.0325,3.8387,3.9547,4.7075,-9.9392,-7.3146
-8.1651,-3.0343,-6.5778,-0.795,0.8672,-0.6001,3.0344,1.3341,2.226,2.4999,3.1086,3.5642,2.7976,3.6636,-7.6571,-3.1273,-3.8863,-3.4556,0.7825,-0.0698,2.4923,2.8778,2.1821,2.6432,2.9256,3.504,3.733,4.1193,-9.3382,-6.737
-7.7003,-2.8283,-6.1632,-0.6364,0.9863,-0.3252,3.1148,1.2796,1.9627,2.3455,2.7223,3.3206,2.8965,3.8308,-7.1959,-3.0554,-3.6713,-3.1003,0.9021,-0.0165,2.5853,2.9505,2.3422,2.5716,2.8444,3.2105,3.5042,3.5477,-8.7679,-6.1582
-7.3255,-2.6963,-5.8158,-0.5462,1.0813,-0.1121,3.1639,1.2127,1.7278,2.2013,2.3766,3.125,2.9602,3.9525,-6.8113,-3.0467,-3.5182,-2.7979,0.9645,-0.0283,2.6274,2.9688,2.4356,2.4903,2.7972,2.9851,3.2928,3.0538,-8.2667,-5.6156
-7.0595,-2.6556,-5.5589,-0.5424,1.1355,0.0201,3.1667,1.1366,1.5333,2.0739,2.0924,2.9948,2.9756,4.0066,-6.532,-3.112,-3.4436,-2.5694,0.9601,-0.1232,2.6008,2.9249,2.4564,2.4007,2.7845,2.8384,3.1152,2.6768,-7.8556,-5.1376
-6.904,-2.7086,-5.3974,-0.6289,1.1375,0.0676,3.1118,1.0555,1.3824,1.9625,1.8719,2.9262,2.9341,3.979,-6.3706,-3.2531,-3.4521,-2.4256,0.8859,-0.3079,2.4953,2.818,2.4089,2.3035,2.7984,2.7646,2.9769,2.4306,-7.5388,-4.7423
-6.8469,-2.8456,-5.3205,-0.7967,1.0825,0.0393,2.9938,0.9742,1.2707,1.8609,1.7026,2.8971,2.8324,3.8651,-6.322,-3.4635,-3.5377,-2.3678,0.7454,-0.578,2.309,2.6533,2.3047,2.1989,2.8248,2.7451,2.8728,2.3051,-7.307,-4.4373
-6.8658,-3.0472,-5.3077,-1.0272,0.9722,-0.0474,2.8156,0.8978,1.1898,1.761,1.5642,2.875,2.6733,3.6712,-6.3656,-3.7302,-3.6866,-2.3891,0.5478,-0.9187,2.0488,2.4409,2.1591,2.0877,2.8459,2.7538,2.7899,2.2721,-7.1418,-4.2199
-6.933,-3.2886,-5.3352,-1.296,0.8155,-0.1713,2.5891,0.8311,1.1307,1.6559,1.4366,2.827,2.4656,3.4127,-6.4687,-4.0348,-3.8803,-2.476,0.3071,-1.3067,1.7293,2.1943,1.9881,1.9711,2.8443,2.7634,2.7116,2.2938,-7.0212,-4.0793
-7.0203,-3.5443,-5.3827,-1.577,0.6267,-0.3119,2.3342,0.7777,1.0865,1.5427,1.3066,2.7297,2.2233,3.1122,-6.5931,-4.3552,-4.098,-2.6111,0.0416,-1.714,1.3712,1.9294,1.806,1.8505,2.807,2.7515,2.6228,2.3323,-6.9239,-3.9993
-7.1033,-3.7913,-5.4371,-1.8472,0.423,-0.4531,2.0754,0.7401,1.0545,1.4241,1.1719,2.5763,1.9642,2.7955,-6.7032,-4.6688,-4.3202,-2.7752,-0.228,-2.1125,0.9981,1.6626,1.6242,1.727,2.7281,2.7057,2.5142,2.3585,-6.8341,-3.962
-7.1649,-4.0126,-5.4942,-2.0893,0.2221,-0.5839,1.8376,0.7186,1.0359,1.3078,1.0413,2.3793,1.7076,2.488,-6.7727,-4.9546,-4.5298,-2.9501,-0.4801,-2.4777,0.6335,1.4096,1.4509,1.6015,2.6109,2.6256,2.3849,2.3587,-6.7439,-3.9512
-7.1958,-4.1978,-5.5559,-2.2933,0.039,-0.6991,1.6415,0.7117,1.0342,1.2054,0.932,2.1688,1.4724,2.211,-6.7891,-5.1959,-4.7131,-3.1203,-0.6954,-2.7924,0.2976,1.1837,1.2915,1.4754,2.4678,2.5225,2.2426,2.3355,-6.6538,-3.9546
-7.1941,-4.3426,-5.6266,-2.4557,-0.115,-0.7974,1.5012,0.7156,1.0529,1.1296,0.8634,1.9851,1.2749,1.9797,-6.7544,-5.381,-4.8601,-3.2736,-0.859,-3.0477,0.0059,0.9954,1.1498,1.3517,2.3175,2.4165,2.1017,2.306,-6.5711,-3.9647
-7.1624,-4.447,-5.7087,-2.5783,-0.2332,-0.8796,1.4219,0.724,1.093,1.0906,0.8508,1.8689,1.1273,1.8025,-6.6824,-5.5043,-4.9635,-3.4013,-0.9622,-3.2425,-0.2318,0.8515,1.0287,1.2366,2.1817,2.3311,1.9794,2.2946,-6.5058,-3.9785
-7.1048,-4.5135,-5.7995,-2.6657,-0.3128,-0.9465,1.4013,0.7289,1.1509,1.0936,0.9,1.8516,1.0362,1.6805,-6.5919,-5.5655,-5.0188,-3.4984,-1.0043,-3.3816,-0.411,0.7546,0.931,1.1391,2.0809,2.2871,1.8917,2.3248,-6.4659,-3.9957
-7.025,-4.5447,-5.8896,-2.723,-0.355,-0.9983,1.4303,0.7212,1.2176,1.1367,1.0047,1.9461,1.0025,1.609,-6.5014,-5.5691,-5.025,-3.5635,-0.9926,-3.4731,-0.5322,0.7033,0.8589,1.0705,2.0302,2.2973,1.8488,2.4113,-6.4544,-4.0181
-6.9249,-4.5432,-5.9651,-2.7548,-0.364,-1.034,1.4949,0.6927,1.2801,1.2103,1.1471,2.1436,1.0211,1.5782,-6.424,-5.5237,-4.9853,-3.5995,-0.9415,-3.5263,-0.6005,0.6922,0.814,1.0412,2.0362,2.3632,1.8535,2.5544,-6.4671,-4.0481
-6.8049,-4.5111,-6.0096,-2.7639,-0.346,-1.0519,1.5781,0.638,1.3234,1.2989,1.3016,2.4148,1.0814,1.5755,-6.3649,-5.4407,-4.9073,-3.6135,-0.87,-3.5489,-0.6242,0.712,0.7958,1.0569,2.0957,2.4733,1.8997,2.7387,-6.4933,-4.089
-6.6647,-4.4499,-6.0082,-2.7514,-0.3081,-1.0494,1.6617,0.5556,1.3334,1.3842,1.4401,2.7162,1.1696,1.5881,-6.3215,-5.3331,-4.8027,-3.6154,-0.7978,-3.5468,-0.6138,0.7512,0.8013,1.1165,2.1964,2.6055,1.9745,2.9357,-6.5175,-4.1434
-6.5036,-4.3605,-5.9504,-2.7162,-0.2557,-1.0234,1.7296,0.4499,1.3007,1.449,1.5382,2.9996,1.271,1.6056,-6.2847,-5.2126,-4.6849,-3.6163,-0.7409,-3.5223,-0.5797,0.7982,0.8252,1.211,2.3188,2.7317,2.0609,3.1099,-6.5221,-4.2128
-6.3197,-4.243,-5.8309,-2.6553,-0.1909,-0.9701,1.7704,0.3312,1.2227,1.4815,1.5797,3.2217,1.3729,1.6227,-6.2419,-5.0871,-4.5663,-3.6245,-0.7078,-3.4749,-0.5299,0.8441,0.861,1.3257,2.44,2.8228,2.1418,3.2267,-6.4904,-4.2969
-6.1106,-4.0959,-5.6504,-2.5646,-0.1114,-0.885,1.7811,0.2147,1.105,1.4781,1.5604,3.3527,1.4673,1.6402,-6.1795,-4.9584,-4.4551,-3.6431,-0.6971,-3.4012,-0.4682,0.8848,0.903,1.4439,2.5378,2.8551,2.2032,3.2597,-6.4088,-4.3926
-5.8721,-3.9173,-5.4142,-2.4398,-0.0116,-0.7641,1.7676,0.1183,0.9605,1.4436,1.4878,3.381,1.5519,1.6645,-6.0861,-4.8226,-4.3536,-3.6682,-0.6977,-3.2965,-0.3934,0.9217,0.9477,1.5501,2.5941,2.8137,2.2365,3.1958,-6.2694,-4.4945
-5.5999,-3.7056,-5.1317,-2.2788,0.1147,-0.6055,1.744,0.0589,0.807,1.3903,1.3791,3.3139,1.6295,1.7049,-5.9542,-4.6715,-4.2573,-3.69,-0.6917,-3.157,-0.3013,0.9612,0.9943,1.633,2.597,2.694,2.2386,3.0367,-6.0713,-4.5954
-5.2909,-3.4612,-4.8152,-2.0831,0.2712,-0.4118,1.7282,0.0485,0.6636,1.3339,1.2563,3.1744,1.7057,1.7704,-5.7813,-4.4957,-4.1563,-3.6947,-0.6592,-2.9811,-0.1867,1.012,1.045,1.6864,2.5422,2.501,2.2108,2.7967,-5.8205,-4.6878
-4.9451,-3.188,-4.4786,-1.8587,0.4569,-0.1904,1.7374,0.0911,0.5463,1.2895,1.1401,2.9943,1.7858,1.8654,-5.5693,-4.2882,-4.0379,-3.6685,-0.5832,-2.7706,-0.0461,1.0824,1.1034,1.7085,2.4324,2.2467,2.1569,2.4983,-5.5295,-4.7644
-4.5669,-2.8939,-4.1365,-1.6157,0.6647,0.0462,1.7825,0.1804,0.464,1.2666,1.0446,2.8062,1.8728,1.9886,-5.3225,-4.0469,-3.8896,-3.6009,-0.4542,-2.5309,0.1197,1.1773,1.1741,1.7007,2.2772,1.9472,2.0808,2.1663,-5.214,-4.8193
-4.1657,-2.5895,-3.8027,-1.3664,0.8828,0.2824,1.8644,0.3003,0.4167,1.2673,0.9734,2.6362,1.9648,2.1313,-5.0469,-3.7758,-3.7021,-3.4874,-0.2718,-2.2707,0.3043,1.2969,1.2605,1.666,2.0915,1.6202,1.9862,1.8229,-4.8904,-4.8481
-3.7548,-2.2871,-3.4891,-1.1233,1.0967,0.5019,1.9726,0.4272,0.3948,1.2844,0.9197,2.4977,2.0551,2.2797,-4.7492,-3.4848,-3.4719,-3.3312,-0.0453,-2.0005,0.4967,1.4361,1.3637,1.6078,1.893,1.2831,1.8761,1.4839,-4.5727,-4.8485
-3.3504,-1.999,-3.2047,-0.8971,1.2914,0.6903,2.0861,0.5342,0.3805,1.3034,0.8678,2.3901,2.1338,2.417,-4.437,-3.1884,-3.2035,-3.1431,0.2077,-1.7321,0.6817,1.5847,1.4813,1.5293,1.7006,0.9517,1.7538,1.1578,-4.2717,-4.8212
-2.9695,-1.7362,-2.9554,-0.6957,1.454,0.8368,2.1775,0.5962,0.3524,1.3058,0.7982,2.3007,2.1907,2.5271,-4.1206,-2.9041,-2.9092,-2.9403,0.4643,-1.4781,0.8432,1.7292,1.6063,1.4345,1.5311,0.6401,1.6238,0.8464,-3.9944,-4.7699
-2.6277,-1.5081,-2.7448,-0.5244,1.5745,0.9345,2.2191,0.5952,0.2897,1.2734,0.6933,2.2103,2.2179,2.5978,-3.8134,-2.6502,-2.6094,-2.7445,0.6991,-1.251,0.9659,1.8549,1.7281,1.3286,1.3973,0.3599,1.4919,0.5483,-3.7452,-4.7012
-2.3374,-1.322,-2.5749,-0.3874,1.6461,0.9807,2.1888,0.524,0.178,1.1929,0.5429,2.1005,2.213,2.623,-3.5318,-2.4433,-2.3287,-2.5778,0.8888,-1.0624,1.038,1.9483,1.8328,1.2194,1.3063,0.1208,1.3653,0.2628,-3.5267,-4.6246
-2.1059,-1.1834,-2.4464,-0.2886,1.6656,0.9757,2.0768,0.3882,0.0127,1.0593,0.3478,1.9597,2.1795,2.6038,-3.2936,-2.2957,-2.0928,-2.4596,1.0149,-0.9223,1.0535,1.9993,1.9061,1.1178,1.2588,-0.0696,1.2519,-0.0071,-3.3405,-4.5506
-1.9356,-1.0953,-2.3595,-0.2316,1.6331,0.9235,1.8882,0.2053,-0.1986,0.8783,0.1209,1.7875,2.1272,2.5478,-3.1152,-2.214,-1.9236,-2.4022,1.0674,-0.837,1.013,2.003,1.9352,1.0361,1.2502,-0.2051,1.1598,-0.2516,-3.1878,-4.4889
-1.8233,-1.0577,-2.313,-0.2183,1.5527,0.8316,1.6432,0.0009,-0.438,0.6654,-0.1155,1.5946,2.069,2.4675,-3.008,-2.1976,-1.8347,-2.409,1.0466,-0.8078,0.9249,1.9611,1.9122,0.9868,1.2723,-0.2809,1.0972,-0.4545,-3.0689,-4.446
-1.7616,-1.0666,-2.3038,-0.2476,1.4336,0.7111,1.3727,-0.1963,-0.6809,0.444,-0.3346,1.4003,2.019,2.3775,-2.975,-2.2385,-1.8284,-2.4734,0.9628,-0.8297,0.8043,1.8819,1.8366,0.9804,1.3165,-0.2934,1.0713,-0.595,-2.9828,-4.4235
-1.74,-1.113,-2.3254,-0.3135,1.2892,0.5755,1.1114,-0.3616,-0.902,0.2399,-0.5109,1.2277,1.9883,2.2918,-3.0095,-2.3214,-1.8948,-2.5801,0.8348,-0.8914,0.6713,1.7795,1.7164,1.0233,1.3757,-0.2404,1.088,-0.6521,-2.926,-4.4176
-1.7459,-1.1839,-2.3681,-0.4051,1.1361,0.439,0.8897,-0.4788,-1.0809,0.0766,-0.6258,1.0978,1.9836,2.2218,-3.0949,-2.4258,-2.0127,-2.7087,0.6869,-0.9767,0.548,1.6712,1.5679,1.1168,1.4464,-0.122,1.15,-0.6094,-2.8924,-4.4202
-1.7663,-1.2628,-2.4194,-0.5073,0.9909,0.3138,0.7266,-0.5435,-1.2065,-0.0291,-0.671,1.0261,2.0052,2.1744,-3.2075,-2.5284,-2.1535,-2.8374,0.5437,-1.0661,0.4542,1.575,1.4129,1.2558,1.5282,0.0576,1.256,-0.4598,-2.8726,-4.4209
-1.7885,-1.3332,-2.4657,-0.604,0.8674,0.208,0.6258,-0.563,-1.2787,-0.0708,-0.6491,1.0202,2.0477,2.1518,-3.3205,-2.6072,-2.287,-2.9472,0.4262,-1.1403,0.4045,1.5057,1.2746,1.4283,1.6219,0.2893,1.3994,-0.2089,-2.8549,-4.4103
-1.8018,-1.3808,-2.4941,-0.681,0.7741,0.1244,0.5758,-0.5531,-1.3067,-0.0529,-0.5719,1.0798,2.1012,2.152,-3.4089,-2.6451,-2.3869,-3.0243,0.3482,-1.183,0.4049,1.4718,1.1731,1.6157,1.7275,0.5567,1.5675,0.1238,-2.8265,-4.3811
-1.798,-1.3965,-2.4947,-0.7283,0.7128,0.0611,0.5536,-0.5339,-1.3061,0.0108,-0.4578,1.1981,2.1534,2.1701,-3.4534,-2.6332,-2.4356,-3.0601,0.3142,-1.1836,0.453,1.4745,1.1217,1.7938,1.8417,0.8375,1.7425,0.5064,-2.7754,-4.3283
-1.772,-1.3774,-2.4618,-0.7418,0.679,0.0134,0.5314,-0.5244,-1.2946,0.0999,-0.3283,1.3628,2.192,2.1993,-3.4428,-2.5726,-2.4269,-3.0506,0.3208,-1.1384,0.5388,1.5071,1.1248,1.9359,1.9567,1.1042,1.9033,0.8986,-2.6925,-4.2484
-1.7218,-1.3264,-2.3937,-0.7231,0.6641,-0.024,0.4839,-0.5385,-1.288,0.1915,-0.2058,1.5573,2.2071,2.2334,-3.3742,-2.4727,-2.365,-2.9942,0.3582,-1.0507,0.6483,1.5578,1.1774,2.0168,2.0604,1.3281,2.0287,1.2569,-2.5726,-4.1375
-1.6472,-1.2508,-2.2928,-0.6776,0.6579,-0.0547,0.3941,-0.5829,-1.2982,0.2636,-0.1108,1.7619,2.1925,2.2679,-3.2519,-2.3478,-2.2617,-2.8909,0.414,-0.9292,0.7669,1.6121,1.2669,2.0172,2.1384,1.4829,2.1001,1.5408,-2.4146,-3.991
-1.549,-1.1587,-2.1634,-0.6126,0.6514,-0.0797,0.2575,-0.6564,-1.3328,0.2993,-0.0612,1.9541,2.1476,2.3009,-3.0856,-2.2128,-2.1323,-2.7423,0.4765,-0.7859,0.8832,1.6568,1.3758,1.9292,2.1767,1.5491,2.1046,1.7178,-2.2207,-3.8046
-1.4272,-1.0575,-2.0119,-0.5354,0.6382,-0.0971,0.0818,-0.7512,-1.3955,0.2884,-0.0705,2.1111,2.0775,2.3339,-2.8878,-2.079,-1.9909,-2.5518,0.5365,-0.6339,0.9907,1.683,1.4862,1.7582,2.1648,1.517,2.0364,1.7672,-1.9954,-3.5766
-1.2814,-0.9516,-1.845,-0.4518,0.6163,-0.1031,-0.1161,-0.856,-1.4868,0.2291,-0.147,2.2107,1.9924,2.3709,-2.6724,-1.9522,-1.8479,-2.3261,0.5888,-0.4851,1.088,1.6879,1.5833,1.5239,2.0982,1.3879,1.8976,1.6817,-1.7443,-3.3098
-1.1112,-0.8428,-1.6694,-0.3657,0.5871,-0.0932,-0.3145,-0.9586,-1.6043,0.1273,-0.2929,2.2346,1.9058,2.417,-2.4518,-1.832,-1.7082,-2.0748,0.6322,-0.3488,1.1778,1.6748,1.6583,1.2561,1.9807,1.1742,1.6978,1.4672,-1.4737,-3.0122
-0.9182,-0.7313,-1.4916,-0.2795,0.5546,-0.0641,-0.4924,-1.0483,-1.7432,-0.0052,-0.5032,2.1707,1.8322,2.4764,-2.2356,-1.714,-1.5718,-1.8103,0.6684,-0.2307,1.2649,1.6523,1.71,0.9907,1.8232,0.8965,1.4516,1.1411,-1.1908,-2.6957
-0.7074,-0.6167,-1.318,-0.195,0.5239,-0.0142,-0.6328,-1.1178,-1.8952,-0.1532,-0.766,2.016,1.7843,2.5509,-2.0292,-1.5924,-1.4358,-1.5461,0.7014,-0.1326,1.354,1.6317,1.7438,0.7624,1.643,0.5815,1.1776,0.7302,-0.9047,-2.3743
-0.4876,-0.5002,-1.1544,-0.1138,0.4994,0.0548,-0.7251,-1.1638,-2.0496,-0.3013,-1.0629,1.7785,1.7708,2.6391,-1.8342,-1.4622,-1.2958,-1.2947,0.7364,-0.0526,1.4481,1.6248,1.7697,0.6001,1.4608,0.2584,0.8954,0.2681,-0.6257,-2.0606
-0.271,-0.3845,-1.007,-0.0383,0.4835,0.1379,-0.7652,-1.1869,-2.1937,-0.4361,-1.371,1.478,1.7955,2.736,-1.6488,-1.3216,-1.1485,-1.0661,0.7786,0.0136,1.5479,1.6413,1.7989,0.5225,1.2966,-0.0447,0.6241,-0.2086,-0.3656,-1.7644
-0.071,-0.2747,-0.8814,0.0283,0.4756,0.2274,-0.7561,-1.1907,-2.315,-0.5478,-1.6654,1.1441,1.8564,2.8342,-1.4693,-1.1726,-0.9926,-0.866,0.8323,0.0714,1.651,1.6865,1.8403,0.5358,1.1676,-0.3038,0.3811,-0.6629,-0.135,-1.4907
0.0999,-0.1774,-0.7824,0.0815,0.4722,0.3129,-0.706,-1.1805,-2.4026,-0.6308,-1.9225,0.8116,1.9465,2.9243,-1.2918,-1.0214,-0.8303,-0.6962,0.899,0.125,1.7522,1.7599,1.8983,0.6339,1.0845,-0.5015,0.1812,-1.0618,0.0587,-1.24
0.2321,-0.1002,-0.7136,0.1158,0.4679,0.3826,-0.6274,-1.1621,-2.4492,-0.6837,-2.1225,0.5152,2.0544,2.9972,-1.1142,-0.8774,-0.6681,-0.5556,0.9766,0.1762,1.8442,1.855,1.9709,0.7992,1.0511,-0.6289,0.0352,-1.3789,0.2126,-1.0104
0.3199,-0.0504,-0.6775,0.1257,0.4564,0.4246,-0.5355,-1.1406,-2.4522,-0.7084,-2.2517,0.2829,2.165,3.045,-0.9376,-0.7515,-0.5159,-0.4429,1.0585,0.2236,1.9188,1.9596,2.0501,1.0064,1.0636,-0.686,-0.0501,-1.5971,0.3279,-0.7996
0.3619,-0.0339,-0.6755,0.106,0.4325,0.4286,-0.4461,-1.1202,-2.4142,-0.7094,-2.3044,0.1313,2.2611,3.0625,-0.7675,-0.6541,-0.3865,-0.3578,1.1351,0.263,1.9686,2.0582,2.123,1.2254,1.1118,-0.6807,-0.0738,-1.71,0.4074,-0.6085
0.3607,-0.054,-0.708,0.0538,0.3925,0.3866,-0.3745,-1.1043,-2.3428,-0.6936,-2.2826,0.0649,2.3253,3.0473,-0.6136,-0.5929,-0.2925,-0.3033,1.1946,0.2882,1.9881,2.1345,2.1747,1.4263,1.1811,-0.6272,-0.0402,-1.7208,0.4539,-0.4427
0.3214,-0.11,-0.7745,-0.0305,0.3344,0.2947,-0.3335,-1.0958,-2.2497,-0.6686,-2.1952,0.0777,2.3432,3.0005,-0.488,-0.5714,-0.2436,-0.284,1.2265,0.2928,1.9753,2.1748,2.1915,1.5835,1.2553,-0.5421,0.0415,-1.6406,0.4684,-0.3118
0.2515,-0.1973,-0.8723,-0.1421,0.2579,0.1535,-0.3313,-1.0966,-2.148,-0.6411,-2.0557,0.1579,2.306,2.9258,-0.402,-0.5877,-0.2438,-0.3045,1.2233,0.2724,1.9315,2.1702,2.1641,1.6789,1.3197,-0.4406,0.1593,-1.4841,0.4507,-0.2268
0.1594,-0.3071,-0.9961,-0.2725,0.164,-0.0312,-0.3699,-1.1071,-2.0495,-0.6157,-1.8784,0.2934,2.2138,2.8293,-0.3634,-0.6347,-0.2895,-0.3662,1.1828,0.2251,1.8609,2.1182,2.0897,1.7045,1.3638,-0.3328,0.3014,-1.2654,0.4008,-0.1958
0.0535,-0.4286,-1.1382,-0.4104,0.0541,-0.2493,-0.4439,-1.1257,-1.9624,-0.5924,-1.6752,0.4768,2.0765,2.7186,-0.3739,-0.702,-0.3703,-0.4654,1.1082,0.1527,1.7692,2.0231,1.9718,1.663,1.3839,-0.221,0.4588,-0.9947,0.3207,-0.2212
-0.0589,-0.5507,-1.2889,-0.5445,-0.0696,-0.4866,-0.5408,-1.1485,-1.8896,-0.5668,-1.4529,0.7063,1.913,2.6021,-0.4286,-0.7782,-0.4718,-0.5935,1.0071,0.0599,1.6631,1.894,1.8196,1.5667,1.383,-0.0994,0.6273,-0.6761,0.2146,-0.2982
-0.1727,-0.6648,-1.4387,-0.6659,-0.2039,-0.7274,-0.6428,-1.1692,-1.828,-0.5301,-1.2129,0.9849,1.748,2.4877,-0.5174,-0.8549,-0.5802,-0.739,0.8888,-0.0471,1.5481,1.7426,1.6444,1.4351,1.3697,0.0431,0.8074,-0.309,0.0884,-0.4162
-0.2862,-0.7671,-1.5805,-0.7705,-0.344,-0.9563,-0.7298,-1.1805,-1.7705,-0.4714,-0.9528,1.3158,1.6069,2.3819,-0.6282,-0.9294,-0.6872,-0.8904,0.7615,-0.1625,1.4285,1.5808,1.4578,1.2915,1.3556,0.219,1.0026,0.1081,-0.0523,-0.5619
-0.4008,-0.8591,-1.7108,-0.8593,-0.4833,-1.1597,-0.7834,-1.1749,-1.707,-0.3798,-0.6684,1.6988,1.512,2.2898,-0.7492,-1.0052,-0.7914,-1.0393,0.63,-0.2817,1.3075,1.4184,1.2692,1.1596,1.352,0.437,1.217,0.5736,-0.2033,-0.7221
-0.5198,-0.9468,-1.8304,-0.938,-0.614,-1.3273,-0.7903,-1.1458,-1.6272,-0.2476,-0.357,2.1271,1.478,2.2144,-0.8716,-1.0911,-0.8987,-1.1814,0.4962,-0.4027,1.1879,1.2632,1.086,1.0601,1.3668,0.6983,1.4526,1.0785,-0.3629,-0.886
-0.6464,-1.0385,-1.9434,-1.0151,-0.7284,-1.4528,-0.7444,-1.089,-1.5225,-0.0716,-0.0191,2.587,1.5115,2.1583,-0.9898,-1.1978,-1.0179,-1.3156,0.36,-0.5248,1.0727,1.1206,0.9131,1.0079,1.4034,0.9939,1.7086,1.6052,-0.5308,-1.0458
-0.7812,-1.1417,-2.0552,-1.0995,-0.8207,-1.5345,-0.6484,-1.0033,-1.3876,0.1457,0.3402,3.0593,1.6099,2.1227,-1.1018,-1.3336,-1.1573,-1.4421,0.2218,-0.6483,0.9655,0.9944,0.7544,1.0092,1.4594,1.3055,1.9799,2.128,-0.7069,-1.1965
-0.9204,-1.2611,-2.1706,-1.1985,-0.8897,-1.5762,-0.513,-0.8917,-1.2217,0.3957,0.7109,3.5222,1.7626,2.108,-1.2086,-1.501,-1.3207,-1.56,0.0833,-0.7736,0.8693,0.8866,0.6121,1.0609,1.5275,1.6078,2.258,2.6162,-0.8883,-1.3348
-1.0564,-1.3976,-2.2921,-1.3171,-0.9403,-1.5874,-0.3566,-0.761,-1.0298,0.6638,1.078,3.953,1.9523,2.1115,-1.3123,-1.6958,-1.5064,-1.6667,-0.0527,-0.9006,0.7856,0.797,0.487,1.1504,1.5967,1.8725,2.5307,3.0383,-1.0682,-1.4577
-1.1786,-1.5487,-2.419,-1.4577,-0.9831,-1.5829,-0.2024,-0.622,-0.8228,0.9309,1.423,4.3306,2.1566,2.1265,-1.4153,-1.9077,-1.7078,-1.758,-0.1832,-1.0295,0.7124,0.722,0.3782,1.2572,1.6544,2.0729,2.7826,3.3657,-1.2359,-1.5621
-1.2765,-1.7091,-2.5478,-1.6199,-1.0329,-1.5812,-0.0761,-0.489,-0.6171,1.1741,1.7252,4.6361,2.3496,2.142,-1.5188,-2.1229,-1.9157,-1.8302,-0.3071,-1.1605,0.6442,0.6546,0.2824,1.3556,1.6879,2.1881,2.9957,3.5768,-1.3783,-1.6447
-1.342,-1.8719,-2.6728,-1.8,-1.1046,-1.6006,-0.0012,-0.3773,-0.4331,1.3699,1.9645,4.854,2.5053,2.1434,-1.6222,-2.3263,-2.1206,-1.8812,-0.4258,-1.2938,0.5728,0.5852,0.1943,1.4194,1.687,2.2061,3.1505,3.6599,-1.4843,-1.7028
-1.3717,-2.029,-2.7875,-1.9905,-1.2086,-1.6547,0.0052,-0.3015,-0.2916,1.4971,2.1246,4.9729,2.601,2.1162,-1.7232,-2.5042,-2.3132,-1.9121,-0.5416,-1.4275,0.4899,0.5041,0.108,1.4267,1.6457,2.1253,3.2291,3.6147,-1.5478,-1.7354
-1.3672,-2.1712,-2.8845,-2.1795,-1.3467,-1.7489,-0.0633,-0.2723,-0.2102,1.5413,2.1957,4.9876,2.6212,2.0501,-1.8184,-2.6449,-2.4853,-1.9263,-0.6559,-1.5566,0.3913,0.4054,0.0194,1.3655,1.5636,1.9557,3.2183,3.4533,-1.5703,-1.7441
-1.3346,-2.2881,-2.9572,-2.3513,-1.5104,-1.8779,-0.1995,-0.2943,-0.1991,1.4977,2.1762,4.9004,2.5614,1.9432,-1.9039,-2.7389,-2.628,-1.9285,-0.7667,-1.6717,0.2788,0.2899,-0.0719,1.238,1.4464,1.7173,3.1138,3.1996,-1.5611,-1.7333
-1.283,-2.369,-2.9999,-2.4881,-1.6815,-2.0268,-0.3838,-0.3654,-0.2583,1.3735,2.0742,4.7219,2.4298,1.8036,-1.9755,-2.7795,-2.7324,-1.9227,-0.867,-1.7591,0.1621,0.167,-0.1606,1.0608,1.3055,1.4383,2.9224,2.8868,-1.5344,-1.7098
-1.2233,-2.4048,-3.0088,-2.5727,-1.8357,-2.1737,-0.5868,-0.476,-0.3774,1.1869,1.906,4.4713,2.2475,1.6491,-2.0293,-2.763,-2.7895,-1.9115,-0.9458,-1.8034,0.0567,0.0533,-0.2361,0.8626,1.1561,1.1513,2.6626,2.5537,-1.5056,-1.681
-1.1667,-2.3893,-2.9825,-2.5925,-1.9485,-2.2947,-0.7751,-0.6107,-0.5358,0.9654,1.6955,4.175,2.045,1.5033,-2.0614,-2.6897,-2.7927,-1.8954,-0.9906,-1.7912,-0.0192,-0.0308,-0.2843,0.6779,1.0146,0.8896,2.363,2.2403,-1.4872,-1.6537
-1.1232,-2.3218,-2.9234,-2.5417,-2.0001,-2.3684,-0.9172,-0.7496,-0.7059,0.7413,1.4715,3.8642,1.8575,1.3913,-2.0685,-2.5646,-2.7399,-1.874,-0.9911,-1.715,-0.0492,-0.0667,-0.2915,0.5388,0.8962,0.6821,2.0575,1.9822,-1.4859,-1.6326
-1.0997,-2.2074,-2.8375,-2.4233,-1.9796,-2.38,-0.9885,-0.8717,-0.8578,0.5471,1.2642,3.5709,1.7184,1.3332,-2.0491,-2.3973,-2.6357,-1.8473,-0.9432,-1.5754,-0.0234,-0.0425,-0.2486,0.4683,0.812,0.55,1.7807,1.8069,-1.5017,-1.6197
-1.099,-2.0569,-2.7339,-2.2496,-1.8866,-2.3239,-0.9757,-0.9578,-0.9632,0.4103,1.1014,3.3245,1.6528,1.3409,-2.0055,-2.2023,-2.4915,-1.8171,-0.851,-1.3832,0.0595,0.0426,-0.1551,0.4748,0.7678,0.5038,1.5614,1.7295,-1.529,-1.6152
-1.1194,-1.886,-2.6243,-2.04,-1.7312,-2.2043,-0.8779,-0.9934,-1.0008,0.3495,1.0044,3.1479,1.6736,1.4144,-1.9454,-1.9973,-2.3257,-1.788,-0.7278,-1.1579,0.1909,0.1778,-0.0209,0.5524,0.7642,0.5427,1.419,1.7521,-1.5588,-1.619
-1.1552,-1.7129,-2.521,-1.8191,-1.5319,-2.0338,-0.7061,-0.9711,-0.9588,0.3726,0.985,3.0556,1.78,1.5435,-1.8822,-1.8023,-2.1608,-1.767,-0.5938,-0.9253,0.354,0.3421,0.135,0.684,0.7971,0.656,1.3612,1.865,-1.5825,-1.6318
-1.1997,-1.5564,-2.4354,-1.6126,-1.3122,-1.8313,-0.4806,-0.8912,-0.8368,0.4767,1.045,3.0536,1.9594,1.7095,-1.8334,-1.637,-2.0202,-1.762,-0.4726,-0.7135,0.527,0.5098,0.2887,0.8484,0.8601,0.8268,1.3849,2.0492,-1.594,-1.6558
-1.2472,-1.4333,-2.3769,-1.4435,-1.097,-1.6189,-0.2264,-0.761,-0.6443,0.6502,1.177,3.1395,2.191,1.8903,-1.8174,-1.5183,-1.9241,-1.7798,-0.387,-0.5487,0.6872,0.6556,0.417,1.0259,0.9464,1.0358,1.4786,2.2819,-1.592,-1.6948
-1.2959,-1.3563,-2.3517,-1.3292,-0.909,-1.419,0.0312,-0.5935,-0.3993,0.8758,1.3676,3.3038,2.4506,2.0646,-1.8496,-1.4583,-1.8863,-1.8246,-0.3546,-0.4508,0.8153,0.76,0.5024,1.2034,1.0504,1.2657,1.6259,2.5407,-1.5806,-1.7528
-1.3483,-1.333,-2.3634,-1.2791,-0.7661,-1.2515,0.2704,-0.4054,-0.1243,1.1333,1.6004,3.531,2.7149,2.216,-1.9387,-1.4622,-1.912,-1.8962,-0.3845,-0.4302,0.8978,0.813,0.5365,1.3755,1.1686,1.5035,1.8092,2.8074,-1.5683,-1.8327
-1.4099,-1.3645,-2.4118,-1.2941,-0.6791,-1.1326,0.4754,-0.2151,0.1563,1.402,1.8586,3.8014,2.9641,2.3347,-2.0843,-1.5277,-1.9969,-1.9903,-0.4753,-0.4857,0.9293,0.8144,0.521,1.543,1.2986,1.741,2.0121,3.0693,-1.5659,-1.9355
-1.4866,-1.4453,-2.4936,-1.3667,-0.6511,-1.0732,0.6375,-0.0412,0.4194,1.6626,2.1266,4.0931,3.1837,2.4183,-2.2757,-1.6448,-2.1279,-2.0983,-0.6155,-0.6051,0.9125,0.7738,0.466,1.71,1.4383,1.9736,2.2208,3.3191,-1.5833,-2.0591
-1.5821,-1.5645,-2.6021,-1.4834,-0.6781,-1.079,0.7543,0.0998,0.6453,1.8976,2.3901,4.385,3.3647,2.4696,-2.4927,-1.7968,-2.2854,-2.2079,-0.7846,-0.7669,0.8571,0.7071,0.3873,1.88,1.5841,2.1985,2.4244,3.5528,-1.6259,-2.1973
-1.6952,-1.7067,-2.7266,-1.6267,-0.7497,-1.1499,0.829,0.1951,0.8192,2.0928,2.6364,4.6596,3.5039,2.4952,-2.7072,-1.9623,-2.446,-2.3049,-0.9565,-0.944,0.778,0.6341,0.3038,2.0542,1.7306,2.4124,2.6142,3.7676,-1.6926,-2.3397
-1.8188,-1.8539,-2.8528,-1.7782,-0.8502,-1.2807,0.8685,0.2377,0.9326,2.2382,2.8552,4.9049,3.6031,2.5033,-2.8868,-2.1168,-2.5861,-2.3741,-1.1037,-1.1073,0.6925,0.5746,0.2349,2.2315,1.8707,2.611,2.7837,3.9603,-1.7747,-2.4722
-1.9397,-1.9874,-2.964,-1.9201,-0.9604,-1.4613,0.8827,0.2277,0.9839,2.3291,3.0399,5.1162,3.6689,2.5021,-2.9991,-2.2359,-2.6851,-2.4011,-1.2012,-1.2305,0.6181,0.5466,0.1986,2.4089,1.9967,2.7894,2.9278,4.1275,-1.8572,-2.5775
-2.041,-2.0901,-3.0431,-2.0378,-1.0601,-1.6781,0.8829,0.1722,0.9778,2.3671,3.189,5.2956,3.7119,2.4987,-3.0166,-2.2984,-2.7276,-2.3749,-1.2305,-1.2932,0.5703,0.5637,0.2098,2.5843,2.1019,2.9435,3.044,4.266,-1.922,-2.6385
-2.106,-2.1491,-3.0754,-2.121,-1.1305,-1.9153,0.881,0.0835,0.9246,2.3599,3.3064,5.451,3.7452,2.4994,-2.9216,-2.2899,-2.7057,-2.2895,-1.1821,-1.2838,0.5601,0.6341,0.2789,2.7573,2.182,3.0721,3.1321,4.3748,-1.9521,-2.6414
-2.1231,-2.1584,-3.0525,-2.1654,-1.1592,-2.1587,0.8867,-0.0239,0.8379,2.3189,3.4003,5.5934,3.7812,2.5081,-2.71,-2.2059,-2.62,-2.1453,-1.0568,-1.2011,0.5923,0.759,0.4096,2.9295,2.2363,3.1773,3.1953,4.4559,-1.936,-2.5796
-2.0902,-2.1205,-2.9753,-2.1736,-1.1425,-2.3981,0.9061,-0.137,0.7318,2.2576,3.4812,5.734,3.8293,2.5264,-2.3937,-2.0532,-2.48,-1.9503,-0.866,-1.0546,0.6644,0.9323,0.5971,3.1035,2.2683,3.2647,3.2397,4.5148,-1.8713,-2.4566
-2.0161,-2.0466,-2.8553,-2.155,-1.0873,-2.6287,0.9402,-0.2466,0.6191,2.1883,3.5589,5.8812,3.8933,2.5534,-2.0002,-1.8498,-2.3022,-1.7191,-0.6295,-0.863,0.7672,1.1406,0.8273,3.2811,2.2846,3.3415,3.2733,4.5597,-1.7659,-2.2865
-1.9185,-1.9544,-2.7123,-2.1234,-1.0097,-2.8514,0.9857,-0.3487,0.5096,2.1209,3.6401,6.0387,3.9708,2.5861,-1.5685,-1.6212,-2.1076,-1.471,-0.3723,-0.6503,0.8858,1.3659,1.0788,3.462,2.2941,3.4156,3.3045,4.6003,-1.6364,-2.0921
