FP1,F3,F7,FC3,C3,C5,P3,P7,PO7,PO3,O1,Oz,Pz,CPz,FP2,Fz,F4,F8,FC4,FCz,Cz,C4,C6,P4,P8,PO8,PO4,O2,(corr) HEOG,(corr) VEOG
-0.3817,-0.7056,-0.3394,-0.9708,-1.053,-0.7197,-0.8618,-0.5887,-0.449,-0.968,-0.5378,-0.1975,-1.3237,-1.1396,-0.7256,-1.0256,-0.8225,-0.3207,-1.0365,-1.1529,-1.3662,-1.0868,-0.9666,-1.12,-0.6869,-0.495,-1.1485,-0.5026,-0.1862,1.1545
-0.3822,-0.7203,-0.3663,-0.9263,-0.9863,-0.6647,-0.8307,-0.5195,-0.4014,-0.9384,-0.5442,-0.1475,-1.3128,-1.1073,-0.7263,-1.0489,-0.8039,-0.3342,-1.0405,-1.1492,-1.3607,-1.0993,-0.9521,-1.1581,-0.7445,-0.5835,-1.242,-0.569,-0.1342,1.0774
-0.3601,-0.7391,-0.3953,-0.8791,-0.897,-0.5992,-0.7693,-0.4364,-0.3465,-0.8809,-0.5406,-0.1084,-1.2554,-1.0483,-0.7117,-1.0673,-0.7734,-0.3294,-1.0282,-1.1304,-1.3288,-1.0911,-0.9322,-1.1653,-0.7857,-0.6487,-1.3056,-0.6306,-0.0888,0.9997
-0.3217,-0.7632,-0.4261,-0.8383,-0.7988,-0.5339,-0.6878,-0.3495,-0.2915,-0.8011,-0.5274,-0.0841,-1.1594,-0.9691,-0.6851,-1.0818,-0.7321,-0.3068,-1,-1.099,-1.276,-1.061,-0.9066,-1.1402,-0.8059,-0.6804,-1.3353,-0.6787,-0.0538,0.9257
-0.2798,-0.7964,-0.4613,-0.814,-0.7072,-0.4807,-0.5993,-0.2694,-0.2434,-0.7079,-0.5069,-0.0764,-1.0387,-0.8804,-0.657,-1.0979,-0.688,-0.2758,-0.9633,-1.0622,-1.213,-1.0151,-0.8813,-1.088,-0.8048,-0.6729,-1.3318,-0.7058,-0.0298,0.8604
-0.2504,-0.8436,-0.5052,-0.8154,-0.6373,-0.4501,-0.5173,-0.2065,-0.2089,-0.6125,-0.483,-0.0843,-0.911,-0.7955,-0.6425,-1.1249,-0.6547,-0.2526,-0.9317,-1.031,-1.1537,-0.9662,-0.8676,-1.0194,-0.7863,-0.626,-1.2997,-0.7072,-0.0149,0.8098
-0.2482,-0.9098,-0.5614,-0.8489,-0.6007,-0.4491,-0.4534,-0.1688,-0.1931,-0.5265,-0.4606,-0.1043,-0.7945,-0.7276,-0.6572,-1.1728,-0.648,-0.2557,-0.9214,-1.0174,-1.1122,-0.9304,-0.8795,-0.9485,-0.7576,-0.5454,-1.2464,-0.6819,-0.0051,0.7802
-0.2815,-0.9975,-0.6316,-0.9162,-0.6037,-0.4796,-0.4151,-0.1613,-0.1994,-0.4605,-0.4441,-0.1308,-0.704,-0.6872,-0.7122,-1.2492,-0.6814,-0.3008,-0.9469,-1.0312,-1.0993,-0.923,-0.9291,-0.8894,-0.7265,-0.4415,-1.1798,-0.6334,0.0039,0.7771
-0.3504,-1.1049,-0.7134,-1.0141,-0.6459,-0.5379,-0.4054,-0.1851,-0.2284,-0.4222,-0.4363,-0.1572,-0.6487,-0.68,-0.8101,-1.3561,-0.7614,-0.3959,-1.0161,-1.0773,-1.1199,-0.9536,-1.0227,-0.8531,-0.7,-0.3269,-1.107,-0.5679,0.015,0.8041
-0.446,-1.2251,-0.8007,-1.1343,-0.7216,-0.6161,-0.4236,-0.2377,-0.2782,-0.415,-0.4377,-0.1773,-0.6315,-0.7063,-0.9441,-1.4882,-0.8851,-0.5387,-1.1281,-1.1545,-1.1721,-1.024,-1.1585,-0.8451,-0.6819,-0.2138,-1.0331,-0.494,0.0289,0.8615
-0.5535,-1.3476,-0.8853,-1.2654,-0.8213,-0.7042,-0.4663,-0.3136,-0.3442,-0.4381,-0.4468,-0.1865,-0.6498,-0.7623,-1.0994,-1.6342,-1.0403,-0.7165,-1.273,-1.2569,-1.249,-1.1275,-1.3262,-0.8648,-0.6728,-0.1119,-0.9614,-0.421,0.0438,0.9465
-0.6568,-1.4608,-0.96,-1.396,-0.9349,-0.7932,-0.5303,-0.4057,-0.4197,-0.4871,-0.4603,-0.1838,-0.6982,-0.8422,-1.2577,-1.7805,-1.2095,-0.9093,-1.4344,-1.3759,-1.3412,-1.2518,-1.5092,-0.907,-0.67,-0.0269,-0.8951,-0.3584,0.0556,1.0529
-0.744,-1.5564,-1.0211,-1.5176,-1.0546,-0.8779,-0.6136,-0.5065,-0.4963,-0.5556,-0.4754,-0.1724,-0.7718,-0.9413,-1.4027,-1.9155,-1.3749,-1.0954,-1.5949,-1.5042,-1.4404,-1.383,-1.6889,-0.9645,-0.6687,0.0396,-0.838,-0.3154,0.0592,1.1725
-0.8113,-1.6326,-1.0713,-1.6275,-1.1775,-0.9586,-0.7164,-0.6094,-0.5649,-0.6371,-0.4906,-0.161,-0.8682,-1.0581,-1.5247,-2.0345,-1.5236,-1.2565,-1.7406,-1.6392,-1.5434,-1.5105,-1.8488,-1.0314,-0.6632,0.0889,-0.7959,-0.301,0.0492,1.2964
-0.8649,-1.6964,-1.1198,-1.7299,-1.3062,-1.0412,-0.8405,-0.7086,-0.6162,-0.7267,-0.5068,-0.1623,-0.9892,-1.1958,-1.6243,-2.1423,-1.6522,-1.3836,-1.8664,-1.7837,-1.6526,-1.6303,-1.979,-1.1051,-0.6488,0.1237,-0.7764,-0.324,0.0211,1.4166
-0.9199,-1.7628,-1.1817,-1.8354,-1.4472,-1.1356,-0.9879,-0.7997,-0.6408,-0.8216,-0.5272,-0.1914,-1.1399,-1.3605,-1.7125,-2.2526,-1.7675,-1.4786,-1.9764,-1.946,-1.7763,-1.7464,-2.0778,-1.1873,-0.6227,0.1467,-0.7876,-0.3917,-0.0273,1.5271
-0.9961,-1.8514,-1.2745,-1.958,-1.6084,-1.2525,-1.1579,-0.8787,-0.6304,-0.9201,-0.5556,-0.2621,-1.3256,-1.5586,-1.8083,-2.3845,-1.8847,-1.5541,-2.0834,-2.1365,-1.9249,-1.8691,-2.1522,-1.2827,-0.5848,0.1591,-0.8359,-0.5084,-0.0951,1.6248
-1.1133,-1.9809,-1.414,-2.1109,-1.7945,-1.3995,-1.3454,-0.9411,-0.5781,-1.0209,-0.5945,-0.3836,-1.548,-1.7922,-1.9332,-2.5572,-2.0223,-1.6293,-2.2037,-2.3636,-2.1066,-2.0106,-2.2146,-1.3964,-0.5384,0.1606,-0.9227,-0.674,-0.1774,1.7074
-1.2858,-2.1637,-1.6102,-2.3018,-2.0043,-1.578,-1.5393,-0.9817,-0.4804,-1.1207,-0.6444,-0.5564,-1.8015,-2.0559,-2.1054,-2.783,-2.196,-1.7242,-2.3516,-2.6289,-2.3228,-2.1799,-2.2786,-1.5303,-0.4889,0.1497,-1.0431,-0.8817,-0.2652,1.7725
-1.5181,-2.4004,-1.8631,-2.5288,-2.2277,-1.7809,-1.7223,-0.9945,-0.3376,-1.2136,-0.7021,-0.7711,-2.0708,-2.3337,-2.3333,-3.0627,-2.4131,-1.8532,-2.5337,-2.924,-2.5643,-2.3784,-2.3544,-1.6801,-0.443,0.1247,-1.1845,-1.1174,-0.3458,1.8153
-1.8025,-2.6782,-2.1617,-2.7791,-2.4456,-1.9921,-1.8724,-0.9735,-0.1564,-1.2908,-0.7618,-1.0075,-2.3303,-2.5994,-2.6113,-3.3828,-2.6684,-2.0203,-2.7451,-3.2289,-2.8103,-2.5959,-2.4448,-1.8333,-0.4073,0.0849,-1.3275,-1.3602,-0.4053,1.8276
-2.1187,-2.9716,-2.4834,-3.029,-2.6322,-2.1882,-1.9661,-0.9144,0.0502,-1.3414,-0.8163,-1.237,-2.5472,-2.8195,-2.9194,-3.7158,-2.9432,-2.2165,-2.9684,-3.5143,-3.0304,-2.8111,-2.543,-1.9699,-0.3859,0.0323,-1.4485,-1.5838,-0.4297,1.7993
-2.4355,-3.2448,-2.7966,-3.2471,-2.7584,-2.3418,-1.9823,-0.8161,0.262,-1.3549,-0.8587,-1.4264,-2.6854,-2.9575,-3.2246,-4.0244,-3.2077,-2.4204,-3.1753,-3.7444,-3.1885,-2.9934,-2.6335,-2.064,-0.3795,-0.0277,-1.5226,-1.7595,-0.4083,1.7204
-2.714,-3.4576,-3.0633,-3.3982,-2.796,-2.4252,-1.9068,-0.6833,0.4527,-1.3236,-0.8851,-1.5432,-2.712,-2.9801,-3.4861,-4.2664,-3.4251,-2.6013,-3.3305,-3.8822,-3.2484,-3.1071,-2.6935,-2.0884,-0.3845,-0.0857,-1.5271,-1.8602,-0.3353,1.5844
-2.9123,-3.5698,-3.2437,-3.4481,-2.7227,-2.4154,-1.7352,-0.5275,0.5917,-1.245,-0.8957,-1.5612,-2.6026,-2.8619,-3.6608,-4.4005,-3.5564,-2.7234,-3.3963,-3.8946,-3.1789,-3.1165,-2.696,-2.0182,-0.3931,-0.1296,-1.4445,-1.864,-0.2116,1.3908
-2.9898,-3.5472,-3.3008,-3.3689,-2.5249,-2.2967,-1.4747,-0.3673,0.6472,-1.124,-0.8956,-1.4652,-2.3456,-2.5893,-3.709,-4.392,-3.5659,-2.7511,-3.338,-3.7559,-2.9583,-2.9911,-2.6142,-1.8362,-0.3947,-0.1464,-1.2647,-1.7581,-0.0448,1.1466
-2.9123,-3.3656,-3.2051,-3.1426,-2.2,-2.0634,-1.1438,-0.2268,0.5909,-0.972,-0.8942,-1.254,-1.9448,-2.1629,-3.5993,-4.2163,-3.4256,-2.6537,-3.1293,-3.4514,-2.5772,-2.7102,-2.4255,-1.5355,-0.3773,-0.125,-0.9866,-1.5411,0.1519,0.8665
-2.6556,-3.0141,-2.9384,-2.7639,-1.7568,-1.7205,-0.7694,-0.1318,0.4028,-0.8057,-0.9034,-0.9405,-1.4187,-1.597,-3.3122,-3.8624,-3.1189,-2.4101,-2.7556,-2.979,-2.0396,-2.2669,-2.1158,-1.122,-0.3301,-0.0595,-0.6189,-1.2242,0.3617,0.5718
-2.2085,-2.4955,-2.4952,-2.24,-1.2137,-1.2818,-0.3822,-0.1051,0.076,-0.6444,-0.9348,-0.5496,-0.7984,-0.9177,-2.8418,-3.3335,-2.6421,-2.0117,-2.2173,-2.3494,-1.3618,-1.6695,-1.6827,-0.6139,-0.2456,0.0494,-0.1802,-0.8299,0.5674,0.2872
-1.5745,-1.8252,-1.8838,-1.5893,-0.5949,-0.7676,-0.012,-0.1611,-0.3807,-0.5057,-0.997,-0.1143,-0.1222,-0.1588,-2.1963,-2.6456,-2.0042,-1.4637,-1.529,-1.5835,-0.5699,-0.9405,-1.136,-0.0392,-0.1218,0.1927,0.3028,-0.3897,0.7542,0.0365
-0.772,-1.0283,-1.1239,-0.8373,0.0733,-0.2004,0.3177,-0.3023,-0.9416,-0.4029,-1.0932,0.33,0.5699,0.6437,-1.3965,-1.8249,-1.2253,-0.7839,-0.7167,-0.7097,0.3048,-0.113,-0.4967,0.5679,0.0367,0.3542,0.7976,0.0608,0.9118,-0.1628
0.1666,-0.1367,-0.2457,-0.0134,0.7662,0.3982,0.5927,-0.5171,-1.567,-0.3423,-1.2198,0.75,1.2415,1.4559,-0.4736,-0.9043,-0.3335,0.0004,0.1859,0.2404,1.2301,0.7739,0.2066,1.1726,0.2186,0.513,1.2701,0.4862,1.035,-0.3043
1.1973,0.8139,0.7134,0.8522,1.4629,1.0092,0.81,-0.7821,-2.2079,-0.3227,-1.3667,1.1188,1.8632,2.2497,0.5337,0.0791,0.6369,0.8557,1.141,1.2343,2.1748,1.6798,0.9409,1.7427,0.407,0.6463,1.6889,0.8559,1.124,-0.3934
2.268,1.7852,1.7106,1.7294,2.1455,1.6166,0.9756,-1.0656,-2.8128,-0.3364,-1.5193,1.4182,2.4147,3.0026,1.5814,1.0862,1.6475,1.7448,2.1095,2.2391,3.1095,2.5663,1.6725,2.2521,0.5817,0.7337,2.0287,1.1469,1.1825,-0.4456
3.3227,2.7382,2.7005,2.588,2.7976,2.2057,1.1019,-1.3334,-3.3343,-0.3716,-1.6609,1.6392,2.8832,3.697,2.6228,2.0765,2.6565,2.6298,3.0521,3.2212,4.0057,3.3986,2.3687,2.6818,0.7223,0.7605,2.2735,1.3462,1.2167,-0.4809
4.3068,3.6342,3.638,3.3974,3.4025,2.7614,1.2033,-1.5546,-3.7351,-0.415,-1.7753,1.7814,3.2624,4.3173,3.6098,3.0088,3.6204,3.4724,3.9309,4.1457,4.8345,4.1463,2.9999,3.02,0.8128,0.7207,2.4172,1.4507,1.2336,-0.5177
5.1708,4.4366,4.481,4.127,3.9419,3.2678,1.2922,-1.7063,-3.9911,-0.4539,-1.8493,1.8519,3.5505,4.8493,4.4961,3.8437,4.496,4.236,4.7109,4.9774,5.5671,4.7839,3.541,3.2617,0.8441,0.6181,2.4635,1.4669,1.24,-0.5676
5.8751,5.1132,5.1936,4.7475,4.397,3.7076,1.3766,-1.7755,-4.0926,-0.4779,-1.8736,1.8634,3.7489,5.2797,5.2398,4.5455,5.243,4.8872,5.3615,5.6834,6.1765,5.292,3.9721,3.4076,0.8167,0.4667,2.4243,1.4092,1.2416,-0.6337
6.3918,5.6391,5.7486,5.2334,4.7497,4.0639,1.459,-1.7602,-4.0436,-0.4788,-1.8427,1.832,3.8614,5.597,5.8068,5.0852,5.8281,5.398,5.8592,6.2356,6.6398,5.6573,4.2795,3.4638,0.7403,0.2881,2.3169,1.2974,1.2423,-0.7106
6.7062,5.9976,6.1291,5.5649,4.9852,4.3222,1.5363,-1.6674,-3.859,-0.4516,-1.7555,1.7748,3.8937,5.7929,6.1738,5.443,6.2268,5.7483,6.1884,6.6137,6.9411,5.8737,4.4558,3.4401,0.6319,0.1085,2.1616,1.1542,1.2438,-0.7862
6.817,6.1816,6.3296,5.7303,5.094,4.4726,1.6016,-1.5118,-3.5618,-0.3943,-1.6146,1.7075,3.8528,5.8638,6.3304,5.6093,6.4264,5.9276,6.3424,6.8061,7.0729,5.9416,4.5002,3.349,0.5122,-0.0461,1.978,1.0016,1.2462,-0.8455
6.7351,6.1931,6.3549,5.7271,5.0735,4.5109,1.6463,-1.3124,-3.18,-0.3083,-1.4266,1.6427,3.7469,5.8115,6.2798,5.5846,6.4263,5.936,6.3238,6.8116,7.0365,5.868,4.4186,3.2045,0.4019,-0.1537,1.784,0.8583,1.2483,-0.8732
6.4825,6.0422,6.2186,5.563,4.9287,4.4399,1.6625,-1.0898,-2.7432,-0.1983,-1.2013,1.5889,3.5851,5.6443,6.0382,5.3794,6.2377,5.7846,6.1441,6.6383,6.8425,5.6663,4.2239,3.0216,0.3181,-0.1996,1.594,0.7373,1.2479,-0.8569
6.0894,5.7457,5.9408,5.255,4.6728,4.2695,1.6456,-0.8638,-2.2797,-0.0714,-0.9511,1.551,3.3779,5.3767,5.6332,5.0126,5.8833,5.4943,5.8228,6.3033,6.5099,5.3553,3.9358,2.8155,0.2719,-0.178,1.4191,0.6455,1.2432,-0.7895
5.5911,5.3266,5.5474,4.8289,4.3259,4.0159,1.5956,-0.6506,-1.8145,0.0646,-0.6895,1.5313,3.1382,5.0296,5.1008,4.5103,5.394,5.0941,5.3869,5.8321,6.0649,4.9589,3.5797,2.6012,0.2679,-0.0917,1.2679,0.5845,1.2326,-0.6701
5.0247,4.8121,5.0674,4.3169,3.914,3.6998,1.5182,-0.4617,-1.3676,0.2026,-0.4296,1.531,2.8813,4.6287,4.4819,3.9043,4.8072,4.6181,4.8684,5.2561,5.5389,4.5046,3.1852,2.3937,0.3045,0.0499,1.1477,0.5523,1.216,-0.5046
4.4256,4.233,4.5327,3.755,3.4664,3.345,1.4234,-0.3029,-0.9534,0.3377,-0.182,1.5507,2.625,4.2035,3.8182,3.2297,4.1628,4.1026,4.3032,4.6118,4.9669,4.0221,2.7833,2.2069,0.3768,0.2331,1.0653,0.5459,1.1941,-0.3052
3.8253,3.6223,3.9753,3.1799,3.0138,2.9756,1.3247,-0.1749,-0.5812,0.4688,0.0457,1.5912,2.3894,3.7845,3.1495,2.5236,3.501,3.5819,3.7276,3.9378,4.3854,3.542,2.4042,2.0543,0.4779,0.4439,1.0278,0.5633,1.1685,-0.0885
3.2497,3.0138,3.4262,2.6262,2.5855,2.6147,1.2361,-0.0746,-0.2559,0.5976,0.2499,1.6532,2.1951,3.4019,2.5108,1.8229,2.8593,3.0865,3.1771,3.273,3.8302,3.0937,2.0744,1.9475,0.6024,0.6702,1.0427,0.6043,1.1409,0.126
2.7196,2.4396,2.9135,2.1239,2.2074,2.2825,1.1706,0.004,0.0211,0.7289,0.4304,1.7362,2.0614,3.0829,1.9312,1.1625,2.2706,2.6407,2.6831,2.6543,3.3342,2.7043,1.8153,1.8964,0.7465,0.9039,1.1172,0.6716,1.1132,0.3188
2.2502,1.9286,2.4611,1.6959,1.9005,1.9961,1.1388,0.0685,0.2514,0.8681,0.5897,1.8387,2.0044,2.8499,1.4329,0.5733,1.7616,2.262,2.2716,2.1137,2.9259,2.3965,1.6409,1.9081,0.9092,1.1411,1.2569,0.769,1.0869,0.4725
1.8523,1.5029,2.0875,1.357,1.679,1.7686,1.1479,0.1268,0.4389,1.0202,0.7318,1.9571,2.034,2.7189,1.0298,0.0796,1.3509,1.9604,1.9606,1.6766,2.6263,2.1868,1.5574,1.9858,1.09,1.3809,1.464,0.9005,1.0635,0.5746
1.532,1.1756,1.8041,1.1131,1.5489,1.6079,1.2013,0.1867,0.5894,1.1875,0.8604,2.0859,2.152,2.6967,0.7275,-0.3035,1.0477,1.7386,1.7587,1.3584,2.447,2.0832,1.5619,2.128,1.2878,1.6236,1.7353,1.0673,1.0446,0.6192
1.2901,0.9488,1.6137,0.9604,1.5074,1.516,1.2978,0.2535,0.709,1.3684,0.9773,2.2172,2.3508,2.7802,0.5224,-0.5722,0.8508,1.5922,1.6641,1.1631,2.3883,2.0839,1.643,2.3271,1.4982,1.8679,2.0597,1.2662,1.0318,0.6069
1.1216,0.8136,1.5091,0.8863,1.5427,1.488,1.4314,0.3296,0.8035,1.5562,1.0815,2.3409,2.6136,2.9556,0.4017,-0.7352,0.7484,1.5108,1.6644,1.0824,2.4385,2.1768,1.7821,2.5698,1.7129,2.1095,2.4173,1.4876,1.026,0.5437
1.0159,0.7519,1.4737,0.872,1.6357,1.5127,1.5915,0.4135,0.8769,1.7403,1.1691,2.4458,2.9158,3.2003,0.3456,-0.8122,0.7206,1.4798,1.7385,1.097,2.5761,2.3408,1.9564,2.8376,1.9202,2.3401,2.7805,1.7155,1.0271,0.4388
0.958,0.7398,1.4833,0.8951,1.7629,1.5744,1.7637,0.4998,0.9312,1.9079,1.2342,2.5202,3.2286,3.4855,0.3301,-0.8302,0.742,1.4827,1.86,1.1798,2.7727,2.5489,2.1421,3.109,2.1063,2.5486,3.1167,1.9296,1.0338,0.3021
0.9307,0.7524,1.5112,0.9341,1.9005,1.6554,1.932,0.5807,0.9667,2.0461,1.2701,2.5544,3.5233,3.7808,0.3309,-0.8183,0.7863,1.5031,2.0012,1.3,2.9973,2.7723,2.3183,3.3628,2.2585,2.7223,3.3933,2.1078,1.0431,0.1423
0.9166,0.7679,1.5323,0.9714,2.0284,1.7393,2.0813,0.6476,0.9831,2.145,1.272,2.5423,3.7756,4.0582,0.3267,-0.8031,0.8304,1.5272,2.1376,1.4284,3.2212,2.9849,2.4695,3.5807,2.3677,2.8498,3.5827,2.231,1.0506,-0.0339
0.9012,0.7706,1.5285,0.996,2.1332,1.8135,2.2002,0.6934,0.9805,2.2,1.2382,2.4831,3.9692,4.2968,0.3028,-0.8038,0.8578,1.5444,2.251,1.5415,3.4219,3.1669,2.5877,3.7503,2.4302,2.9234,3.6684,2.2867,1.052,-0.2218
0.8739,0.7535,1.4915,1.005,2.21,1.8713,2.2831,0.7147,0.9615,2.2132,1.1723,2.3829,4.0985,4.4856,0.2523,-0.8294,0.8608,1.5491,2.3322,1.6252,3.586,3.3079,2.6723,3.8672,2.4488,2.9415,3.6484,2.2729,1.0432,-0.4184
0.8297,0.7184,1.4234,1.0025,2.2627,1.9121,2.3322,0.7129,0.9314,2.194,1.0842,2.255,4.1692,4.6247,0.1757,-0.8788,0.8405,1.5398,2.381,1.6767,3.7103,3.4082,2.7297,3.9357,2.4322,2.9095,3.5366,2.199,1.0219,-0.6216
0.7686,0.6747,1.335,0.9987,2.3027,1.9408,2.3572,0.6949,0.8987,2.1578,0.9887,2.1182,4.197,4.7246,0.0799,-0.9414,0.8058,1.5191,2.4054,1.7034,3.8024,3.4777,2.771,3.9682,2.3939,2.8398,3.3609,2.0847,0.9888,-0.8313
0.6939,0.6367,1.2419,1.0063,2.3457,1.966,2.3735,0.6714,0.8738,2.1229,0.9037,1.9937,4.2045,4.8037,-0.0247,-1.0007,0.7702,1.4917,2.4187,1.721,3.8774,3.5332,2.8096,3.9825,2.3493,2.7498,3.158,1.9558,0.9474,-1.0493
0.6109,0.6199,1.1596,1.0377,2.408,1.9973,2.3985,0.6546,0.8666,2.1069,0.8461,1.9006,4.2168,4.8831,-0.1276,-1.0389,0.7477,1.4633,2.4361,1.7488,3.9549,3.5942,2.8578,3.9987,2.313,2.6589,2.9665,1.8385,0.9038,-1.2797
0.5255,0.637,1.0994,1.1023,2.5034,2.0432,2.4484,0.6557,0.8837,2.1231,0.8279,1.8517,4.2563,4.983,-0.2207,-1.0406,0.7499,1.4386,2.4718,1.8058,4.0548,3.6789,2.9253,4.0358,2.2961,2.5849,2.82,1.7532,0.8655,-1.5289
0.4433,0.6954,1.0663,1.2047,2.6405,2.1095,2.5347,0.6825,0.9271,2.1774,0.8531,1.8498,4.3393,5.1182,-0.3003,-0.9957,0.7842,1.4216,2.5367,1.9063,4.1932,3.8011,3.0179,4.1082,2.305,2.541,2.7413,1.7101,0.8393,-1.8048
0.3695,0.7964,1.0582,1.3455,2.8223,2.1991,2.6625,0.7377,0.9932,2.2681,0.9165,1.8881,4.4735,5.2972,-0.3664,-0.9,0.8539,1.4147,2.6387,2.0589,4.3814,3.9687,3.1382,4.2244,2.3415,2.5337,2.74,1.7081,0.8299,-2.1153
0.3092,0.9367,1.0686,1.5223,3.047,2.3124,2.8307,0.8193,1.0735,2.3867,1.0049,1.9517,4.6584,5.5221,-0.421,-0.7546,0.9594,1.4201,2.7825,2.2665,4.6246,4.1847,3.2871,4.3865,2.4038,2.563,2.8131,1.7365,0.8383,-2.467
0.2667,1.1097,1.089,1.7319,3.3093,2.4482,3.0336,0.9208,1.1568,2.5209,1.1008,2.0227,4.8875,5.7904,-0.4662,-0.5635,1.0996,1.4403,2.9708,2.527,4.9229,4.4477,3.4654,4.5914,2.4889,2.6235,2.9489,1.7801,0.8617,-2.8633
0.2444,1.308,1.1118,1.9708,3.6022,2.6041,3.2628,1.0331,1.2314,2.6584,1.1867,2.0859,5.1508,6.0965,-0.5024,-0.3325,1.2728,1.4783,3.2041,2.8352,5.2719,4.7536,3.6739,4.8325,2.5943,2.7069,3.1314,1.8251,0.8936,-3.3032
0.2423,1.5244,1.1328,2.2358,3.918,2.7762,3.5096,1.1461,1.2879,2.7895,1.25,2.1329,5.4378,6.4344,-0.5282,-0.0684,1.4765,1.5373,3.4809,3.1837,5.6643,5.0967,3.913,5.1011,2.7191,2.8053,3.3459,1.8646,0.925,-3.7797
0.2576,1.7527,1.1515,2.5234,4.2487,2.96,3.7664,1.2507,1.3208,2.9092,1.2853,2.1648,5.7394,6.7976,-0.5398,0.2217,1.7078,1.62,3.7969,3.5641,6.0908,5.4703,4.1818,5.3883,2.8641,2.9128,3.5818,1.9005,0.9465,-4.2804
0.286,1.9883,1.1715,2.8296,4.587,3.1501,4.0274,1.3401,1.3295,3.0177,1.2954,2.1908,6.049,7.1807,-0.5323,0.5315,1.9632,1.728,4.1455,3.9683,6.5412,5.8675,4.477,5.6859,3.0306,3.027,3.8335,1.9428,0.9506,-4.7887
0.3239,2.229,1.1998,3.1501,4.9268,3.3417,4.2886,1.4113,1.3177,3.1183,1.289,2.2249,6.3624,7.5788,-0.4999,0.8561,2.2393,1.8621,4.5187,4.3891,7.0062,6.2812,4.793,5.9872,3.2186,3.1482,4.0987,2.0049,0.9338,-5.2865
0.3699,2.4755,1.2452,3.4813,5.2644,3.5317,4.5471,1.4653,1.292,3.2158,1.2773,2.2801,6.6771,7.9878,-0.4368,1.1938,2.5337,2.0224,4.9084,4.8217,7.4781,6.705,5.1223,6.287,3.4251,3.2775,4.3756,2.0986,0.8975,-5.7575
0.4271,2.7318,1.317,3.8213,5.5988,3.7197,4.8004,1.5065,1.2602,3.3141,1.2699,2.3636,6.9909,8.4041,-0.3372,1.546,2.8459,2.2083,5.3081,5.2641,7.952,7.1332,5.457,6.5811,3.6427,3.4143,4.6603,2.2283,0.8483,-6.1905
0.502,3.0051,1.4229,4.1701,5.9319,3.9087,5.0461,1.5413,1.2285,3.4139,1.2717,2.4731,7.3015,8.8238,-0.1965,1.9177,3.1769,2.419,5.7131,5.7168,8.4253,7.5608,5.7899,6.8657,3.8598,3.5538,4.9444,2.3886,0.7971,-6.5819
0.6038,3.3037,1.5678,4.5299,6.2675,4.1039,5.2808,1.5766,1.1998,3.5126,1.2812,2.5972,7.6045,9.2425,-0.0119,2.3147,3.5287,2.6528,6.1212,6.1816,8.897,7.9835,6.1158,7.1366,4.0612,3.6859,5.2148,2.5633,0.7569,-6.9361
0.7416,3.6348,1.7527,4.903,6.6094,4.3116,5.5003,1.6176,1.173,3.6037,1.2908,2.7169,7.8937,9.6542,0.2163,2.742,3.9027,2.9062,6.5307,6.66,9.3661,8.3967,6.4309,7.3881,4.2301,3.7952,5.4547,2.7285,0.7407,-7.2634
0.9215,4.0016,1.9741,5.2894,6.9585,4.5365,5.6994,1.6667,1.1434,3.6786,1.2881,2.8095,8.1603,10.0502,0.4844,3.2,4.2978,3.1742,6.9396,7.1504,9.829,8.7945,6.732,7.6123,4.3506,3.8626,5.6451,2.8567,0.758,-7.5763
1.1451,4.4013,2.2254,5.6857,7.312,4.7803,5.8718,1.7228,1.1038,3.7272,1.2585,2.8535,8.3935,10.4193,0.7854,3.6835,4.7094,3.4497,7.3429,7.6464,10.2786,9.169,7.0154,7.7998,4.4099,3.8684,5.7681,2.9217,0.8129,-7.8853
1.4089,4.8254,2.4981,6.0849,7.6624,5.0406,6.0111,1.782,1.0465,3.7407,1.1879,2.8314,8.5818,10.7487,1.11,4.1819,5.1293,3.7251,7.7339,8.1374,10.7039,9.5113,7.276,7.9403,4.4005,3.7965,5.8091,2.9027,0.9023,-8.1953
1.7055,5.2622,2.784,6.4785,7.9998,5.312,6.1124,1.839,0.9657,3.7127,1.0657,2.7322,8.7153,11.0264,1.4492,4.6818,5.5482,3.9945,8.105,8.611,11.0933,9.813,7.5089,8.0253,4.3222,3.6377,5.7606,2.7876,1.0166,-8.5054
2.0248,5.6996,3.077,6.8595,8.3144,5.5873,6.1731,1.8883,0.8593,3.6411,0.8871,2.553,8.7885,11.245,1.7956,5.1713,5.9582,4.2554,8.4506,9.0565,11.4373,10.0695,7.7104,8.0507,4.183,3.3938,5.6236,2.5749,1.1415,-8.8105
2.3561,6.1273,3.3732,7.2244,8.5991,5.8589,6.1945,1.9264,0.7303,3.5291,0.6554,2.2987,8.802,11.4031,2.1444,5.6424,6.3546,4.5084,8.769,9.4676,11.7319,10.2811,7.8795,8.0186,3.9982,3.078,5.4091,2.274,1.2609,-9.1039
2.6878,6.5375,3.6698,7.5728,8.8503,6.1193,6.182,1.9521,0.5873,3.3849,0.3834,1.9826,8.7627,11.5063,2.4913,6.0909,6.7352,4.7554,9.0611,9.8426,11.9789,10.4527,8.0179,7.9377,3.789,2.7154,5.137,1.9052,1.3603,-9.3793
3.0067,6.9219,3.9621,7.9051,9.0662,6.3609,6.1441,1.9675,0.4442,3.2221,0.0934,1.6271,8.6829,11.5643,2.8293,6.514,7.0977,4.9957,9.3281,10.1815,12.1838,10.5907,8.1279,7.822,3.5792,2.3393,4.835,1.4988,1.4294,-9.6312
3.2972,7.2703,4.2409,8.2191,9.2459,6.5751,6.0917,1.9768,0.3189,3.0581,-0.1837,1.2632,8.5777,11.5883,3.1461,6.9065,7.4358,5.2232,9.5677,10.4826,12.3518,10.6998,8.2106,7.6884,3.3918,1.9873,4.5355,1.0925,1.4639,-9.8538
3.5411,7.5692,4.4918,8.5081,9.3875,6.7527,6.0369,1.9863,0.2305,2.9135,-0.4118,0.9287,8.4631,11.5878,3.4225,7.2575,7.7378,5.4247,9.7723,10.7397,12.4852,10.7811,8.2647,7.5537,3.2457,1.6963,4.2722,0.7283,1.4648,-10.04
3.7197,7.8035,4.6964,8.7616,9.4885,6.8851,5.9912,2.0023,0.1968,2.8094,-0.555,0.6648,8.3542,11.5703,3.6355,7.5518,7.9872,5.5825,9.9306,10.9434,12.5836,10.8322,8.2875,7.4328,3.1535,1.4968,4.076,0.4478,1.4373,-10.1825
3.8172,7.9603,4.8367,8.9679,9.5477,6.9666,5.965,2.0301,0.2302,2.7649,-0.5842,0.5093,8.2637,11.5415,3.7634,7.7734,8.1676,5.6785,10.0316,11.0841,12.645,10.8499,8.2771,7.3377,3.1204,1.4089,3.9704,0.2855,1.3875,-10.2754
3.8247,8.0337,4.8998,9.1182,9.5672,6.9959,5.9657,2.0721,0.3354,2.7939,-0.4828,0.4897,8.2022,11.5076,3.7929,7.911,8.2686,5.7004,10.0694,11.1575,12.6701,10.8345,8.2346,7.2771,3.1443,1.4396,3.9683,0.2635,1.3211,-10.3171
3.7445,8.0277,4.8825,9.2094,9.5533,6.9782,5.9974,2.1274,0.5074,2.9025,-0.2515,0.6174,8.1773,11.4769,3.7244,7.9633,8.2899,5.6463,10.0475,11.168,12.665,10.7925,8.1671,7.2565,3.2171,1.5815,4.0696,0.3871,1.2413,-10.3124
3.5905,7.9576,4.793,9.2467,9.5176,6.9244,6.0597,2.1917,0.7316,3.0873,0.0914,0.8848,8.1939,11.4598,3.5747,7.9413,8.2438,5.5267,9.9799,11.1309,12.6419,10.7373,8.0867,7.2789,3.3264,1.815,4.2613,0.644,1.1497,-10.2723
3.3883,7.8475,4.6503,9.2426,9.4749,6.8503,6.1491,2.2588,0.9863,3.3363,0.5127,1.2659,8.2545,11.4683,3.374,7.8677,8.1532,5.3639,9.8893,11.0697,12.6188,10.688,8.0103,7.3451,3.4581,2.1116,4.5206,1.006,1.0468,-10.2127
3.1703,7.7264,4.481,9.2149,9.4412,6.7742,6.2598,2.3223,1.2463,3.6308,0.971,1.7218,8.3592,11.5133,3.1609,7.7724,8.0475,5.1881,9.8031,11.0124,12.6154,10.6653,7.9559,7.4539,3.599,2.4392,4.8191,1.4345,0.9339,-10.1513
2.9702,7.6223,4.3139,9.1832,9.4315,6.7142,6.3857,2.378,1.4881,3.9487,1.4239,2.2078,8.506,11.6029,2.9745,7.687,7.9567,5.031,9.7478,10.985,12.6496,10.687,7.9401,7.6027,3.7386,2.7669,5.129,1.8871,0.8135,-10.1051
2.8163,7.5571,4.175,9.1647,9.4562,6.6847,6.5218,2.4247,1.6932,4.268,1.835,2.6804,8.6903,11.7396,2.8476,7.638,7.9053,4.9203,9.7438,11.0064,12.7331,10.764,7.974,7.7863,3.8702,3.0693,5.4264,2.324,0.6898,-10.0873
2.7264,7.5428,4.0825,9.1711,9.5196,6.6946,6.6645,2.4646,1.8509,4.5689,2.1785,3.1037,8.9047,11.9191,2.8002,7.6421,7.9076,4.8732,9.8006,11.0841,12.8681,10.897,8.0616,7.9965,3.9905,3.3284,5.6947,2.7127,0.5683,-10.1064
2.7043,7.5793,4.0437,9.2057,9.618,6.7447,6.8103,2.5016,1.9586,4.8354,2.4409,3.4525,9.1374,12.1287,2.8362,7.7018,7.9648,4.8936,9.9147,11.2118,13.0453,11.0755,8.1968,8.2213,4.0987,3.5348,5.9234,3.031,0.4543,-10.1638
2.7397,7.6547,4.0537,9.2625,9.7393,6.8272,6.9544,2.5399,2.0204,5.0554,2.6198,3.7126,9.3717,12.3478,2.9436,7.8055,8.0647,4.9711,10.0689,11.3698,13.2442,11.2782,8.3644,8.4444,4.1942,3.6857,6.1069,3.2663,0.3521,-10.2543
2.8107,7.7474,4.0966,9.3275,9.8642,6.9274,7.0884,2.5815,2.045,5.22,2.7211,3.8801,9.5863,12.5496,3.0967,7.9294,8.1838,5.0834,10.2349,11.5282,13.4355,11.4761,8.5409,8.6459,4.2748,3.7831,6.2412,3.4153,0.264,-10.3659
2.8887,7.831,4.1494,9.3814,9.9689,7.0252,7.2001,2.6251,2.0425,5.3232,2.7551,3.9588,9.7571,12.704,3.2615,8.0422,8.2925,5.2009,10.3784,11.652,13.5858,11.6371,8.6982,8.8038,4.3361,3.8313,6.3222,3.4812,0.1902,-10.482
2.9438,7.8787,4.1862,9.4033,10.0291,7.0993,7.2742,2.666,2.0224,5.3616,2.7341,3.9582,9.8605,12.7825,3.4021,8.1116,8.3601,5.293,10.4651,11.7078,13.6635,11.7307,8.8078,8.898,4.3713,3.8355,6.3454,3.472,0.1289,-10.584
2.9502,7.868,4.184,9.3747,10.024,7.1308,7.295,2.6968,1.9925,5.335,2.6702,3.8917,9.8777,12.7631,3.4866,8.1102,8.3611,5.3336,10.4671,11.6697,13.6439,11.7332,8.8463,8.9131,4.3732,3.8009,6.307,3.3993,0.0778,-10.6538
2.8905,7.7842,4.1269,9.2826,9.94,7.1061,7.2499,2.7091,1.9577,5.2468,2.5746,3.7757,9.7975,12.6335,3.4922,8.0205,8.2793,5.3053,10.3677,11.5239,13.5134,11.631,8.799,8.8416,4.3364,3.7334,6.2064,3.277,0.0341,-10.677
2.7583,7.6221,4.0086,9.1212,9.7723,7.0184,7.1322,2.6954,1.9201,5.1047,2.4579,3.6277,9.6193,12.394,3.4078,7.8371,8.1091,5.2022,10.1636,11.27,13.2712,11.4227,8.6625,8.6857,4.2592,3.6398,6.0483,3.1207,-0.0043,-10.6438
2.558,7.3856,3.8338,8.8922,9.5256,6.8686,6.9434,2.6505,1.8796,4.9196,2.3297,3.4656,9.353,12.0572,3.2351,7.5667,7.8565,5.03,9.8647,10.9208,12.9283,11.1184,8.4453,8.457,4.1455,3.5283,5.8432,2.947,-0.039,-10.5508
2.3036,7.0871,3.6171,8.6038,9.2126,6.664,6.6931,2.5728,1.8336,4.7052,2.1985,3.3053,9.0175,11.6454,2.9871,7.2261,7.5363,4.8043,9.4921,10.4988,12.5054,10.7383,8.1653,8.1742,4.0041,3.4081,5.607,2.7712,-0.0714,-10.4002
2.0159,6.745,3.3797,8.2694,8.8517,6.4167,6.3978,2.4639,1.7782,4.4757,2.0713,3.1594,8.6379,11.1874,2.6862,6.8387,7.17,4.5473,9.0736,10.0322,12.0292,10.3093,7.847,7.8598,3.8468,3.2884,5.3583,2.6067,-0.1029,-10.1991
1.7189,6.3811,3.1461,7.9059,8.4637,6.1421,6.0786,2.3285,1.7089,4.2444,1.9529,3.0362,8.2415,10.7138,2.3604,6.4308,6.782,4.2839,8.6397,9.5505,11.5287,9.8602,7.5163,7.5366,3.6855,3.1768,5.1152,2.4627,-0.1354,-9.9584
1.437,6.0182,2.9397,7.532,8.07,5.8566,5.7584,2.1746,1.6226,4.0224,1.8463,2.9389,7.8544,10.253,2.0396,6.028,6.3966,4.0377,8.2183,9.0806,11.0313,9.4184,7.1965,7.2241,3.5296,3.0773,4.8926,2.3433,-0.1707,-9.6911
1.192,5.6779,2.7796,7.1667,7.69,5.5765,5.4583,2.0117,1.5184,3.8183,1.7523,2.8664,7.4982,9.8277,1.7518,5.6522,6.0353,3.8278,7.8319,8.6441,10.5606,9.0058,6.9052,6.9365,3.3844,2.9898,4.6996,2.2475,-0.2094,-9.4099
1.0014,5.3788,2.678,6.8279,7.3399,5.317,5.1957,1.8513,1.3988,3.6378,1.6706,2.8137,7.1878,9.4532,1.52,5.3207,5.7148,3.6665,7.4949,8.2562,10.1344,8.6369,6.6523,6.6814,3.2509,2.9097,4.5385,2.1693,-0.25,-9.1262
0.8778,5.1357,2.6396,6.5313,7.0324,5.0911,4.9821,1.7042,1.2697,3.4836,1.5996,2.7733,6.9305,9.1366,1.36,5.0452,5.4464,3.5596,7.2139,7.9254,9.7645,8.3186,6.4404,6.4602,3.1269,2.8297,4.4055,2.0993,-0.2893,-8.8486
0.828,4.9582,2.6612,6.2888,6.7754,4.9084,4.8216,1.5796,1.1385,3.3561,1.5372,2.7368,6.7258,8.8778,1.2787,4.8316,5.2357,3.506,6.9882,7.6542,9.4561,8.0507,6.2658,6.2697,3.009,2.7413,4.2922,2.0269,-0.3224,-8.5823
0.8528,4.8497,2.7333,6.1072,6.5722,4.7744,4.7112,1.4831,1.0133,3.2526,1.4805,2.696,6.5666,8.6708,1.2739,4.6808,5.083,3.4997,6.8118,7.4403,9.209,7.8281,6.1215,6.1036,2.8947,2.6379,4.1881,1.9421,-0.345,-8.3293
0.9469,4.8074,2.8415,5.9866,6.4205,4.6888,4.6415,1.4151,0.8999,3.1685,1.4257,2.6447,6.4417,8.5058,1.3349,4.5888,4.984,3.5304,6.6759,7.2781,9.0184,7.6433,5.9993,5.9555,2.7839,2.5169,4.0835,1.8383,-0.3548,-8.0896
1.0987,4.8214,2.9684,5.9205,6.3133,4.6457,4.5991,1.371,0.8009,3.0971,1.3683,2.5797,6.3385,8.3721,1.4436,4.5471,4.931,3.5851,6.5706,7.1595,8.8762,7.4891,5.8922,5.821,2.6797,2.381,3.972,1.7138,-0.3529,-7.8624
1.2916,4.8772,3.0966,5.8965,6.2396,4.6334,4.5688,1.3414,0.7149,3.0308,1.3035,2.5004,6.2465,8.2597,1.578,4.5446,4.9144,3.6498,6.4873,7.0762,8.7727,7.3602,5.7962,5.6991,2.5872,2.2387,3.8518,1.5726,-0.3427,-7.6476
1.5053,4.9579,3.2103,5.8996,6.1868,4.637,4.5376,1.3143,0.6375,2.9627,1.2271,2.4089,6.1597,8.1619,1.7159,4.5693,4.9241,3.7116,6.42,7.0205,8.6986,7.2546,5.711,5.5929,2.5131,2.1027,3.7265,1.4238,-0.3295,-7.4468
1.7193,5.0472,3.2977,5.9149,6.1433,4.6413,4.4969,1.278,0.5623,2.8881,1.1363,2.3086,6.0774,8.076,1.839,4.6107,4.9518,3.7606,6.3664,6.9873,8.6463,7.1735,5.6394,5.5088,2.4638,1.9877,3.6037,1.28,-0.318,-7.2639
1.9159,5.1323,3.3522,5.9308,6.1006,4.6336,4.4442,1.2239,0.4838,2.8051,1.0313,2.2035,6.0039,8.0026,1.9357,4.6615,4.9921,3.7922,6.3274,6.9733,8.6106,7.1199,5.5867,5.4545,2.4445,1.9074,3.4936,1.155,-0.3117,-7.1035
2.0827,5.2046,3.3726,5.9404,6.0538,4.6056,4.3821,1.1483,0.3988,2.7156,0.9154,2.098,5.9465,7.9441,2.0031,4.7177,5.0422,3.8071,6.306,6.9771,8.5884,7.0968,5.5589,5.4366,2.4581,1.8715,3.4061,1.0608,-0.3124,-6.9693
2.2148,5.2598,3.3634,5.9409,6.0014,4.5548,4.3165,1.0529,0.3075,2.6237,0.7949,1.9955,5.9114,7.9027,2.0465,4.7783,5.1013,3.8109,6.3048,6.9972,8.5772,7.1052,5.5609,5.4573,2.5048,1.8833,3.3481,1.0054,-0.3212,-6.8623
2.3146,5.2969,3.3328,5.9323,5.9436,4.483,4.2535,0.9438,0.2134,2.5349,0.6779,1.8989,5.9016,7.8772,2.077,4.843,5.1688,3.8117,6.3245,7.0307,8.5738,7.1419,5.5947,5.5127,2.5808,1.9391,3.3221,0.9904,-0.3389,-6.7789
2.39,5.3166,3.2914,5.9156,5.8806,4.3952,4.1968,0.8293,0.122,2.4539,0.5729,1.8105,5.9143,7.8629,2.1079,4.9104,5.2425,3.817,6.3618,7.0718,8.573,7.199,5.6574,5.5925,2.6781,2.0282,3.3253,1.0112,-0.3668,-6.7101
2.4517,5.3201,3.2493,5.8907,5.8117,4.2978,4.1469,0.7183,0.0399,2.3838,0.4876,1.7316,5.9412,7.851,2.1509,4.9768,5.3177,3.832,6.4095,7.112,8.5683,7.2642,5.7411,5.681,2.7848,2.135,3.3506,1.058,-0.4063,-6.6438
2.5091,5.3078,3.2131,5.8563,5.7353,4.1968,4.1017,0.6184,-0.0271,2.3258,0.4276,1.6632,5.9701,7.8311,2.2125,5.0358,5.3869,3.8578,6.4576,7.141,8.5517,7.323,5.8334,5.7604,2.8872,2.2422,3.3886,1.1183,-0.458,-6.5666
2.5674,5.2798,3.1853,5.8097,5.6493,4.0967,4.0573,0.5349,-0.0744,2.2798,0.3965,1.6069,5.988,7.7931,2.2927,5.0787,5.4408,3.8922,6.4946,7.1484,8.5161,7.3608,5.9195,5.8144,2.9719,2.3344,3.4304,1.1799,-0.5211,-6.4677
2.6263,5.2352,3.1635,5.748,5.5523,4.0007,4.0104,0.4708,-0.0995,2.245,0.3957,1.5647,5.9844,7.7299,2.3848,5.0969,5.4699,3.9298,6.51,7.1255,8.4559,7.3656,5.9843,5.8313,3.0292,2.401,3.4698,1.2334,-0.5926,-6.3414
2.6801,5.1731,3.1424,5.6691,5.4439,3.9111,3.9591,0.4266,-0.1021,2.2206,0.4246,1.5392,5.9526,7.6382,2.4779,5.0832,5.4668,3.9639,6.496,7.0667,8.368,7.3296,6.0155,5.806,3.0542,2.4381,3.5045,1.2739,-0.6672,-6.1884
2.7206,5.0935,3.1161,5.5729,5.3259,3.8291,3.903,0.4009,-0.0851,2.2058,0.4806,1.5326,5.891,7.519,2.5602,5.0339,5.4274,3.9871,6.4485,6.9704,8.2522,7.2499,6.0053,5.7403,3.0475,2.4479,3.5351,1.3008,-0.7375,-6.0155
2.7399,4.9978,3.0815,5.4615,5.2011,3.7563,3.8432,0.3905,-0.0539,2.1994,0.5587,1.545,5.8021,7.3766,2.6225,4.9498,5.3524,3.9928,6.3674,6.8395,8.1109,7.1284,5.9514,5.6412,3.0137,2.4375,3.5644,1.3165,-0.7948,-5.8337
2.7339,4.8905,3.0399,5.3395,5.0737,3.6942,3.7812,0.3911,-0.017,2.1987,0.6507,1.5734,5.691,7.2171,2.6608,4.837,5.2473,3.9766,6.2566,6.681,7.9482,6.9707,5.857,5.519,2.9597,2.4156,3.5946,1.3243,-0.8297,-5.655
2.7049,4.7793,2.998,5.214,4.9481,3.6448,3.7187,0.3976,0.0155,2.1994,0.7457,1.6113,5.5641,7.0477,2.6779,4.7063,5.1224,3.9375,6.1236,6.5061,7.7707,6.7862,5.7305,5.3854,2.8931,2.3902,3.6261,1.3268,-0.8342,-5.4906
2.6624,4.6754,2.9669,5.0941,4.8289,3.6097,3.6567,0.405,0.0328,2.1951,0.8304,1.6488,5.4283,6.876,2.6831,4.5732,4.9926,3.8797,5.9798,6.3292,7.587,6.5872,5.5845,5.252,2.8213,2.3666,3.6573,1.3241,-0.8024,-5.3484
2.6225,4.5924,2.9602,4.9907,4.7215,3.5909,3.5966,0.4095,0.026,2.1793,0.8912,1.6752,5.2912,6.7107,2.6909,4.4557,4.8762,3.813,5.8398,6.1679,7.4088,6.3895,5.435,5.1297,2.7524,2.3474,3.6854,1.3144,-0.7319,-5.2323
2.6046,4.5444,2.9904,4.9148,4.6314,3.5903,3.5397,0.4089,-0.0103,2.1464,0.9165,1.6807,5.1612,6.5614,2.7172,4.3725,4.7925,3.7516,5.7202,6.0403,7.2497,6.2113,5.3001,5.0281,2.6946,2.3328,3.7076,1.295,-0.6243,-5.1429
2.6275,4.5428,3.0656,4.8754,4.5636,3.6092,3.488,0.4034,-0.0764,2.0938,0.8987,1.6595,5.0473,6.4381,2.7761,4.3389,4.7579,3.7117,5.6372,5.9621,7.1237,6.0714,5.1971,4.9552,2.6558,2.3217,3.7225,1.2635,-0.4855,-5.0775
2.7044,4.5924,3.1863,4.8769,4.5215,3.6475,3.4435,0.3952,-0.1671,2.022,0.8363,1.6104,4.9574,6.3498,2.8758,4.3638,4.7828,3.7072,5.6034,5.9431,7.0421,5.9852,5.14,4.9159,2.6422,2.3123,3.7296,1.2194,-0.3251,-5.0309
2.8389,4.6896,3.344,4.9169,4.505,3.7023,3.4076,0.3877,-0.273,1.9354,0.7336,1.5373,4.8965,6.3019,3.0161,4.446,4.8677,3.7469,5.6242,5.9838,7.0099,5.9613,5.1359,4.9105,2.6555,2.3023,3.7289,1.1643,-0.1554,-4.9962
3.0231,4.8213,3.5222,4.9852,4.5091,3.768,3.3804,0.3845,-0.3817,1.8411,0.6005,1.448,4.8646,6.2939,3.188,4.5737,5.0023,3.8313,5.6958,6.0741,7.024,5.9982,5.1832,4.9345,2.6922,2.2889,3.72,1.1017,0.0101,-4.9658
3.2388,4.9668,3.6992,5.0653,4.5243,3.8359,3.3605,0.3888,-0.4803,1.7477,0.4509,1.3528,4.8564,6.3187,3.3751,4.7256,5.1664,3.9521,5.8044,6.1941,7.0721,6.0831,5.2707,4.9777,2.7427,2.2689,3.7009,1.0364,0.158,-4.9316
3.4598,5.1016,3.8527,5.1373,4.5377,3.8953,3.3454,0.402,-0.5578,1.664,0.3008,1.2627,4.8614,6.3629,3.5559,4.8741,5.3333,4.0934,5.9285,6.3174,7.1346,6.1937,5.3795,5.0266,2.7935,2.2393,3.6694,0.9735,0.2773,-4.8865
3.6578,5.2023,3.9642,5.1815,4.5351,3.936,3.3314,0.4239,-0.6062,1.597,0.1661,1.187,4.8662,6.4086,3.7084,4.991,5.4744,4.2352,6.0422,6.4157,7.1885,6.3022,5.4866,5.0662,2.8303,2.1983,3.6237,0.9182,0.36,-4.8248
3.8078,5.2512,4.0224,5.183,4.5045,3.9494,3.315,0.4521,-0.6221,1.5511,0.0606,1.1325,4.858,6.4373,3.8141,5.0526,5.565,4.3572,6.1208,6.4642,7.2121,6.381,5.5696,5.0838,2.841,2.146,3.5639,0.8746,0.4024,-4.7426
3.8938,5.2402,4.0249,5.1353,4.4392,3.9312,3.2938,0.483,-0.6067,1.5271,-0.0065,1.1018,4.8277,6.4345,3.8616,5.0447,5.5894,4.4431,6.1458,6.4475,7.1903,6.4092,5.6119,5.0717,2.8196,2.0848,3.4931,0.8455,0.4053,-4.639
3.9133,5.1725,3.9785,5.0423,4.34,3.8823,3.2672,0.512,-0.5659,1.5227,-0.031,1.0935,4.7728,6.3935,3.8498,4.9666,5.5447,4.4849,6.1103,6.3631,7.1188,6.3776,5.6066,5.0288,2.7671,2.0199,3.4175,0.8317,0.3734,-4.5165
3.8779,5.0635,3.898,4.9184,4.2163,3.8099,3.237,0.5352,-0.509,1.5328,-0.0152,1.1021,4.6984,6.3181,3.7889,4.8313,5.4427,4.484,6.0215,6.2229,7.0063,6.2916,5.5585,4.9621,2.6921,1.9577,3.3455,0.8323,0.315,-4.3817
3.8115,4.9371,3.8034,4.7857,4.0849,3.7259,3.2073,0.5501,-0.4478,1.551,0.0333,1.1197,4.617,6.2224,3.6992,4.6644,5.3078,4.452,5.8995,6.052,6.8733,6.1701,5.4832,4.8845,2.6089,1.9051,3.2863,0.8442,0.2403,-4.2456
3.7441,4.822,3.7169,4.6698,3.9667,3.6456,3.1837,0.5562,-0.3944,1.5714,0.1024,1.1375,4.5449,6.1284,3.6073,4.4985,5.1725,4.4076,5.7737,5.8833,6.748,6.042,5.4038,4.8122,2.5342,1.8678,3.2478,0.8631,0.1597,-4.1227
3.7057,4.7454,3.6583,4.5939,3.8822,3.5843,3.1717,0.5548,-0.3601,1.5892,0.1773,1.1473,4.4988,6.0599,3.5414,4.3671,5.0703,4.3725,5.6761,5.7509,6.6595,5.9392,5.3451,4.7611,2.4834,1.8487,3.235,0.8837,0.0814,-4.0282
3.7192,4.7276,3.6425,4.5742,3.8464,3.5538,3.1749,0.5485,-0.353,1.6018,0.2428,1.1433,4.4908,6.037,3.5256,4.298,5.0288,4.367,5.6333,5.6826,6.631,5.8894,5.3282,4.743,2.4673,1.8473,3.2495,0.9011,0.0105,-3.9744
3.7957,4.7779,3.6761,4.6162,3.8653,3.5605,3.1942,0.5404,-0.3773,1.6082,0.2852,1.1221,4.5258,6.0706,3.575,4.3069,5.0632,4.4048,5.661,5.6937,6.6741,5.9092,5.3652,4.7629,2.4894,1.8596,3.2892,0.9118,-0.0525,-3.9674
3.9325,4.8931,3.7577,4.7136,3.9342,3.6033,3.2264,0.5328,-0.433,1.6085,0.2944,1.0837,4.5996,6.1592,3.693,4.3953,5.1734,4.4901,5.7599,5.784,6.7859,6.0009,5.4565,4.8182,2.5458,1.8796,3.3483,0.9141,-0.1104,-4.0044
4.1141,5.0584,3.8775,4.8504,4.0381,3.6742,3.2645,0.5266,-0.516,1.6029,0.2652,1.0304,4.699,6.289,3.8698,4.5496,5.3441,4.6154,5.9163,5.9379,6.9488,6.1513,5.5904,4.899,2.6257,1.9,3.4183,0.908,-0.1672,-4.074
4.3157,5.2507,4.0196,5.0034,4.1547,3.7596,3.2991,0.5211,-0.619,1.5907,0.1974,0.9657,4.8047,6.4358,4.0844,4.7444,5.5479,4.7632,6.1041,6.1272,7.1344,6.3343,5.745,4.99,2.7137,1.9138,3.4886,0.8946,-0.2258,-4.1587
4.5089,5.4429,4.1645,5.1474,4.2591,3.8434,3.3196,0.514,-0.7328,1.5702,0.0962,0.8928,4.8944,6.5707,4.3085,4.9475,5.7514,4.9091,6.2915,6.3175,7.3088,6.5167,5.8932,5.0734,2.7923,1.9151,3.5477,0.875,-0.285,-4.2382
4.6678,5.6093,4.2931,5.2597,4.3285,3.9099,3.3163,0.5031,-0.8477,1.5394,-0.0288,0.8137,4.947,6.6654,4.5125,5.1266,5.9225,5.0278,6.447,6.4748,7.4395,6.6651,6.0079,5.1318,2.8458,1.8999,3.5843,0.8487,-0.3398,-4.2935
4.7746,5.7301,4.3893,5.3242,4.3472,3.9471,3.2822,0.4859,-0.954,1.4967,-0.1656,0.7284,4.9465,6.6979,4.6716,5.2557,6.0372,5.1,6.5465,6.5728,7.5014,6.7525,6.0683,5.1515,2.8624,1.8657,3.5889,0.8141,-0.3822,-4.3106
4.8228,5.795,4.4439,5.3336,4.3084,3.9484,3.214,0.4615,-1.0442,1.4416,-0.3018,0.6353,4.8846,6.6566,4.7714,5.3202,6.0844,5.1172,6.5776,6.5972,7.4813,6.7637,6.0643,5.1245,2.8369,1.8122,3.5555,0.7679,-0.4042,-4.2824
4.8184,5.8035,4.4552,5.2899,4.2155,3.9135,3.1126,0.4301,-1.1131,1.3749,-0.4269,0.5312,4.7621,6.5425,4.8103,5.3187,6.0675,5.0841,6.5415,6.5482,7.3803,6.698,5.9983,5.0497,2.7708,1.7407,3.482,0.7058,-0.4018,-4.2101
4.7769,5.7643,4.4286,5.2026,4.0803,3.8473,2.983,0.393,-1.1596,1.2985,-0.5339,0.4129,4.588,6.368,4.799,5.262,6.0024,5.0176,6.4525,6.4389,7.2123,6.5681,5.885,4.9324,2.6717,1.6535,3.3709,0.6236,-0.3771,-4.1021
4.7198,5.6923,4.3749,5.0864,3.92,3.7583,2.8334,0.3517,-1.186,1.2141,-0.621,0.2782,4.3782,6.1545,4.7571,5.1697,5.913,4.9415,6.3335,6.2921,7.0013,6.3973,5.7471,4.7833,2.551,1.5539,3.2287,0.5183,-0.3397,-3.9728
4.6692,5.6054,4.3071,4.9584,3.7537,3.6572,2.6741,0.3079,-1.1985,1.1224,-0.6913,0.1269,4.1521,5.9277,4.7077,5.0654,5.8254,4.8804,6.2108,6.1348,6.7762,6.2137,5.6109,4.6162,2.422,1.4456,3.0652,0.3886,-0.3044,-3.8396
4.6428,5.5213,4.2385,4.835,3.5992,3.5549,2.5158,0.2623,-1.2059,1.023,-0.7517,-0.0379,3.9301,5.7135,4.6725,4.9715,5.7618,4.8534,6.1091,5.9933,6.5658,6.0456,5.4998,4.446,2.2976,1.3328,2.8921,0.2366,-0.2873,-3.7201
4.6516,5.4542,4.1795,4.7304,3.4709,3.4613,2.368,0.2147,-1.2175,0.9154,-0.8105,-0.209,3.7308,5.5338,4.6671,4.9058,5.7373,4.8694,6.0465,5.8886,6.3941,5.9159,5.4306,4.2871,2.1885,1.2205,2.7221,0.0682,-0.3018,-3.6292
4.6976,5.4131,4.1367,4.6547,3.3783,3.3843,2.2387,0.1648,-1.2415,0.7998,-0.8751,-0.3755,3.5688,5.4038,4.6982,4.8785,5.7571,4.9257,6.0325,5.8337,6.2769,5.8394,5.4108,4.1521,2.1027,1.1149,2.5681,-0.1064,-0.3548,-3.5765
4.7743,5.4005,4.1116,4.6127,3.3253,3.3289,2.133,0.1128,-1.2827,0.6789,-0.949,-0.5238,3.4538,5.3308,4.7632,4.8912,5.8169,5.0098,6.0668,5.8318,6.2201,5.8207,5.4381,4.0505,2.045,1.0228,2.4425,-0.2736,-0.4449,-3.5647
4.8683,5.4117,4.1007,4.6036,3.3105,3.2964,2.0538,0.0598,-1.3415,0.5579,-1.0313,-0.6407,3.3889,5.3135,4.8503,4.9371,5.9043,5.1033,6.1397,5.8762,6.2195,5.8538,5.5013,3.9872,2.0165,0.9512,2.3559,-0.4181,-0.564,-3.5896
4.9609,5.436,4.0966,4.6206,3.3267,3.2843,2.0014,0.0081,-1.4144,0.4439,-1.1171,-0.7153,3.3712,5.3428,4.9421,5.0015,6.0007,5.1864,6.2339,5.9511,6.2616,5.923,5.5826,3.9618,2.0137,0.9051,2.3153,-0.526,-0.6986,-3.641
5.0317,5.4585,4.0893,4.6515,3.3628,3.2863,1.9741,-0.0395,-1.4948,0.3441,-1.1993,-0.7419,3.391,5.4031,5.018,5.0647,6.084,5.2415,6.3267,6.0344,6.3265,6.0052,5.6603,3.9678,2.0288,0.8861,2.3225,-0.5876,-0.834,-3.7051
5.0619,5.4632,4.0689,4.6815,3.4055,3.2942,1.9687,-0.0795,-1.575,0.2642,-1.2707,-0.7206,3.4347,5.4754,5.0593,5.1054,6.1322,5.2567,6.3942,6.1017,6.3916,6.0742,5.7123,3.9935,2.0506,0.8916,2.372,-0.6002,-0.956,-3.7673
5.0383,5.4373,4.0287,4.6963,3.4421,3.3001,1.9817,-0.1088,-1.6474,0.2075,-1.3259,-0.6571,3.4869,5.5405,5.0528,5.1053,6.1273,5.2267,6.4151,6.1318,6.4361,6.1054,5.7203,4.0243,2.067,0.9147,2.4519,-0.569,-1.0534,-3.8157
4.9564,5.3752,3.9669,4.6863,3.4639,3.299,2.0104,-0.1236,-1.7051,0.1753,-1.3618,-0.5609,3.5341,5.5835,4.9944,5.0534,6.06,5.1537,6.3763,6.1114,6.4462,6.0821,5.6739,4.0465,2.0675,0.946,2.5453,-0.5055,-1.118,-3.8436
4.8225,5.28,3.8877,4.6488,3.4683,3.2908,2.0538,-0.1202,-1.7419,0.167,-1.3771,-0.4427,3.5682,5.5969,4.8904,4.9499,5.9321,5.0467,6.2762,6.0393,6.4177,5.9994,5.5732,4.0505,2.0463,0.9755,2.6341,-0.425,-1.1449,-3.8509
4.6529,5.1639,3.8003,4.5897,3.4589,3.2798,2.1129,-0.0947,-1.7527,0.182,-1.3716,-0.3123,3.5876,5.5819,4.757,4.8063,5.7579,4.9198,6.1263,5.9268,6.3571,5.8662,5.4297,4.0337,2.0035,0.9954,2.7032,-0.343,-1.1326,-3.8436
4.4703,5.045,3.7167,4.521,3.4439,3.2736,2.1891,-0.0445,-1.7334,0.2199,-1.345,-0.1774,3.5971,5.5476,4.6167,4.6434,5.5619,4.7903,5.9492,5.7955,6.2797,5.7035,5.2646,4.0003,1.9447,1.0017,2.7437,-0.2714,-1.0831,-3.8319
4.2996,4.943,3.6487,4.4571,3.4329,3.2795,2.2833,0.0307,-1.6818,0.2806,-1.2965,-0.0423,3.6053,5.5075,4.4936,4.4865,5.3739,4.675,5.7744,5.6717,6.2049,5.5398,5.104,3.9603,1.8796,0.9951,2.7544,-0.2166,-1.0026,-3.8274
4.1615,4.8743,3.6049,4.4105,3.4334,3.3021,2.3937,0.1281,-1.5983,0.3637,-1.225,0.0916,3.6211,5.4757,4.4081,4.3592,5.2224,4.5883,5.6309,5.5793,6.1514,5.4042,4.9741,3.9261,1.8194,0.9806,2.742,-0.1782,-0.9015,-3.8396
4.0688,4.8478,3.5888,4.3882,3.4484,3.3414,2.5157,0.2416,-1.4864,0.468,-1.1292,0.2255,3.6514,5.4631,4.3716,4.2781,5.1284,4.5396,5.5414,5.5347,6.132,5.3197,4.8957,3.9094,1.7741,0.9659,2.7186,-0.1497,-0.794,-3.8736
4.0235,4.8629,3.5977,4.3892,3.4753,3.3926,2.6417,0.3627,-1.3525,0.5907,-1.0087,0.3615,3.6992,5.4748,4.3844,4.2493,5.101,4.5329,5.5176,5.5422,6.1513,5.2995,4.8801,3.9186,1.7506,0.9603,2.6995,-0.1204,-0.6963,-3.9294
4.0168,4.909,3.6226,4.4054,3.5072,3.4477,2.7625,0.4818,-1.2053,0.7275,-0.8651,0.5022,3.7634,5.5098,4.4355,4.2674,5.1361,4.5661,5.558,5.594,6.2049,5.3441,4.9275,3.9576,1.7517,0.9722,2.7003,-0.0783,-0.6239,-4.0024
4.0313,4.9687,3.6502,4.4237,3.535,3.4975,2.8692,0.5901,-1.055,0.872,-0.7024,0.6488,3.8398,5.5623,4.5054,4.3176,5.2177,4.6317,5.6493,5.6727,6.2813,5.4433,5.0276,4.0256,1.7764,1.0079,2.7332,-0.0122,-0.5893,-4.0854
4.0453,5.021,3.6655,4.4302,3.5503,3.5342,2.955,0.6813,-0.912,1.0168,-0.5278,0.8012,3.9228,5.6234,4.5708,4.3802,5.322,4.7176,5.7702,5.7562,6.3652,5.5787,5.1627,4.1182,1.821,1.0712,2.8057,0.0854,-0.5994,-4.1711
4.0378,5.0467,3.6547,4.4133,3.5483,3.5531,3.0166,0.7517,-0.7854,1.1536,-0.3505,0.9576,4.0063,5.684,4.6097,4.4349,5.4231,4.8086,5.8962,5.823,6.4408,5.7285,5.3111,4.2283,1.8804,1.1619,2.9182,0.2171,-0.6542,-4.2541
3.9932,5.0328,3.6091,4.3668,3.5286,3.5533,3.0539,0.8007,-0.6823,1.2745,-0.1813,1.1143,4.0846,5.7363,4.6063,4.4661,5.4982,4.8883,6.0047,5.8574,6.4957,5.8711,5.4521,4.3473,1.9494,1.2764,3.0637,0.3797,-0.747,-4.3309
3.9051,4.9753,3.5267,4.2912,3.4955,3.5372,3.0697,0.8297,-0.607,1.3722,-0.0308,1.2659,4.1525,5.775,4.5542,4.4657,5.5324,4.9416,6.0794,5.8523,6.5225,5.9892,5.569,4.4659,2.0229,1.4077,3.2284,0.564,-0.8655,-4.4004
3.7771,4.8798,3.4134,4.1934,3.4561,3.509,3.0681,0.8414,-0.5611,1.4408,0.0912,1.4052,4.205,5.7975,4.4571,4.4343,5.5201,4.9574,6.112,5.8099,6.5202,6.0715,5.652,4.5741,2.0959,1.5451,3.3933,0.7558,-0.9941,-4.4628
3.6215,4.7597,3.2804,4.0841,3.4185,3.4729,3.0527,0.8382,-0.5439,1.4754,0.1766,1.5227,4.237,5.8036,4.3267,4.3794,5.4653,4.9304,6.1026,5.7401,6.4935,6.1133,5.6976,4.6623,2.1631,1.6757,3.5367,0.9372,-1.1165,-4.5187
3.4554,4.6324,3.1415,3.9757,3.3888,3.4323,3.0254,0.8217,-0.5528,1.4728,0.2195,1.6079,4.2437,5.7941,4.1793,4.312,5.3777,4.861,6.0571,5.6568,6.4503,6.1152,5.7076,4.721,2.2178,1.785,3.6373,1.0893,-1.2185,-4.5686
3.2968,4.5145,3.0085,3.8785,3.37,3.3887,2.9863,0.7927,-0.5846,1.4308,0.2167,1.6497,4.2207,5.7702,4.0314,4.2429,5.2698,4.7545,5.984,5.5733,6.3993,6.0811,5.6863,4.742,2.2525,1.8586,3.6772,1.1944,-1.289,-4.6125
3.1601,4.4186,2.889,3.7991,3.3614,3.3429,2.9339,0.7519,-0.6351,1.3497,0.1677,1.6393,4.1656,5.7323,3.896,4.1793,5.1527,4.6194,5.8912,5.4986,6.3468,6.0158,5.6379,4.7192,2.2595,1.8844,3.6457,1.2388,-1.3216,-4.6491
3.0543,4.3503,2.7864,3.7393,3.3593,3.2957,2.8671,0.7009,-0.6997,1.2329,0.0758,1.5725,4.0787,5.6806,3.7807,4.1229,5.0337,4.4657,5.7844,5.436,6.2954,5.9239,5.5651,4.6498,2.2322,1.8552,3.5411,1.216,-1.3143,-4.6758
2.982,4.3083,2.7006,3.6964,3.3585,3.2494,2.7863,0.6433,-0.7731,1.0872,-0.0521,1.4517,3.9641,5.615,3.6872,4.0708,4.9161,4.3038,5.6663,5.3824,6.2432,5.8084,5.4687,4.5354,2.1668,1.7702,3.3717,1.1276,-1.2686,-4.6887
2.9403,4.2849,2.631,3.6648,3.3536,3.2073,2.6952,0.5845,-0.8493,0.9234,-0.2056,1.2869,3.8296,5.5358,3.6129,4.0165,4.7999,4.1431,5.5372,5.33,6.1846,5.6715,5.3483,4.382,2.0635,1.6365,3.1544,0.9831,-1.1883,-4.6823
2.9232,4.2686,2.5776,3.6369,3.3399,3.1741,2.5997,0.5308,-0.9228,0.7538,-0.3724,1.0942,3.6855,5.4439,3.5521,3.9519,4.6826,3.9916,5.3971,5.2686,6.112,5.515,5.2038,4.1992,1.9263,1.4679,2.9111,0.7989,-1.0781,-4.6511
2.9227,4.2465,2.5415,3.6053,3.3139,3.1539,2.5073,0.4885,-0.9887,0.5911,-0.5398,0.893,3.5425,5.3409,3.4983,3.8694,4.5613,3.8547,5.2459,5.1878,6.017,5.3409,5.0363,3.9984,1.7628,1.2822,2.6646,0.5939,-0.9428,-4.59
2.9308,4.207,2.5249,3.5637,3.2734,3.1498,2.4252,0.462,-1.0438,0.4448,-0.6971,0.7019,3.4097,5.2286,3.445,3.7638,4.4334,3.7345,5.0843,5.0796,5.8933,5.1514,4.8486,3.7909,1.5819,1.0979,2.434,0.3867,-0.7863,-4.4963
2.941,4.1426,2.5286,3.5083,3.2179,3.1624,2.3581,0.4527,-1.0868,0.3204,-0.8376,0.5344,3.2925,5.109,3.3873,3.6327,4.297,3.6298,4.9137,4.94,5.7375,4.9494,4.6446,3.5852,1.3925,0.9297,2.2312,0.1911,-0.6125,-4.3702
2.9485,4.0511,2.5514,3.4381,3.1491,3.1899,2.307,0.4593,-1.1189,0.2174,-0.9598,0.3961,3.1919,4.9838,3.3221,3.4778,4.1517,3.5369,4.7354,4.7699,5.551,4.7376,4.4287,3.3862,1.2017,0.7853,2.0593,0.0144,-0.425,-4.2156
2.9507,3.936,2.5886,3.3552,3.0703,3.2284,2.2692,0.4776,-1.1433,0.1311,-1.0669,0.284,3.1047,4.8548,3.2484,3.304,3.9979,3.4503,4.5511,4.5753,5.3398,4.5186,4.2049,3.1947,1.0132,0.6642,1.9134,-0.1432,-0.2282,-4.0402
2.9467,3.8056,2.6322,3.264,2.9864,3.2724,2.239,0.5019,-1.1643,0.0532,-1.1657,0.1885,3.0251,4.7236,3.1674,3.119,3.8373,3.3645,4.3623,4.3659,5.1142,4.2951,3.9768,3.0087,0.8283,0.559,1.7831,-0.2873,-0.0275,-3.8542
