FP1,F3,F7,FC3,C3,C5,P3,P7,PO7,PO3,O1,Oz,Pz,CPz,FP2,Fz,F4,F8,FC4,FCz,Cz,C4,C6,P4,P8,PO8,PO4,O2,HEOG_left,HEOG_right
-0.0399,-0.196,0.1944,0.2436,0.4595,0.1858,0.2188,0.0921,0.0208,0.0457,-0.2849,-0.0983,0.2126,0.7302,0.389,0.0146,0.5185,0.8456,0.7975,0.6721,0.8696,1.3055,0.9863,0.3896,0.1258,-0.1575,-0.3661,-0.251,0.8153,1.2119
0.167,-0.023,0.3635,0.395,0.5431,0.3009,0.2282,0.087,-0.0484,0.0375,-0.1973,-0.119,0.2557,0.7952,0.3371,0.1203,0.4855,0.7646,0.7709,0.7657,0.9513,1.2621,0.9209,0.4698,0.0956,-0.1514,-0.3421,-0.3096,0.6943,1.0651
0.3612,0.1407,0.5164,0.5384,0.6266,0.4064,0.2383,0.0819,-0.1148,0.0333,-0.1157,-0.1313,0.3057,0.8607,0.291,0.2227,0.4572,0.6892,0.7499,0.8576,1.0312,1.228,0.8665,0.5468,0.0728,-0.143,-0.3106,-0.355,0.5832,0.9335
0.5314,0.2876,0.6408,0.6659,0.7091,0.494,0.2475,0.0755,-0.1773,0.0354,-0.0485,-0.1309,0.3661,0.9258,0.2591,0.3191,0.4398,0.6289,0.7394,0.946,1.1064,1.2102,0.8302,0.6173,0.0618,-0.1319,-0.267,-0.3777,0.4901,0.8276
0.6686,0.4114,0.7282,0.7716,0.7893,0.5585,0.2543,0.0675,-0.2331,0.0456,-0.0021,-0.1165,0.4365,0.9877,0.2459,0.4063,0.4367,0.5909,0.7422,1.0273,1.1735,1.2114,0.8156,0.6771,0.0634,-0.1195,-0.211,-0.3742,0.4205,0.7536
0.7678,0.5086,0.7747,0.8524,0.8659,0.5982,0.2565,0.0591,-0.2784,0.0651,0.0201,-0.0904,0.5118,1.0417,0.2522,0.4809,0.4479,0.5789,0.7578,1.0971,1.2284,1.2301,0.8218,0.721,0.0739,-0.1093,-0.147,-0.3473,0.3771,0.7122
0.828,0.5785,0.7817,0.9082,0.9363,0.6149,0.2518,0.0522,-0.3089,0.0934,0.0176,-0.0576,0.5834,1.082,0.2751,0.5408,0.4713,0.5932,0.7838,1.1516,1.2674,1.2604,0.8438,0.744,0.0864,-0.1051,-0.0829,-0.3048,0.3597,0.6993
0.8524,0.6234,0.7555,0.9416,0.9969,0.6125,0.2379,0.0485,-0.3216,0.1279,-0.0073,-0.0246,0.6412,1.1032,0.3101,0.5856,0.5033,0.6305,0.8162,1.1888,1.2888,1.2939,0.8737,0.7425,0.0926,-0.1107,-0.0279,-0.2568,0.3654,0.7076
0.8476,0.6479,0.7057,0.9568,1.0428,0.5954,0.2127,0.0485,-0.3159,0.1636,-0.05,0.0024,0.6752,1.1012,0.3511,0.6167,0.5403,0.6844,0.8504,1.2093,1.2925,1.3213,0.9021,0.7146,0.0844,-0.1278,0.0103,-0.2128,0.3893,0.7282
0.8217,0.6581,0.6438,0.9584,1.0682,0.5673,0.1746,0.0513,-0.2943,0.1939,-0.1043,0.019,0.6784,1.0744,0.3924,0.6372,0.5785,0.7463,0.8822,1.2157,1.2807,1.3344,0.92,0.6616,0.0575,-0.1552,0.0274,-0.1789,0.4248,0.7523
0.7832,0.66,0.5804,0.9506,1.068,0.5307,0.123,0.0543,-0.2622,0.2116,-0.1626,0.0237,0.6481,1.024,0.4284,0.6502,0.6139,0.8055,0.9076,1.2119,1.2567,1.3277,0.9202,0.5881,0.0117,-0.1887,0.0245,-0.1565,0.4639,0.7715
0.7393,0.6584,0.5237,0.9359,1.039,0.4872,0.059,0.0546,-0.226,0.2117,-0.2166,0.0184,0.5873,0.9542,0.4546,0.6581,0.642,0.8502,0.9231,1.2017,1.2244,1.299,0.8983,0.5022,-0.0475,-0.2213,0.0075,-0.1424,0.4979,0.7795
0.6953,0.6561,0.4787,0.9159,0.9819,0.4384,-0.014,0.0506,-0.1918,0.1926,-0.2576,0.0077,0.5041,0.872,0.4676,0.6618,0.6575,0.869,0.9261,1.1874,1.1877,1.2496,0.8535,0.414,-0.1112,-0.2449,-0.0143,-0.1301,0.5186,0.7717
0.6544,0.6537,0.4463,0.8909,0.9025,0.3869,-0.0899,0.0425,-0.1633,0.1566,-0.2775,-0.0018,0.4109,0.7857,0.4656,0.6605,0.6555,0.8526,0.9144,1.1702,1.1498,1.1834,0.789,0.3336,-0.1693,-0.2526,-0.0305,-0.1128,0.52,0.7466
0.6177,0.6509,0.4245,0.8615,0.811,0.3369,-0.1606,0.0327,-0.1416,0.1099,-0.2707,-0.0039,0.3214,0.7039,0.4484,0.6527,0.6327,0.7967,0.8875,1.15,1.113,1.1053,0.7115,0.2694,-0.2135,-0.2406,-0.0332,-0.0855,0.4998,0.7058
0.5853,0.6468,0.4097,0.8284,0.7203,0.2943,-0.2179,0.0252,-0.1251,0.06,-0.2353,0.006,0.2477,0.6335,0.4178,0.6368,0.5892,0.7039,0.8465,1.1261,1.0784,1.0209,0.6298,0.2256,-0.2398,-0.2098,-0.0187,-0.0475,0.4606,0.6536
0.5564,0.6413,0.399,0.7934,0.6431,0.2652,-0.255,0.0242,-0.1108,0.0147,-0.1736,0.0292,0.198,0.5785,0.3779,0.6125,0.5294,0.5843,0.7942,1.0977,1.0462,0.9345,0.5533,0.2016,-0.249,-0.1657,0.0108,-0.0025,0.4088,0.5964
0.5294,0.6352,0.391,0.758,0.5897,0.2547,-0.2682,0.0325,-0.0956,-0.0204,-0.0925,0.0639,0.1749,0.5396,0.3344,0.5806,0.4611,0.4535,0.7345,1.0639,1.0151,0.849,0.4894,0.1925,-0.246,-0.1177,0.0485,0.0429,0.3531,0.5408
0.5025,0.6301,0.3868,0.7241,0.5646,0.2655,-0.2579,0.0509,-0.0768,-0.0424,-0.0017,0.1057,0.1753,0.5142,0.2937,0.5434,0.3943,0.3288,0.6716,1.0242,0.9829,0.7652,0.442,0.1907,-0.2375,-0.0759,0.0849,0.0807,0.3019,0.4917
0.4734,0.627,0.3883,0.692,0.5662,0.2959,-0.2284,0.0779,-0.0534,-0.0505,0.0881,0.1488,0.1918,0.497,0.2617,0.5036,0.3381,0.2253,0.6088,0.9775,0.9464,0.682,0.4103,0.1876,-0.2297,-0.0493,0.1106,0.1045,0.2612,0.4515
0.4403,0.6254,0.397,0.6606,0.5871,0.3397,-0.1862,0.1099,-0.0254,-0.0457,0.1677,0.1874,0.2148,0.4815,0.2419,0.4634,0.2983,0.1516,0.5479,0.9224,0.9015,0.5969,0.3891,0.1763,-0.2259,-0.0428,0.1192,0.1112,0.233,0.4189
0.4021,0.6226,0.4121,0.6269,0.6153,0.3866,-0.1386,0.1423,0.006,-0.0297,0.2304,0.2165,0.2348,0.4605,0.2346,0.424,0.2761,0.1082,0.4883,0.8566,0.8439,0.507,0.3705,0.1529,-0.226,-0.0561,0.1085,0.1016,0.215,0.3893
0.3583,0.6142,0.4304,0.5868,0.6376,0.4245,-0.0912,0.1705,0.0391,-0.0045,0.2735,0.2327,0.2447,0.4279,0.2368,0.3847,0.2673,0.0878,0.4277,0.7777,0.7692,0.4096,0.3453,0.1167,-0.2267,-0.0842,0.0807,0.0798,0.202,0.3564
0.3096,0.5947,0.4458,0.5361,0.642,0.4417,-0.0464,0.1912,0.0723,0.0282,0.2974,0.2346,0.2407,0.38,0.2427,0.3439,0.2637,0.0781,0.363,0.6835,0.6744,0.3042,0.3061,0.0707,-0.2223,-0.1178,0.0425,0.0525,0.1875,0.314
0.2571,0.5599,0.4512,0.4719,0.6206,0.4303,-0.0028,0.2037,0.1049,0.0674,0.3054,0.2229,0.2235,0.3161,0.2457,0.299,0.2555,0.0652,0.2915,0.573,0.5589,0.192,0.2493,0.0207,-0.2068,-0.146,0.003,0.0266,0.1662,0.2581
0.2024,0.5076,0.4393,0.3941,0.5713,0.3874,0.0448,0.2096,0.1373,0.1124,0.3026,0.2002,0.1976,0.239,0.24,0.2474,0.2332,0.0383,0.2123,0.4473,0.4248,0.0769,0.1757,-0.0255,-0.176,-0.1586,-0.0279,0.0085,0.1351,0.1874
0.1468,0.4384,0.4043,0.3049,0.4972,0.3162,0.1032,0.2131,0.1713,0.1631,0.2953,0.171,0.1702,0.155,0.2221,0.1874,0.1904,-0.0083,0.1264,0.3092,0.2776,-0.0357,0.0909,-0.0597,-0.1283,-0.1478,-0.0413,0.0025,0.0944,0.1043
0.0911,0.3554,0.3432,0.2084,0.4051,0.2244,0.1782,0.2193,0.2095,0.2193,0.2898,0.1407,0.1494,0.0718,0.1912,0.1185,0.1255,-0.0732,0.0369,0.1631,0.1243,-0.1401,0.0033,-0.0753,-0.0662,-0.1107,-0.0312,0.0108,0.0469,0.0132
0.0352,0.2636,0.2567,0.1093,0.3026,0.1219,0.2718,0.2327,0.2545,0.2801,0.292,0.1147,0.1415,-0.0032,0.1493,0.0415,0.042,-0.1496,-0.0524,0.014,-0.0269,-0.2319,-0.0782,-0.0687,0.0045,-0.0493,0.0043,0.0331,-0.0034,-0.0803
-0.0219,0.1679,0.1494,0.0111,0.1957,0.0185,0.3806,0.2554,0.3073,0.3431,0.3062,0.0974,0.1496,-0.0644,0.1002,-0.0421,-0.0524,-0.2269,-0.1378,-0.1332,-0.1696,-0.3089,-0.1467,-0.0409,0.0758,0.0298,0.0623,0.0672,-0.0527,-0.1709
-0.0818,0.072,0.0277,-0.0848,0.0863,-0.0793,0.4944,0.2856,0.3664,0.4034,0.3339,0.0913,0.1715,-0.1105,0.0479,-0.1294,-0.1471,-0.294,-0.2168,-0.2753,-0.2996,-0.3721,-0.1989,0.0025,0.1391,0.1165,0.1357,0.1096,-0.0984,-0.2551
-0.1467,-0.0228,-0.1014,-0.1798,-0.0279,-0.169,0.5971,0.317,0.4268,0.4539,0.3725,0.0963,0.1996,-0.1448,-0.0039,-0.2178,-0.2319,-0.3424,-0.289,-0.4102,-0.4163,-0.4251,-0.236,0.052,0.1873,0.2002,0.2142,0.1563,-0.1404,-0.3315
-0.2183,-0.1179,-0.2327,-0.2776,-0.1527,-0.2529,0.6687,0.3392,0.4799,0.4848,0.4154,0.1096,0.222,-0.1748,-0.0531,-0.3045,-0.2991,-0.3684,-0.3554,-0.5378,-0.5223,-0.4733,-0.2634,0.0954,0.2163,0.2711,0.2866,0.2034,-0.1808,-0.4012
-0.2974,-0.2164,-0.3637,-0.383,-0.2947,-0.3368,0.6901,0.3401,0.5144,0.4857,0.4522,0.1268,0.225,-0.2106,-0.0993,-0.3868,-0.3457,-0.3743,-0.4188,-0.6593,-0.6224,-0.5232,-0.2887,0.1208,0.2259,0.3232,0.3426,0.248,-0.2238,-0.4671
-0.3836,-0.3216,-0.4937,-0.5005,-0.4586,-0.427,0.6468,0.308,0.5187,0.4481,0.4711,0.1426,0.1958,-0.2631,-0.1429,-0.4627,-0.374,-0.3678,-0.4821,-0.7764,-0.7222,-0.5803,-0.3204,0.1183,0.2197,0.3544,0.3756,0.2884,-0.2737,-0.5329
-0.4754,-0.4351,-0.6224,-0.6318,-0.6449,-0.5279,0.5335,0.2355,0.4837,0.3672,0.461,0.1521,0.1261,-0.3408,-0.185,-0.5303,-0.3904,-0.3597,-0.548,-0.891,-0.8267,-0.6487,-0.3649,0.0827,0.2038,0.3669,0.3832,0.3235,-0.3339,-0.6015
-0.5699,-0.5552,-0.7482,-0.7751,-0.8486,-0.6393,0.3566,0.1218,0.4054,0.2447,0.4149,0.1519,0.0144,-0.4481,-0.2269,-0.5884,-0.4039,-0.3618,-0.6179,-1.0046,-0.9393,-0.7304,-0.4258,0.0139,0.1856,0.3657,0.3677,0.3531,-0.405,-0.6741
-0.6633,-0.6773,-0.8671,-0.9244,-1.059,-0.7555,0.1332,-0.026,0.2871,0.0894,0.3317,0.1404,-0.1334,-0.5836,-0.27,-0.6363,-0.4234,-0.383,-0.6922,-1.1174,-1.0608,-0.825,-0.5029,-0.0825,0.1717,0.3567,0.3351,0.3764,-0.4847,-0.7494
-0.7515,-0.7943,-0.9722,-1.0708,-1.2616,-0.8659,-0.1108,-0.1935,0.1399,-0.0842,0.2171,0.1184,-0.3047,-0.7404,-0.3161,-0.674,-0.4557,-0.4283,-0.7699,-1.2283,-1.1896,-0.9307,-0.5932,-0.1969,0.1665,0.3452,0.293,0.3921,-0.5674,-0.8238
-0.8306,-0.8988,-1.0555,-1.2041,-1.4403,-0.9573,-0.3459,-0.3613,-0.0189,-0.2577,0.0824,0.0879,-0.4826,-0.9076,-0.3675,-0.7026,-0.504,-0.4972,-0.8496,-1.3352,-1.3216,-1.0444,-0.692,-0.3184,0.1707,0.3337,0.2486,0.3979,-0.6455,-0.8925
-0.8976,-0.9847,-1.1091,-1.3142,-1.5804,-1.0168,-0.5442,-0.5084,-0.1686,-0.4124,-0.057,0.0518,-0.6496,-1.0717,-0.4256,-0.7237,-0.5674,-0.5845,-0.9298,-1.4343,-1.4509,-1.1627,-0.7948,-0.4367,0.1819,0.3219,0.2062,0.391,-0.7111,-0.9505
-0.9502,-1.0481,-1.1277,-1.3931,-1.6706,-1.0345,-0.684,-0.6161,-0.2885,-0.5325,-0.1855,0.0123,-0.7901,-1.2191,-0.4904,-0.7389,-0.6412,-0.682,-1.0084,-1.5213,-1.5702,-1.2818,-0.8976,-0.5444,0.1941,0.3069,0.1669,0.3683,-0.7578,-0.9941
-0.9864,-1.0877,-1.1102,-1.4353,-1.7044,-1.0052,-0.7532,-0.6711,-0.3621,-0.6079,-0.2903,-0.0294,-0.8939,-1.3385,-0.5591,-0.7492,-0.7173,-0.7794,-1.083,-1.5914,-1.6715,-1.3976,-0.9968,-0.6383,0.2003,0.2845,0.1279,0.3274,-0.7809,-1.0213
-1.0037,-1.1035,-1.0594,-1.4381,-1.6807,-0.9294,-0.7508,-0.6681,-0.38,-0.6359,-0.3643,-0.0741,-0.9573,-1.4222,-0.626,-0.7538,-0.7859,-0.8661,-1.1497,-1.6396,-1.7472,-1.5055,-1.0891,-0.719,0.1936,0.251,0.0837,0.2669,-0.7786,-1.0319
-0.9992,-1.0961,-0.9818,-1.4017,-1.604,-0.8135,-0.6859,-0.6108,-0.3421,-0.6213,-0.4077,-0.1243,-0.9834,-1.4672,-0.6834,-0.7498,-0.8363,-0.9317,-1.2036,-1.6625,-1.7916,-1.6,-1.1707,-0.7895,0.1693,0.2041,0.0278,0.1871,-0.7507,-1.0269
-0.9693,-1.0652,-0.8854,-1.329,-1.4835,-0.6688,-0.5752,-0.5107,-0.2574,-0.5751,-0.4275,-0.1836,-0.9805,-1.4756,-0.7229,-0.7327,-0.8587,-0.9672,-1.2385,-1.658,-1.8014,-1.6756,-1.237,-0.854,0.1262,0.1447,-0.0455,0.0903,-0.6988,-1.0075
-0.9117,-1.01,-0.7777,-1.2256,-1.3323,-0.5099,-0.4402,-0.3854,-0.142,-0.512,-0.4349,-0.2549,-0.9603,-1.4536,-0.7369,-0.6975,-0.846,-0.9659,-1.2489,-1.6267,-1.7774,-1.7268,-1.2831,-0.9159,0.0672,0.0759,-0.1389,-0.0192,-0.6253,-0.9751
-0.8261,-0.9296,-0.6652,-1.0997,-1.1668,-0.3534,-0.3035,-0.2554,-0.0159,-0.4469,-0.4422,-0.3396,-0.9348,-1.4108,-0.7213,-0.6401,-0.7949,-0.9245,-1.2306,-1.572,-1.7242,-1.75,-1.3047,-0.9765,-0.0011,0.0038,-0.2511,-0.1351,-0.5339,-0.9306
-0.7166,-0.825,-0.5523,-0.9622,-1.0051,-0.2154,-0.1854,-0.1398,0.1008,-0.3919,-0.4595,-0.436,-0.9144,-1.3586,-0.6759,-0.5598,-0.7069,-0.8449,-1.1833,-1.5004,-1.6507,-1.7442,-1.2996,-1.0349,-0.0698,-0.0647,-0.3765,-0.2494,-0.4297,-0.8755
-0.5925,-0.7003,-0.4418,-0.8258,-0.8654,-0.1095,-0.102,-0.054,0.1926,-0.3546,-0.4921,-0.5391,-0.9063,-1.3088,-0.6059,-0.4609,-0.5895,-0.7344,-1.1113,-1.4215,-1.569,-1.7123,-1.27,-1.0887,-0.1296,-0.1226,-0.5059,-0.3533,-0.3194,-0.8125
-0.4678,-0.5645,-0.3362,-0.705,-0.7636,-0.0441,-0.0625,-0.0062,0.2506,-0.3361,-0.5394,-0.6409,-0.9133,-1.2718,-0.5217,-0.3528,-0.4557,-0.6058,-1.0244,-1.347,-1.493,-1.6618,-1.2229,-1.135,-0.1728,-0.1645,-0.6283,-0.4385,-0.2113,-0.7457
-0.3595,-0.4309,-0.2379,-0.6136,-0.7113,-0.0216,-0.0688,0.003,0.274,-0.3327,-0.5958,-0.7321,-0.9349,-1.2558,-0.4379,-0.25,-0.323,-0.4761,-0.937,-1.2895,-1.4366,-1.6046,-1.1707,-1.1721,-0.1957,-0.1878,-0.7332,-0.4987,-0.1141,-0.681
-0.2845,-0.3154,-0.1508,-0.5632,-0.7134,-0.038,-0.1145,-0.0197,0.2693,-0.3366,-0.6526,-0.8043,-0.9674,-1.2654,-0.3705,-0.1697,-0.2104,-0.3638,-0.8654,-1.2603,-1.4111,-1.5551,-1.1282,-1.2001,-0.1992,-0.1933,-0.8128,-0.5311,-0.0358,-0.6249
-0.2557,-0.2344,-0.0803,-0.5608,-0.7677,-0.0845,-0.1866,-0.0624,0.2479,-0.3391,-0.7007,-0.8516,-1.0055,-1.3008,-0.3342,-0.1279,-0.135,-0.2853,-0.8245,-1.2677,-1.4235,-1.5272,-1.1096,-1.2206,-0.1888,-0.1856,-0.8637,-0.5373,0.0179,-0.5836
-0.2789,-0.2008,-0.0334,-0.6075,-0.865,-0.1497,-0.2683,-0.1115,0.2224,-0.3332,-0.733,-0.8722,-1.0437,-1.3582,-0.3387,-0.1365,-0.1081,-0.2512,-0.8247,-1.3148,-1.4751,-1.5311,-1.1247,-1.2365,-0.1732,-0.1718,-0.8868,-0.5239,0.0441,-0.561
-0.3509,-0.221,-0.0173,-0.6977,-0.9912,-0.2227,-0.3417,-0.1552,0.203,-0.3163,-0.7466,-0.8694,-1.0772,-1.431,-0.3861,-0.1994,-0.1328,-0.2647,-0.8687,-1.3987,-1.561,-1.5704,-1.1755,-1.2504,-0.1615,-0.1607,-0.8876,-0.5011,0.044,-0.558
-0.4592,-0.2929,-0.0382,-0.8198,-1.1301,-0.2947,-0.3926,-0.1867,0.1942,-0.291,-0.7432,-0.8505,-1.1028,-1.5105,-0.4692,-0.3116,-0.2026,-0.3196,-0.9503,-1.5105,-1.6708,-1.6405,-1.2552,-1.264,-0.1617,-0.1611,-0.8748,-0.4816,0.0222,-0.5709
-0.5842,-0.4057,-0.0982,-0.958,-1.2664,-0.3603,-0.4125,-0.2055,0.1937,-0.2647,-0.7285,-0.8261,-1.119,-1.5878,-0.5722,-0.4589,-0.3023,-0.4014,-1.0552,-1.6366,-1.791,-1.7285,-1.3485,-1.2771,-0.178,-0.1801,-0.8581,-0.4785,-0.0136,-0.5925
-0.7027,-0.5415,-0.1945,-1.0948,-1.3879,-0.4171,-0.4006,-0.2171,0.1928,-0.2471,-0.711,-0.8078,-1.1255,-1.6547,-0.6724,-0.6204,-0.4104,-0.4892,-1.1625,-1.7609,-1.9066,-1.8156,-1.4343,-1.2877,-0.2114,-0.2219,-0.8462,-0.5027,-0.0537,-0.6125
-0.7928,-0.6797,-0.3177,-1.2148,-1.4869,-0.4653,-0.3627,-0.2309,0.1797,-0.2468,-0.6991,-0.8053,-1.1229,-1.7056,-0.7451,-0.7732,-0.5033,-0.5595,-1.2496,-1.8683,-2.0046,-1.8814,-1.4895,-1.2922,-0.2585,-0.2865,-0.8447,-0.5595,-0.0879,-0.6207
-0.8398,-0.8012,-0.4538,-1.3073,-1.5605,-0.5059,-0.3089,-0.2561,0.1437,-0.2678,-0.6989,-0.8244,-1.1127,-1.7381,-0.7696,-0.8968,-0.5605,-0.5917,-1.2972,-1.9487,-2.0767,-1.9098,-1.4954,-1.287,-0.3135,-0.3682,-0.8546,-0.6462,-0.1078,-0.6089
-0.8404,-0.8939,-0.5866,-1.3699,-1.611,-0.5401,-0.2511,-0.2988,0.0795,-0.3074,-0.712,-0.8652,-1.0978,-1.7548,-0.7361,-0.9789,-0.5698,-0.5735,-1.2953,-2.0001,-2.1222,-1.8946,-1.4439,-1.2698,-0.3679,-0.4556,-0.8712,-0.75,-0.1078,-0.5748
-0.8063,-0.956,-0.7024,-1.4093,-1.6453,-0.5699,-0.1993,-0.3579,-0.0084,-0.355,-0.7353,-0.9215,-1.0825,-1.7637,-0.651,-1.0197,-0.5328,-0.5072,-1.248,-2.0303,-2.1491,-1.8436,-1.3418,-1.2411,-0.4119,-0.5315,-0.885,-0.8476,-0.0878,-0.524
-0.7642,-0.9983,-0.795,-1.4415,-1.6746,-0.5981,-0.1595,-0.4237,-0.1031,-0.3933,-0.7602,-0.9813,-1.0737,-1.7781,-0.5407,-1.0335,-0.4675,-0.4126,-1.1762,-2.0577,-2.1743,-1.7808,-1.2137,-1.2056,-0.4353,-0.574,-0.8829,-0.9074,-0.0542,-0.4711
-0.7534,-1.043,-0.8702,-1.4895,-1.714,-0.6297,-0.1315,-0.4777,-0.175,-0.401,-0.7741,-1.0285,-1.0799,-1.8156,-0.45,-1.0483,-0.4083,-0.3279,-1.1167,-2.1088,-2.2217,-1.7436,-1.0995,-1.172,-0.4279,-0.5593,-0.8504,-0.8935,-0.0199,-0.4396
-0.8202,-1.1211,-0.9467,-1.5802,-1.7807,-0.6721,-0.1085,-0.4935,-0.1845,-0.356,-0.7613,-1.0455,-1.111,-1.8949,-0.4365,-1.1028,-0.403,-0.3047,-1.1179,-2.2144,-2.3184,-1.7772,-1.0483,-1.152,-0.3811,-0.4655,-0.7747,-0.7721,-0.004,-0.4589
-1.0108,-1.2671,-1.0535,-1.7391,-1.8915,-0.7343,-0.0777,-0.4415,-0.0867,-0.2391,-0.7047,-1.0162,-1.1754,-2.0325,-0.5602,-1.2394,-0.5044,-0.3998,-1.2304,-2.4041,-2.4896,-1.9253,-1.1092,-1.1571,-0.2892,-0.2764,-0.6461,-0.5179,-0.0288,-0.5598
-1.3613,-1.5123,-1.2234,-1.9848,-2.0582,-0.8247,-0.021,-0.2933,0.1591,-0.0364,-0.5877,-0.928,-1.2771,-2.2374,-0.8694,-1.4959,-0.7598,-0.6629,-1.4964,-2.6997,-2.7518,-2.2194,-1.3197,-1.1952,-0.1503,0.0145,-0.46,-0.121,-0.1152,-0.7677
-1.8875,-1.8766,-1.4831,-2.3235,-2.2829,-0.948,0.082,-0.0286,0.5802,0.2582,-0.3967,-0.7742,-1.4119,-2.507,-1.387,-1.8957,-1.1981,-1.1231,-1.9373,-3.1079,-3.1073,-2.6679,-1.6947,-1.2654,0.0328,0.4021,-0.2172,0.4089,-0.278,-1.0957
-2.5763,-2.3606,-1.8438,-2.7448,-2.5539,-1.1024,0.2504,0.3583,1.1795,0.6416,-0.1234,-0.555,-1.5653,-2.8229,-2.0987,-2.4386,-1.818,-1.7767,-2.543,-3.6152,-3.5388,-3.2482,-2.218,-1.3556,0.2533,0.8687,0.0767,1.0412,-0.5204,-1.5383
-3.3807,-2.9398,-2.2936,-3.2194,-2.8444,-1.2776,0.4979,0.8534,1.9278,1.1009,0.2323,-0.2772,-1.7112,-3.1506,-2.9479,-3.0945,-2.5801,-2.5789,-3.2664,-4.1843,-4.0081,-3.9036,-2.8384,-1.4407,0.5013,1.3858,0.4123,1.7269,-0.8298,-2.0671
-4.2211,-3.5631,-2.7955,-3.7001,-3.1141,-1.4552,0.828,1.4202,2.7616,1.6132,0.6607,0.0468,-1.8142,-3.4417,-3.8388,-3.8024,-3.4057,-3.4434,-4.0242,-4.7558,-4.4582,-4.5479,-3.4732,-1.4859,0.7653,1.9173,0.7778,2.4036,-1.1766,-2.6312
-4.9933,-4.156,-3.2901,-4.1263,-3.3156,-1.6094,1.2313,2.0022,3.5869,2.1464,1.1421,0.4008,-1.8344,-3.6403,-4.648,-4.4751,-4.1844,-4.2503,-4.7066,-5.254,-4.8205,-5.0763,-4.0187,-1.452,1.0331,2.4224,1.1599,3.005,-1.5158,-3.1605
-5.5824,-4.6297,-3.7042,-4.4308,-3.4009,-1.7111,1.6844,2.5296,4.2915,2.6622,1.6475,0.7673,-1.734,-3.6909,-5.2425,-5.0105,-4.7887,-4.8634,-5.192,-5.5959,-5.0245,-5.3815,-4.3652,-1.3033,1.2919,2.8602,1.5439,3.4697,-1.7924,-3.5743
-5.8807,-4.8942,-3.9626,-4.5501,-3.3312,-1.7319,2.1522,2.9301,4.7629,3.1197,2.1422,1.1286,-1.4847,-3.5486,-5.5016,-5.3065,-5.0955,-5.1527,-5.3679,-5.7043,-5.009,-5.3723,-4.4166,-1.0159,1.5281,3.1929,1.9146,3.7513,-1.9495,-3.7932
-5.8054,-4.8734,-4.001,-4.4342,-3.084,-1.6497,2.593,3.1416,4.9083,3.48,2.5894,1.469,-1.074,-3.1877,-5.3389,-5.2782,-5.0081,-5.0192,-5.1504,-5.5207,-4.7334,-4.9908,-4.1082,-0.5836,1.7268,3.3902,2.2566,3.8249,-1.9383,-3.752
-5.3141,-4.5198,-3.7787,-4.0566,-2.6589,-1.4532,2.9642,3.1248,4.674,3.7116,2.9548,1.7754,-0.5105,-2.6087,-4.7184,-4.8738,-4.4761,-4.4161,-4.5015,-5.0163,-4.1865,-4.2243,-3.4202,-0.0214,1.8718,3.4333,2.5553,3.6914,-1.7282,-3.4132
-4.4136,-3.8245,-3.2871,-3.4204,-2.0793,-1.1455,3.2291,2.8712,4.0579,3.7948,3.2118,2.0378,0.176,-1.8406,-3.6634,-4.0854,-3.5076,-3.3605,-3.439,-4.2002,-3.3903,-3.1105,-2.3842,0.636,1.9481,3.3184,2.7982,3.3764,-1.3142,-2.7763
-3.1619,-2.8218,-2.5534,-2.5608,-1.3903,-0.7451,3.362,2.4053,3.1121,3.7244,3.3449,2.25,0.9364,-0.9387,-2.2539,-2.9541,-2.1705,-1.9342,-2.036,-3.1206,-2.3994,-1.7339,-1.0803,1.3379,1.9437,3.0575,2.9755,2.9257,-0.7207,-1.8814
-1.6601,-1.5865,-1.6385,-1.5416,-0.6531,-0.2847,3.3521,1.78,1.935,3.5098,3.3503,2.4083,1.709,0.0222,-0.6146,-1.5653,-0.5842,-0.2719,-0.4117,-1.8601,-1.2934,-0.2132,0.3743,2.025,1.8524,2.6774,3.0811,2.3968,0.0018,-0.8049
-0.0383,-0.2234,-0.6276,-0.4476,0.0642,0.1924,3.2039,1.0664,0.6528,3.1736,3.2356,2.5103,2.4276,0.9583,1.1048,-0.0381,1.0998,1.4611,1.2875,-0.5239,-0.1668,1.3161,1.8427,2.6372,1.6751,2.2151,3.112,1.849,0.7839,0.3525
1.5641,1.1482,0.3825,0.6283,0.6963,0.6385,2.9367,0.3397,-0.6031,2.7465,3.0159,2.5545,3.0306,1.7895,2.7522,1.4926,2.7214,3.0956,2.9096,0.7753,0.8858,2.7219,3.1889,3.1222,1.4193,1.7116,3.068,1.3339,1.5494,1.482
3.0195,2.4127,1.2996,1.5985,1.1918,1.0093,2.5813,-0.3331,-1.7189,2.263,2.7109,2.5392,3.4707,2.451,4.1947,2.8965,4.1373,4.485,4.3204,1.935,1.7831,3.8946,4.2974,3.4421,1.0971,1.2048,2.9503,0.8883,2.2289,2.4854
4.2305,3.4766,2.051,2.3955,1.5213,1.2721,2.1768,-0.9025,-2.6151,1.7579,2.3421,2.4638,3.7219,2.9036,5.336,4.0674,5.2415,5.5271,5.4221,2.8779,2.4699,4.7613,5.0885,3.5785,0.7232,0.724,2.7623,0.5311,2.7707,3.2902
5.1422,4.2825,2.5944,2.982,1.6836,1.4128,1.7666,-1.3407,-3.255,1.2631,1.9309,2.33,3.7833,3.1398,6.127,4.9384,5.9798,6.1754,6.1653,3.5639,2.9247,5.2943,5.5288,3.5341,0.3122,0.2865,2.5096,0.2638,3.1491,3.86
5.7471,4.8154,2.923,3.3559,1.7054,1.4394,1.3933,-1.6405,-3.6429,0.8063,1.4983,2.1433,3.6795,3.1843,6.5689,5.4901,6.3527,6.4406,6.5526,3.9936,3.1619,5.5116,5.6321,3.332,-0.1235,-0.103,2.2003,0.0742,3.3665,4.1972
6.081,5.1013,3.0633,3.5483,1.6368,1.3808,1.0938,-1.8105,-3.8152,0.41,1.0647,1.9133,3.4554,3.0883,6.7078,5.7497,6.4099,6.3825,6.6335,4.2056,3.228,5.4696,5.4545,3.0108,-0.5747,-0.4501,1.8446,-0.0582,3.4504,4.3379
6.2119,5.1979,3.0665,3.6149,1.5407,1.2815,0.8951,-1.8684,-3.8253,0.0909,0.6496,1.6533,3.168,2.9199,6.6235,5.7824,6.2368,6.0941,6.4916,4.2664,3.1918,5.2512,5.0815,2.6182,-1.0349,-0.7669,1.4552,-0.1569,3.446,4.3421
6.2242,5.1804,2.9965,3.6241,1.4815,1.1933,0.8117,-1.8341,-3.7294,-0.1404,0.2715,1.3792,2.8766,2.7517,6.4133,5.6763,5.9365,5.6832,6.2283,4.2569,3.1311,4.9503,4.6123,2.2038,-1.4992,-1.0665,1.046,-0.2429,3.4066,4.2796
6.2024,5.1263,2.9168,3.6434,1.5139,1.1668,0.8453,-1.724,-3.573,-0.2793,-0.0531,1.1072,2.6331,2.6484,6.175,5.5261,5.6114,5.2544,5.9446,4.2565,3.1196,4.6559,4.1435,1.8123,-1.9618,-1.3582,0.6322,-0.3313,3.3831,4.2161
6.2163,5.1022,2.8804,3.7278,1.6747,1.243,0.9876,-1.5482,-3.384,-0.3261,-0.3098,0.8525,2.4757,2.6575,5.9913,5.4159,5.3473,4.8933,5.7255,4.3303,3.2144,4.4402,3.7549,1.4793,-2.4138,-1.6434,0.2295,-0.429,3.4162,4.2023
6.3113,5.1537,2.9222,3.9125,1.979,1.4485,1.2234,-1.3096,-3.1711,-0.2843,-0.4875,0.628,2.4256,2.8047,5.9177,5.4065,5.2022,4.6575,5.6286,4.519,3.4492,4.3501,3.5006,1.2286,-2.8419,-1.9148,-0.1451,-0.5344,3.5295,4.2665
6.5037,5.301,3.0566,4.2089,2.4209,1.7917,1.536,-1.0063,-2.9275,-0.1596,-0.579,0.4438,2.4872,3.0925,5.9765,5.5276,5.2009,4.5721,5.6791,4.835,3.8302,4.4047,3.4057,1.0729,-3.228,-2.1563,-0.4738,-0.638,3.7281,4.4132
6.7818,5.5391,3.2774,4.6055,2.9765,2.2636,1.9103,-0.6348,-2.638,0.0419,-0.581,0.3082,2.652,3.5039,6.1573,5.7764,5.3362,4.6309,5.8699,5.2628,4.3387,4.597,3.4682,1.0159,-3.5503,-2.3457,-0.7371,-0.7241,3.9991,4.6261
7.1116,5.8418,3.5611,5.0717,3.61,2.8386,2.335,-0.1937,-2.2874,0.3147,-0.4935,0.2287,2.9034,4.008,6.4232,6.1212,5.5742,4.8022,6.1679,5.7643,4.936,4.9003,3.6648,1.0554,-3.7856,-2.4588,-0.9148,-0.7728,4.315,4.8738
7.446,6.1685,3.8719,5.5642,4.2783,3.4788,2.8035,0.3127,-1.867,0.6547,-0.3192,0.2129,3.2221,4.5672,6.7206,6.5102,5.8637,5.0372,6.5231,6.2871,5.5714,5.2753,3.9588,1.1867,-3.9131,-2.4733,-0.9867,-0.7627,4.6394,5.1181
7.7347,6.473,4.1674,6.0345,4.9369,4.1382,3.3118,0.8736,-1.3782,1.0595,-0.0621,0.2696,3.5907,5.1436,6.9915,6.8827,6.1475,5.2803,6.8797,6.7742,6.1914,5.6791,4.3079,1.4051,-3.9176,-2.3734,-0.9339,-0.6737,4.9336,5.3209
7.9343,6.7114,4.406,6.4363,5.5447,4.7687,3.8565,1.4715,-0.8339,1.5286,0.2734,0.4078,3.997,5.7049,7.1843,7.1803,6.3725,5.4795,7.1863,7.1737,6.7479,6.0721,4.6714,1.7073,-3.7931,-2.1529,-0.7418,-0.4903,5.1618,5.4516
8.0151,6.8489,4.5534,6.7319,6.0674,5.3251,4.4321,2.0839,-0.2558,2.0627,0.6826,0.6359,4.4355,6.2279,7.2621,7.357,6.4987,5.594,7.4039,7.4461,7.2048,6.4236,5.0151,2.0907,-3.545,-1.8178,-0.4021,-0.2042,5.297,5.4905
7.9657,6.8646,4.588,6.8967,6.4807,5.7709,5.0301,2.6868,0.3299,2.663,1.1612,0.9597,4.9065,6.7002,7.2083,7.3859,6.504,5.5999,7.5112,7.5701,7.5421,6.715,5.3145,2.5524,-3.1907,-1.3863,0.0841,0.1835,5.3242,5.4314
7.7934,6.7531,4.505,6.9222,6.7721,6.0824,5.6387,3.2581,0.8967,3.3292,1.7041,1.3802,5.4148,7.1197,7.0269,7.2616,6.386,5.4924,7.5056,7.5436,7.757,6.9407,5.5571,3.0869,-2.759,-0.8877,0.7046,0.6612,5.2422,5.2817
7.5221,6.5254,4.3177,6.8168,6.942,6.2525,6.2444,3.7801,1.4221,4.0582,2.3049,1.8916,5.9665,7.4934,6.7413,6.9996,6.1606,5.2853,7.4024,7.3839,7.863,7.1065,5.7425,3.6836,-2.2874,-0.3592,1.4352,1.2076,5.0631,5.0602
7.1889,6.2063,4.0557,6.6039,7.0041,6.2911,6.8343,4.2422,1.8902,4.8416,2.9542,2.4798,6.5659,7.8343,6.3888,6.6325,5.8582,5.0075,7.2301,7.1238,7.8865,7.2273,5.8811,4.3259,-1.8173,0.1582,2.2403,1.7931,4.8114,4.7948
6.8379,5.8319,3.7606,6.32,6.9834,6.2242,7.3973,4.6406,2.2924,5.664,3.638,3.1222,7.213,8.1588,6.0146,6.2046,5.5183,4.6984,7.0257,6.8076,7.8624,7.3236,5.991,4.9908,-1.3894,0.6246,3.0755,2.3824,4.5196,4.5179
6.5147,5.4451,3.4789,6.0094,6.9135,6.0898,7.9252,4.9777,2.6267,6.5018,4.3367,3.7879,7.9007,8.483,5.6646,5.7655,5.183,4.401,6.8279,6.4843,7.8287,7.4166,6.0931,5.6505,-1.0383,1.0057,3.8906,2.9385,4.2242,4.2625
6.2593,5.0896,3.2547,5.7187,6.8309,5.9312,8.4116,5.2598,2.8963,7.3236,5.0248,4.4402,8.6142,8.8193,5.3788,5.363,4.8906,4.1544,6.6704,6.2013,7.8207,7.5245,6.2069,6.2744,-0.7878,1.2772,4.6355,3.426,3.9602,4.0578
6.1011,4.8044,3.122,5.489,6.769,5.7898,8.8508,5.4942,3.1066,8.0912,5.6719,5.04,9.3302,9.1733,5.186,5.0369,4.6696,3.9878,6.5774,5.997,7.8652,7.6584,6.3448,6.8329,-0.648,1.4271,5.2647,3.8148,3.756,3.9257
6.054,4.6173,3.0994,5.3493,6.7516,5.6967,9.2354,5.6866,3.2639,8.7629,6.2447,5.5495,10.0178,9.5414,5.0991,4.8138,4.5348,3.9147,6.5588,5.8953,7.976,7.8204,6.5094,7.2999,-0.6148,1.4569,5.7424,4.0834,3.6295,3.8776
6.1144,4.5405,3.1871,5.3109,6.7872,5.6677,9.5544,5.8383,3.3728,9.2973,6.7106,5.9367,10.6407,9.9094,5.1136,4.703,4.4855,3.9317,6.6095,5.9013,8.1508,8.002,6.6921,7.6552,-0.6714,1.3811,6.0463,4.2203,3.5859,3.913
6.2618,4.5676,3.3674,5.3649,6.8669,5.6999,9.7935,5.9458,3.436,9.6588,7.0413,6.1786,11.1605,10.2535,5.2083,4.6951,4.506,4.0192,6.7102,6.0001,8.3709,8.1862,6.8748,7.8868,-0.7908,1.2246,6.1697,4.2256,3.6163,4.0192
6.4618,4.674,3.608,5.4831,6.9655,5.7734,9.936,6.0017,3.4546,9.8224,7.2165,6.2635,11.541,10.5431,5.348,4.7631,4.5684,4.1451,6.8306,6.1588,8.6039,8.3493,7.0331,7.9916,-0.9407,1.0198,6.1215,4.11,3.6998,4.1725
6.6721,4.8199,3.8671,5.6228,7.0457,5.8553,9.9662,5.997,3.4295,9.7779,7.2273,6.1919,11.7531,10.7454,5.4894,4.8666,4.6367,4.2704,6.9347,6.3314,8.8088,8.4658,7.1418,7.9754,-1.0876,0.8022,5.9252,3.894,3.8064,4.3415
6.8482,4.9565,4.1002,5.7337,7.0654,5.9066,9.8723,5.924,3.3632,9.5322,7.0775,5.9765,11.7793,10.8303,5.5881,4.957,4.673,4.3553,6.9861,6.4663,8.9421,8.5116,7.1798,7.8518,-1.2016,0.606,5.6143,3.6051,3.9022,4.4913
6.9503,5.0335,4.2656,5.7674,6.9854,5.8902,9.65,5.7791,3.2616,9.1083,6.7835,5.6397,11.6161,10.7758,5.6052,4.9861,4.643,4.3659,6.9543,6.5149,8.9655,8.468,7.1337,7.6402,-1.2594,0.4603,5.2284,3.2751,3.9547,4.589
6.9479,5.0071,4.3297,5.6849,6.7773,5.7769,9.304,5.5651,3.1339,8.5428,6.3719,5.2121,11.2751,10.5708,5.5134,4.913,4.5214,4.279,6.8186,6.4394,8.8516,8.3237,6.9993,7.3621,-1.2465,0.386,4.8079,2.9365,3.9382,4.6083
6.8233,4.8473,4.2702,5.4633,6.4285,5.551,8.8492,5.2912,2.9922,7.8806,5.8761,4.729,10.7807,10.2172,5.3003,4.7102,4.2952,4.0847,6.5707,6.218,8.5876,8.0759,6.7812,7.0391,-1.1579,0.3945,4.3894,2.62,3.8376,4.5334
6.5717,4.5416,4.0778,5.0988,5.9442,5.2114,8.3083,4.9726,2.8505,7.1701,5.3329,4.2283,10.1675,9.7291,4.968,4.3672,3.9644,3.7864,6.2146,5.8476,8.1767,7.7294,6.4905,6.69,-0.9964,0.4883,4.0029,2.3522,3.6496,4.3598
6.1997,4.0966,3.7559,4.6053,5.3457,4.7711,7.7105,4.6291,2.7236,6.4577,4.7794,3.7477,9.4756,9.1308,4.5302,3.8903,3.5398,3.3979,5.7639,5.3422,7.6361,7.2959,6.143,6.3301,-0.7703,0.6634,3.6709,2.1548,3.3815,4.0941
5.7216,3.5347,3.3195,4.0103,4.6659,4.253,7.0875,4.2828,2.6254,5.7849,4.2509,3.3227,8.7467,8.4537,4.0069,3.2997,3.0397,2.939,5.2389,4.7288,6.9935,6.7922,5.7559,5.9721,-0.49,0.9116,3.4094,2.0441,3.0486,3.7508
5.156,2.8894,2.7924,3.3492,3.9435,3.6854,6.4718,3.9566,2.569,5.1862,3.7795,2.9842,8.0214,7.7325,3.4199,2.6249,2.4844,2.4303,4.6618,4.0415,6.2822,6.2379,5.3468,5.6269,-0.1656,1.224,3.2295,2.0305,2.67,3.3487
4.5225,2.1989,2.2038,2.6588,3.2177,3.0987,5.8938,3.6722,2.5656,4.6886,3.3927,2.7564,7.3364,7.0027,2.788,1.8998,1.8932,1.8898,4.0538,3.3162,5.5378,5.6544,4.9318,5.3064,0.1952,1.5931,3.1398,2.1186,2.2648,2.9071
3.8404,1.5006,1.5848,1.9737,2.5249,2.5225,5.3813,3.4496,2.6244,4.312,3.1111,2.6529,6.7236,6.2985,2.1265,1.1577,1.2817,1.3306,3.4334,2.5867,4.7945,5.0631,4.5255,5.0247,0.5875,2.013,3.1469,2.3061,1.8499,2.444
3.1289,0.8269,0.9658,1.3233,1.8965,1.9842,4.9581,3.3054,2.7516,4.0696,2.9462,2.6728,6.2089,5.6507,1.4472,0.4284,0.6612,0.7612,2.8159,1.8817,4.0839,4.4854,4.1413,4.7986,1.0081,2.479,3.2556,2.5818,1.4387,1.9742
2.4075,0.2031,0.3746,0.7318,1.358,1.5092,4.6435,3.2522,2.9497,3.9671,2.8977,2.7973,5.8112,5.0857,0.7607,-0.2638,0.0404,0.1866,2.2138,1.2242,3.4333,3.9417,3.7914,4.6465,1.4539,2.9849,3.4658,2.9247,1.0416,1.5101
1.6975,-0.3529,-0.1651,0.2179,0.9291,1.1191,4.4501,3.2963,3.2164,4.0022,2.9518,2.9887,5.5403,4.6234,0.0792,-0.9014,-0.5731,-0.3882,1.6379,0.6312,2.8649,3.4506,3.4867,4.5844,1.9205,3.5215,3.7701,3.3028,0.6665,1.0621
1.0216,-0.8301,-0.635,-0.2048,0.6221,0.8309,4.382,3.4364,3.5431,4.1635,3.0824,3.1948,5.3958,4.2754,-0.5821,-1.4726,-1.1697,-0.9556,1.0985,0.1142,2.3942,3.0275,3.2361,4.6221,2.4013,4.0747,4.1509,3.6763,0.3203,0.6393
0.4042,-1.2226,-1.023,-0.5278,0.4405,0.6537,4.4323,3.6611,3.9145,4.4292,3.256,3.3589,5.3664,4.0435,-1.2041,-1.9706,-1.7363,-1.5024,0.6054,-0.3207,2.0291,2.6832,3.0454,4.7588,2.888,4.626,4.5797,4.0021,0.0085,0.2494
-0.1304,-1.5286,-1.3239,-0.7487,0.3777,0.5863,4.5817,3.9483,4.308,4.7678,3.4371,3.4321,5.43,3.9186,-1.7648,-2.3919,-2.2553,-2.0093,0.1691,-0.6713,1.7686,2.4226,2.9165,4.9804,3.3713,5.1531,5.0193,4.2412,-0.2644,-0.1018
-0.5601,-1.7497,-1.5392,-0.8722,0.4158,0.6143,4.7972,4.265,4.6943,5.1389,3.5952,3.3863,5.5559,3.8811,-2.2418,-2.7347,-2.7057,-2.4519,-0.2002,-0.9395,1.6032,2.2441,2.8474,5.2584,3.8417,5.6324,5.4271,4.3659,-0.4968,-0.411
-0.8671,-1.8904,-1.6763,-0.9106,0.5261,0.7102,5.0342,4.5685,5.0386,5.4957,3.7085,3.2226,5.7079,3.903,-2.6151,-2.9978,-3.0658,-2.8042,-0.4931,-1.13,1.5163,2.1401,2.8336,5.5532,4.2901,6.0405,5.7612,4.3658,-0.6906,-0.678
-1.0414,-1.9588,-1.7476,-0.8832,0.6727,0.8358,5.2408,4.8113,5.3025,5.7882,3.7656,2.9704,5.8482,3.9519,-2.8706,-3.1797,-3.3174,-3.0436,-0.7025,-1.2498,1.4867,2.0989,2.8688,5.8193,4.7081,6.3575,5.986,4.2486,-0.8516,-0.9045
-1.0814,-1.9647,-1.7677,-0.8136,0.818,0.9487,5.365,4.9467,5.4484,5.9686,3.7624,2.6789,5.9426,3.996,-3.0012,-3.2787,-3.4491,-3.1556,-0.8248,-1.3064,1.4926,2.1073,2.9467,6.0126,5.0884,6.5682,6.0769,4.037,-0.9885,-1.0934
-0.9944,-1.9193,-1.7512,-0.7251,0.9294,1.0105,5.3633,4.9363,5.4446,5.9969,3.6975,2.4002,5.9638,4.0087,-3.0073,-3.2935,-3.4586,-3.1373,-0.8605,-1.3067,1.5157,2.1529,3.062,6.0966,5.4242,6.6631,6.0211,3.7611,-1.1102,-1.2468
-0.7957,-1.8328,-1.7103,-0.6371,0.9845,0.9947,5.2087,4.7571,5.2714,5.8462,3.5664,2.1713,5.8937,3.9724,-2.8954,-3.2235,-3.3534,-2.9979,-0.8149,-1.2565,1.5431,2.226,3.2098,6.0471,5.7085,6.6382,5.817,3.4481,-1.2227,-1.3646
-0.507,-1.7141,-1.6531,-0.562,0.9743,0.8923,4.8948,4.4063,4.9256,5.5069,3.3585,1.9997,5.7235,3.879,-2.6773,-3.0711,-3.1497,-2.7578,-0.6984,-1.1605,1.5682,2.3192,3.3845,5.854,5.9342,6.4947,5.4711,3.1155,-1.3263,-1.4438
-0.155,-1.5707,-1.5838,-0.504,0.9028,0.7131,4.4372,3.9034,4.4238,4.9887,3.0577,1.8602,5.4531,3.7294,-2.3698,-2.843,-2.8706,-2.4458,-0.5259,-1.0235,1.5894,2.4264,3.5784,5.522,6.0941,6.239,4.9972,2.7672,-1.4154,-1.4794
0.2295,-1.4094,-1.5041,-0.4606,0.7843,0.4829,3.8702,3.2874,3.8017,4.3198,2.6473,1.7029,5.0902,3.5314,-1.9951,-2.5521,-2.5445,-2.0962,-0.3171,-0.8518,1.6081,2.5413,3.7809,5.0697,6.1829,5.8847,4.4154,2.397,-1.4802,-1.4668
0.6135,-1.2387,-1.416,-0.4251,0.6397,0.2369,3.2407,2.6119,3.1099,3.5438,2.1191,1.4716,4.6498,3.2973,-1.5814,-2.2178,-2.2027,-1.7452,-0.0946,-0.6541,1.6262,2.657,3.9784,4.5281,6.1991,5.4532,3.7538,1.9967,-1.5107,-1.4043
0.9641,-1.0693,-1.3234,-0.3898,0.4906,0.0121,2.601,1.9366,2.4069,2.7148,1.4808,1.1247,4.1545,3.0425,-1.1614,-1.8653,-1.8768,-1.4266,0.1184,-0.4419,1.6452,2.7667,4.1571,3.9387,6.1467,4.9749,3.0503,1.5646,-1.501,-1.2954
1.2517,-0.9148,-1.2339,-0.3488,0.3557,-0.1613,2.0023,1.3189,1.7505,1.8916,0.7614,0.6521,3.6341,2.7843,-0.7699,-1.5233,-1.596,-1.169,0.3009,-0.2286,1.6656,2.8653,4.3059,3.3505,6.0363,4.4874,2.3519,1.1131,-1.4525,-1.1494
1.4541,-0.7906,-1.1573,-0.3,0.2474,-0.2646,1.4886,0.8052,1.1885,1.1317,0.0101,0.0815,3.1246,2.541,-0.4393,-1.2199,-1.3835,-0.9923,0.438,-0.0279,1.688,2.9509,4.4188,2.8151,5.8837,4.031,1.7118,0.6703,-1.3744,-0.9806
1.559,-0.7112,-1.1044,-0.2453,0.1708,-0.2935,1.093,0.4256,0.7522,0.486,-0.7101,-0.5261,2.6658,2.3312,-0.1942,-0.9785,-1.2538,-0.9059,0.5222,0.148,1.7133,3.0258,4.4965,2.381,5.7075,3.6441,1.1839,0.2753,-1.2825,-0.806
1.566,-0.6877,-1.0835,-0.1903,0.1241,-0.257,0.8349,0.1914,0.4539,-0.0057,-1.3331,-1.0914,2.2968,2.1722,-0.0478,-0.8147,-1.2114,-0.9084,0.5542,0.2904,1.7435,3.0954,4.5457,2.0876,5.5264,3.3565,0.8144,-0.0292,-1.1949,-0.6421
1.4857,-0.7253,-1.0984,-0.1421,0.1014,-0.1736,0.7198,0.0958,0.287,-0.3176,-1.8005,-1.5346,2.0517,2.0785,0.0006,-0.7338,-1.25,-0.9887,0.5425,0.3952,1.7819,3.1668,4.577,1.9597,5.3563,3.1854,0.6351,-0.2081,-1.1286,-0.5024
1.3371,-0.822,-1.1471,-0.1077,0.095,-0.0665,0.7402,0.1183,0.2309,-0.4388,-2.0707,-1.7925,1.9549,2.0606,-0.0349,-0.7307,-1.355,-1.1278,0.5007,0.4635,1.8327,3.247,4.6022,2.0048,5.2077,3.1326,0.6574,-0.2417,-1.0954,-0.3952
1.1442,-0.9691,-1.222,-0.0914,0.0984,0.0416,0.8772,0.2296,0.2568,-0.3739,-2.1247,-1.8294,2.0175,2.1228,-0.1307,-0.7922,-1.5063,-1.3028,0.4443,0.501,1.8997,3.3409,4.6315,2.2113,5.0857,3.1855,0.8705,-0.131,-1.1004,-0.3231
0.9305,-1.1536,-1.3119,-0.0953,0.1069,0.1317,1.1029,0.3974,0.334,-0.1422,-1.9669,-1.6406,2.2347,2.2622,-0.2599,-0.9002,-1.6834,-1.4913,0.3875,0.5157,1.9854,3.4495,4.6709,2.5512,4.9896,3.3197,1.2433,0.1032,-1.1414,-0.2828
0.7153,-1.361,-1.4049,-0.1191,0.117,0.1904,1.3839,0.5902,0.4342,0.224,-1.6228,-1.2496,2.5849,2.4672,-0.3999,-1.0368,-1.8701,-1.6758,0.3397,0.5159,2.0885,3.5691,4.7202,2.9834,4.9152,3.5043,1.7289,0.4251,-1.2112,-0.2669
0.5108,-1.5792,-1.4921,-0.1622,0.1242,0.2095,1.6837,0.7805,0.5349,0.6816,-1.1345,-0.7007,3.0321,2.7177,-0.5377,-1.1883,-2.058,-1.8473,0.303,0.5068,2.2023,3.6907,4.7729,3.4591,4.8564,3.707,2.2717,0.7919,-1.2995,-0.2656
0.3214,-1.8001,-1.5697,-0.2248,0.1214,0.1853,1.9666,0.9463,0.6199,1.1801,-0.5543,-0.05,3.5283,2.9861,-0.6731,-1.3476,-2.2476,-2.006,0.2722,0.4887,2.3148,3.8008,4.8168,3.9284,4.807,3.8991,2.8151,1.1617,-1.396,-0.2691
0.1447,-2.0204,-1.6401,-0.3087,0.0983,0.1177,2.2004,1.0714,0.6796,1.667,0.0616,0.6423,4.0197,3.2401,-0.817,-1.5143,-2.4466,-2.1601,0.2357,0.4569,2.4091,3.8834,4.8365,4.3449,4.7618,4.0591,3.3077,1.5,-1.4925,-0.2702
-0.0261,-2.2401,-1.7106,-0.4162,0.0425,0.0097,2.3593,1.146,0.71,2.0925,0.6587,1.3185,4.4526,3.447,-0.9859,-1.6931,-2.6664,-2.3214,0.1793,0.4026,2.4664,3.9218,4.8154,4.6716,4.7174,4.1744,3.709,1.7832,-1.5842,-0.2652
-0.1992,-2.4608,-1.7916,-0.5495,-0.057,-0.1333,2.4258,1.166,0.7118,2.4156,1.1898,1.9278,4.7798,3.5776,-1.1957,-1.8905,-2.9164,-2.5013,0.089,0.3158,2.4692,3.9021,4.7393,4.8828,4.6714,4.2402,3.9916,1.9992,-1.669,-0.2546
-0.3819,-2.6838,-1.8928,-0.7086,-0.2078,-0.3037,2.3914,1.1327,0.689,2.6078,1.6184,2.4285,4.966,3.6106,-1.4559,-2.1115,-3.2007,-2.7062,-0.0444,0.1879,2.405,3.8151,4.5983,4.9658,4.6212,4.2586,4.1418,2.1452,-1.7469,-0.2421
-0.579,-2.9085,-2.0203,-0.891,-0.4106,-0.4934,2.2568,1.0517,0.648,2.6559,1.9205,2.7906,4.9916,3.5352,-1.7655,-2.3576,-3.5153,-2.9354,-0.2238,0.0149,2.2685,3.6581,4.3895,4.9203,4.5639,4.2349,4.1584,2.2245,-1.8179,-0.2322
-0.7917,-3.1312,-2.1746,-1.0904,-0.6587,-0.6942,2.0315,0.9319,0.5962,2.5624,2.0854,2.9964,4.8536,3.3524,-2.1129,-2.6249,-3.8478,-3.181,-0.4442,-0.2011,2.0635,3.4363,4.117,4.7557,4.4954,4.1756,4.0503,2.2433,-1.8808,-0.2282
-1.0168,-3.3455,-2.3498,-1.2971,-0.9377,-0.898,1.7323,0.7846,0.5414,2.3445,2.1152,3.0415,4.5652,3.0746,-2.4775,-2.9041,-4.1795,-3.4286,-0.6933,-0.4505,1.8025,3.1617,3.7926,4.4896,4.4106,4.0863,3.8339,2.2081,-1.9325,-0.231
-1.2468,-3.5426,-2.5339,-1.4987,-1.2272,-1.0971,1.3819,0.6222,0.4901,2.0304,2.0226,2.9352,4.1539,2.7241,-2.8336,-3.1812,-4.4878,-3.6602,-0.953,-0.717,1.5052,2.853,3.4339,4.1444,4.3047,3.9706,3.5307,2.1248,-1.9677,-0.2378
-1.4702,-3.7123,-2.7111,-1.6811,-1.5041,-1.2844,1.0068,0.4572,0.4475,1.6561,1.829,2.6992,3.6573,2.3297,-3.1541,-3.4391,-4.7495,-3.8562,-1.2019,-0.9792,1.1964,2.5326,3.0628,3.7456,4.1738,3.8307,3.1651,1.9992,-1.9796,-0.2428
-1.6717,-3.8448,-2.8644,-1.8307,-1.7462,-1.4528,0.6346,0.3009,0.4163,1.2602,1.5623,2.3661,3.1189,1.9242,-3.4151,-3.6592,-4.9438,-3.9984,-1.4176,-1.2132,0.9026,2.2245,2.7024,3.3198,4.0155,3.6673,2.7633,1.838,-1.9616,-0.2383
-1.8339,-3.9315,-2.9782,-1.9358,-1.9354,-1.5963,0.2913,0.1624,0.3964,0.8799,1.2543,1.977,2.5841,1.5406,-3.5981,-3.8238,-5.0551,-4.0722,-1.5796,-1.3957,0.6496,1.952,2.3747,2.8938,3.8301,3.4817,2.3519,1.651,-1.909,-0.2167
-1.9391,-3.9659,-3.0409,-1.9884,-2.0605,-1.7099,-0.0013,0.0476,0.385,0.5477,0.9379,1.5773,2.0958,1.2091,-3.6916,-3.9175,-5.0737,-4.0685,-1.6712,-1.5071,0.4594,1.7349,2.0986,2.4936,3.6202,3.2764,1.9574,1.4514,-1.8201,-0.1721
-1.9715,-3.9436,-3.0461,-1.9843,-2.1169,-1.7899,-0.2282,-0.0405,0.3767,0.2881,0.6449,1.2122,1.6907,0.9552,-3.6909,-3.9292,-4.9967,-3.9842,-1.681,-1.5333,0.3494,1.5887,1.8879,2.1434,3.3907,3.0564,1.6051,1.2559,-1.6977,-0.1018
-1.9203,-3.8622,-2.9944,-1.9229,-2.1068,-1.8345,-0.3819,-0.1021,0.3654,0.1168,0.4032,0.9225,1.3968,0.7979,-3.5966,-3.8526,-4.827,-3.8222,-1.6033,-1.4665,0.3309,1.5229,1.7517,1.8642,3.1486,2.8289,1.3176,1.0833,-1.548,-0.0058
-1.7807,-3.7214,-2.8928,-1.8069,-2.037,-1.8438,-0.4629,-0.139,0.3454,0.0403,0.2352,0.7394,1.2315,0.7483,-3.4127,-3.6866,-4.5715,-3.5898,-1.4379,-1.3057,0.409,1.5424,1.694,1.6727,2.9021,2.6034,1.1134,0.9513,-1.3801,0.1127
-1.5562,-3.5235,-2.7537,-1.6421,-1.9174,-1.8196,-0.4776,-0.1541,0.3138,0.0557,0.1553,0.6824,1.201,0.8099,-3.1452,-3.4353,-4.2395,-3.2973,-1.1894,-1.0557,0.5832,1.6469,1.7147,1.5798,2.6599,2.3905,1.0051,0.8743,-1.2041,0.2493
-1.2579,-3.2744,-2.594,-1.4368,-1.7593,-1.7662,-0.4376,-0.1497,0.2712,0.1527,0.1698,0.7566,1.3003,0.9778,-2.8008,-3.1076,-3.8414,-2.9564,-0.8662,-0.7265,0.8465,1.8322,1.81,1.5896,2.4307,2.2005,0.9984,0.8606,-1.0292,0.3985
-0.9041,-2.9842,-2.4329,-1.2025,-1.5748,-1.6896,-0.3573,-0.1284,0.2213,0.3139,0.275,0.9533,1.5136,1.2387,-2.3876,-2.7168,-3.3884,-2.579,-0.4808,-0.3327,1.186,2.0897,1.9717,1.6984,2.2216,2.0419,1.0905,0.9107,-0.8625,0.5557
-0.5188,-2.6683,-2.2894,-0.9531,-1.3759,-1.5976,-0.2535,-0.093,0.17,0.5174,0.458,1.2502,1.8157,1.572,-1.9158,-2.281,-2.8929,-2.1768,-0.0485,0.1071,1.5826,2.4067,2.1871,1.8944,2.0381,1.9202,1.2698,1.0167,-0.7084,0.7167
-0.1283,-2.3457,-2.1796,-0.7049,-1.1742,-1.4991,-0.1436,-0.0481,0.1223,0.7374,0.6967,1.6146,2.1739,1.9503,-1.3994,-1.8214,-2.3692,-1.7606,0.412,0.571,2.0122,2.7661,2.4397,2.1575,1.8829,1.8364,1.5161,1.1633,-0.5681,0.8789
0.2422,-2.0379,-2.1142,-0.4744,-0.9803,-1.4033,-0.0447,-0.0003,0.0811,0.947,0.962,2.0062,2.5513,2.3424,-0.8569,-1.3618,-1.834,-1.3415,0.8802,1.0356,2.4474,3.147,2.7098,2.4612,1.7561,1.7865,1.8018,1.3291,-0.4405,1.0403
0.5718,-1.7654,-2.0963,-0.2774,-0.8032,-1.3188,0.0283,0.0417,0.0454,1.1204,1.2212,2.3821,2.9098,2.716,-0.3113,-0.9255,-1.306,-0.9297,1.335,1.4774,2.8606,3.5266,2.9778,2.7746,1.6547,1.7621,2.0948,1.4899,-0.3226,1.1995
0.8473,-1.5449,-2.1211,-0.126,-0.6492,-1.2519,0.0646,0.0684,0.0106,1.236,1.4421,2.7016,3.2156,3.0421,0.2119,-0.5328,-0.8049,-0.5355,1.7568,1.8763,3.2273,3.8827,3.2269,3.066,1.5736,1.751,2.3616,1.6214,-0.2105,1.3554
1.0648,-1.3865,-2.1762,-0.0266,-0.5212,-1.2061,0.0585,0.0709,-0.0305,1.2788,1.5981,2.9318,3.4426,3.2989,0.6888,-0.1978,-0.3487,-0.1678,2.1302,2.2172,3.5303,4.1971,3.4464,3.307,1.5059,1.739,2.5717,1.703,-0.1004,1.507
1.2298,-1.2913,-2.2449,0.0216,-0.419,-1.1806,0.0106,0.0424,-0.0864,1.2427,1.6715,3.0508,3.577,3.4751,1.1013,0.073,0.0485,0.166,2.4461,2.4929,3.7618,4.4578,3.6331,3.4764,1.4447,1.7121,2.7013,1.7202,0.0108,1.6536
1.356,-1.2515,-2.3088,0.0274,-0.3388,-1.1709,-0.0729,-0.0206,-0.1653,1.1303,1.6555,3.0503,3.6178,3.5718,1.4414,0.282,0.3787,0.4612,2.7024,2.7045,3.9245,4.6615,3.7917,3.5628,1.3835,1.6589,2.7361,1.6667,0.1244,1.7945
1.4627,-1.2516,-2.3517,0.0058,-0.2751,-1.1693,-0.182,-0.1182,-0.2735,0.9523,1.5542,2.9351,3.5764,3.6008,1.7123,0.4388,0.6413,0.716,2.9042,2.8607,4.0302,4.8131,3.9326,3.5658,1.318,1.572,2.6722,1.5439,0.2392,1.9285
1.5705,-1.2714,-2.3622,-0.0245,-0.2212,-1.1671,-0.3041,-0.2465,-0.414,0.725,1.3811,2.7213,3.4733,3.5819,1.9267,0.5586,0.8418,0.931,3.0612,2.9752,4.0969,4.9237,4.0684,3.4952,1.2465,1.4493,2.5156,1.3597,0.352,2.0542
1.6972,-1.2897,-2.3357,-0.0452,-0.1712,-1.1564,-0.4271,-0.3987,-0.5854,0.4684,1.1557,2.4326,3.3338,3.5383,2.1035,0.6579,0.9909,1.1094,3.1854,3.0641,4.1443,5.0077,4.2097,3.3683,1.1697,1.2938,2.2801,1.1264,0.4581,2.1692
1.8538,-1.2885,-2.274,-0.0419,-0.1211,-1.1321,-0.5404,-0.5651,-0.7808,0.2034,0.9009,2.0958,3.183,3.4921,2.2622,0.7516,1.101,1.2555,3.2874,3.1416,4.1891,5.0785,4.3617,3.2065,1.0909,1.1132,1.9847,0.858,0.5524,2.2703
2.0413,-1.2566,-2.1846,-0.0074,-0.0697,-1.0929,-0.6369,-0.7346,-0.9881,-0.0505,0.639,1.7371,3.0418,3.4594,2.4175,0.8498,1.1837,1.3739,3.3741,3.2173,4.2421,5.146,4.5225,3.0311,1.0151,0.9183,1.6513,0.5684,0.6302,2.3538
2.2512,-1.1911,-2.0787,0.0575,-0.0193,-1.0417,-0.713,-0.8951,-1.1912,-0.2762,0.3901,1.3785,2.9242,3.4488,2.5758,0.9555,1.2471,1.4681,3.4474,3.2946,4.306,5.2138,4.6839,2.8606,0.9478,0.7214,1.3017,0.2697,0.6882,2.4156
2.4667,-1.098,-1.9689,0.1443,0.0249,-0.9845,-0.7691,-1.0352,-1.3719,-0.4609,0.1693,1.036,2.8368,3.4606,2.7339,1.0648,1.2951,1.5402,3.5041,3.3705,4.3767,5.2802,4.8338,2.709,0.8941,0.5348,0.9564,-0.0282,0.7241,2.4518
2.6676,-0.9891,-1.8672,0.2398,0.0557,-0.9287,-0.8083,-1.1455,-1.5136,-0.5965,-0.0136,0.7199,2.7794,3.4887,2.8813,1.1686,1.3271,1.5899,3.538,3.4372,4.4451,5.3388,4.9594,2.5857,0.8577,0.3692,0.6336,-0.3174,0.737,2.4593
2.8345,-0.8797,-1.783,0.3292,0.0663,-0.8808,-0.8348,-1.22,-1.6044,-0.6798,-0.1542,0.4358,2.7476,3.5237,3.0037,1.2552,1.3401,1.6157,3.5426,3.4857,4.5009,5.3818,5.0509,2.4958,0.8404,0.2325,0.3481,-0.5912,0.7269,2.4367
2.9532,-0.7837,-1.7221,0.4002,0.0517,-0.8449,-0.8524,-1.2569,-1.6402,-0.712,-0.2526,0.1869,2.7358,3.5562,3.0878,1.3145,1.3302,1.6155,3.5137,3.5084,4.5361,5.4024,5.1033,2.4417,0.8416,0.1294,0.1119,-0.8431,0.6949,2.3849
3.0172,-0.7111,-1.6868,0.4447,0.0108,-0.8224,-0.8636,-1.2595,-1.6262,-0.6984,-0.3118,-0.024,2.7388,3.5796,3.1255,1.3404,1.2949,1.588,3.4511,3.5016,4.5469,5.397,5.1178,2.4234,0.8588,0.0617,-0.0657,-1.0657,0.6426,2.3073
3.0281,-0.6664,-1.6754,0.46,-0.0528,-0.8123,-0.869,-1.2354,-1.5762,-0.6468,-0.3368,-0.1931,2.7544,3.5911,3.1155,1.3324,1.2346,1.5334,3.3588,3.4667,4.5344,5.3654,5.1005,2.4392,0.8876,0.0278,-0.1781,-1.2505,0.5722,2.2082
2.995,-0.648,-1.6833,0.4481,-0.1312,-0.812,-0.8667,-1.1955,-1.5099,-0.5666,-0.3333,-0.3156,2.7827,3.5924,3.064,1.296,1.1529,1.4544,3.2446,3.4094,4.504,5.31,5.0603,2.4854,0.9225,0.0245,-0.222,-1.3884,0.4854,2.0921
2.9322,-0.6486,-1.7029,0.4157,-0.2123,-0.8171,-0.8534,-1.1518,-1.449,-0.4679,-0.307,-0.3869,2.8257,3.5887,2.9833,1.242,1.057,1.3566,3.1183,3.3392,4.4638,5.2348,5.0067,2.5558,0.9576,0.0463,-0.198,-1.4718,0.3844,1.9627
2.8576,-0.657,-1.7237,0.3725,-0.2823,-0.8225,-0.8247,-1.1148,-1.4131,-0.36,-0.2635,-0.4043,2.8864,3.587,2.89,1.1847,0.9573,1.2491,2.9908,3.2683,4.4233,5.1442,4.947,2.6424,0.987,0.0865,-0.1116,-1.496,0.2726,1.8232
2.79,-0.6588,-1.7331,0.3304,-0.3273,-0.8216,-0.7769,-1.0926,-1.4164,-0.2515,-0.2083,-0.368,2.9668,3.5953,2.8031,1.1406,0.8671,1.1444,2.8736,3.2095,4.3921,5.0433,4.8867,2.7353,1.0057,0.1369,0.0257,-1.4616,0.1555,1.6779
2.7468,-0.6392,-1.7171,0.3018,-0.3359,-0.8074,-0.7084,-1.09,-1.4664,-0.1502,-0.147,-0.2829,3.0667,3.6205,2.7413,1.1264,0.8016,1.0585,2.7783,3.1749,4.3788,4.938,4.8293,2.8244,1.0096,0.1878,0.1966,-1.3758,0.0412,1.5333
2.7434,-0.5842,-1.6629,0.2988,-0.3012,-0.7731,-0.6216,-1.109,-1.5643,-0.0638,-0.0855,-0.1583,3.183,3.6675,2.7222,1.1566,0.7763,1.0092,2.7164,3.175,4.3906,4.8363,4.7779,2.8996,0.9957,0.2282,0.3793,-1.2521,-0.0594,1.3993
2.7914,-0.4825,-1.5606,0.3319,-0.2217,-0.7133,-0.5234,-1.1498,-1.7056,-0.0004,-0.0302,-0.0081,3.3095,3.7387,2.7612,1.2429,0.8056,1.0138,2.6989,3.2176,4.4327,4.7482,4.7365,2.9531,0.9613,0.2459,0.5491,-1.11,-0.135,1.2878
2.8992,-0.3267,-1.4062,0.4095,-0.1016,-0.6249,-0.4244,-1.2109,-1.8824,0.0326,0.013,0.1503,3.4381,3.8342,2.8711,1.3923,0.901,1.0863,2.7352,3.3074,4.5086,4.6854,4.7105,2.9794,0.9039,0.2281,0.6813,-0.9724,-0.1758,1.2112
3.0715,-0.1138,-1.2016,0.5366,0.0508,-0.5073,-0.3367,-1.2895,-2.0836,0.0292,0.0391,0.2984,3.56,3.9514,3.0605,1.6066,1.0682,1.2335,2.8314,3.4462,4.6195,4.6585,4.7057,2.976,0.8202,0.1631,0.7547,-0.8634,-0.1763,1.1791
3.309,0.1539,-0.9549,0.7142,0.2238,-0.3632,-0.271,-1.3809,-2.2962,-0.013,0.0452,0.4184,3.6672,4.0859,3.3324,1.8815,1.3058,1.4522,2.9875,3.6315,4.7631,4.6749,4.7261,2.943,0.7069,0.0407,0.7537,-0.8049,-0.1366,1.1956
3.6069,0.4682,-0.6789,0.9374,0.4039,-0.1987,-0.2338,-1.4789,-2.5061,-0.0919,0.0314,0.4962,3.7534,4.2309,3.6811,2.2059,1.6037,1.7282,3.1963,3.8563,4.9332,4.7348,4.7715,2.882,0.5604,-0.1453,0.6703,-0.8135,-0.0629,1.258
3.9543,0.8139,-0.3894,1.1947,0.5772,-0.0229,-0.2257,-1.5754,-2.6986,-0.1996,0.0002,0.5229,3.815,4.378,4.0913,2.5617,1.9434,2.0374,3.4421,4.1079,5.1191,4.8302,4.8362,2.7957,0.3788,-0.3954,0.5045,-0.8981,0.0333,1.356
4.334,1.17,-0.1034,1.468,0.7311,0.1524,-0.2409,-1.6625,-2.8604,-0.3242,-0.0436,0.4964,3.8508,4.5174,4.539,2.9253,2.2996,2.3497,3.7024,4.369,5.3061,4.9457,4.9093,2.6877,0.1631,-0.7032,0.2645,-1.0582,0.1378,1.4737
4.7243,1.5112,0.1631,1.735,0.8557,0.3137,-0.2689,-1.7328,-2.9809,-0.4511,-0.0942,0.4213,3.8626,4.6398,4.9938,3.2708,2.6447,2.6349,3.9519,4.6196,5.478,5.0617,4.9772,2.5616,-0.0812,-1.0549,-0.0346,-1.2835,0.2367,1.5924
5.1016,1.8123,0.3972,1.9723,0.9456,0.4479,-0.2969,-1.7817,-3.0544,-0.566,-0.1465,0.3073,3.855,4.738,5.4248,3.5741,2.9535,2.8692,4.1675,4.8404,5.6205,5.1593,5.0275,2.4228,-0.3428,-1.4292,-0.372,-1.5553,0.3184,1.6945
5.445,2.0526,0.591,2.1603,1.0011,0.545,-0.3128,-1.8078,-3.0811,-0.6568,-0.1966,0.1679,3.8347,4.8085,5.8054,3.8176,3.2079,3.0398,4.3331,5.017,5.7241,5.2251,5.0525,2.2782,-0.6056,-1.7997,-0.7229,-1.8486,0.3768,1.7664
5.7389,2.2194,0.7415,2.2868,1.028,0.5997,-0.3083,-1.8133,-3.0674,-0.7153,-0.2423,0.0176,3.8106,4.8528,6.118,3.9935,3.4002,3.1468,4.4429,5.1428,5.7863,5.2547,5.0518,2.1373,-0.8499,-2.1379,-1.0609,-2.1356,0.4111,1.8016
5.9751,2.3107,0.8496,2.3495,1.0369,0.6131,-0.2797,-1.8035,-3.0253,-0.7371,-0.2825,-0.1297,3.7928,4.8772,6.3558,4.1048,3.533,3.2013,4.5015,5.2203,5.8131,5.253,5.0318,2.0114,-1.0557,-2.417,-1.3602,-2.3893,0.4262,1.8012
6.1529,2.3347,0.9179,2.3558,1.0399,0.592,-0.2291,-1.7854,-2.9701,-0.7221,-0.317,-0.2619,3.7912,4.8918,6.5224,4.1638,3.6175,3.2216,4.522,5.2599,5.8165,5.2323,5.004,1.9129,-1.2057,-2.6159,-1.5982,-2.5869,0.4298,1.7731
6.277,2.3068,0.9497,2.3203,1.0486,0.5474,-0.163,-1.7663,-2.9181,-0.6726,-0.3451,-0.3695,3.8142,4.908,6.6294,4.1878,3.6692,3.2275,4.5217,5.2768,5.8121,5.208,4.9814,1.8534,-1.2887,-2.7226,-1.7577,-2.7127,0.4304,1.7289
6.356,2.2468,0.9479,2.2615,1.0711,0.4918,-0.0908,-1.7523,-2.883,-0.5933,-0.3651,-0.4457,3.867,4.9361,6.6923,4.1949,3.7043,3.2354,4.5178,5.2866,5.815,5.1949,4.9754,1.8412,-1.3023,-2.7358,-1.8292,-2.7598,0.435,1.6817
6.3998,2.1745,0.9169,2.1976,1.111,0.4375,-0.0219,-1.7475,-2.8743,-0.49,-0.374,-0.4861,3.9512,4.9832,6.7274,4.2004,3.7356,3.256,4.5237,5.3018,5.8366,5.2027,4.9924,1.8797,-1.2535,-2.6658,-1.8126,-2.7308,0.4476,1.6428
6.4181,2.1069,0.8633,2.1438,1.1672,0.3944,0.0358,-1.7535,-2.8958,-0.3696,-0.3686,-0.4892,4.0632,5.0516,6.7488,4.214,3.7721,3.2937,4.5472,5.3298,5.8823,5.2351,5.0331,1.9656,-1.1581,-2.5324,-1.7175,-2.6367,0.469,1.6202
6.4203,2.056,0.7962,2.1096,1.2345,0.3687,0.0773,-1.7696,-2.9459,-0.2405,-0.3456,-0.4558,4.1952,5.139,6.7674,4.24,3.8174,3.3468,4.59,5.372,5.9511,5.2895,5.0927,2.089,-1.0381,-2.3628,-1.5631,-2.4957,0.4975,1.6177
6.4137,2.0275,0.727,2.0975,1.3051,0.3626,0.0999,-1.7941,-3.0188,-0.112,-0.3036,-0.3895,4.3355,5.238,6.7894,4.2774,3.8705,3.4095,4.6481,5.4245,6.0361,5.358,5.162,2.2335,-0.9189,-2.1876,-1.3757,-2.3308,0.5296,1.6353
6.404,2.0195,0.6665,2.1031,1.3696,0.3733,0.1024,-1.8252,-3.1062,0.0049,-0.2441,-0.2961,4.4695,5.3377,6.8162,4.3213,3.9261,3.4729,4.7131,5.4795,6.1256,5.4294,5.2295,2.3787,-0.8258,-2.0377,-1.1861,-2.1666,0.5605,1.6689
6.3936,2.0238,0.6229,2.1161,1.4176,0.3932,0.0832,-1.8622,-3.1992,0.0992,-0.1713,-0.1833,4.5821,5.4243,6.845,4.3636,3.9753,3.5269,4.7734,5.527,6.205,5.4909,5.2831,2.5021,-0.7799,-1.9399,-1.0252,-2.0266,0.5843,1.7111
6.3817,2.0273,0.5995,2.1221,1.4393,0.4109,0.0401,-1.9058,-3.2901,0.1603,-0.0921,-0.0597,4.6593,5.4842,6.8691,4.3948,4.0074,3.5616,4.8161,5.5564,6.2598,5.5301,5.311,2.5832,-0.796,-1.9139,-0.9192,-1.9305,0.5946,1.7525
6.3648,2.0154,0.5942,2.1062,1.4266,0.413,-0.0291,-1.958,-3.3729,0.181,-0.0147,0.0667,4.6916,5.5056,6.8803,4.4054,4.0116,3.5689,4.8289,5.5591,6.2775,5.5368,5.3043,2.6066,-0.8798,-1.97,-0.886,-1.8909,0.5851,1.7825
6.3382,1.9751,0.6003,2.0558,1.3744,0.3866,-0.1251,-2.0206,-3.4443,0.158,0.0534,0.1889,4.6754,5.4822,6.8706,4.3871,3.9792,3.5435,4.8028,5.5294,6.2505,5.5053,5.2579,2.5651,-1.0273,-2.1064,-0.932,-1.9125,0.5511,1.7923
6.2973,1.8985,0.6085,1.9641,1.282,0.3228,-0.2446,-2.094,-3.5024,0.0935,0.1066,0.3019,4.6148,5.4143,6.8341,4.3349,3.9049,3.4836,4.7337,5.4659,6.1776,5.4349,5.1716,2.4615,-1.2251,-2.3104,-1.051,-1.9905,0.4902,1.7755
6.2395,1.7849,0.6093,1.8315,1.1531,0.2182,-0.3797,-2.1761,-3.5462,-0.0053,0.1425,0.4026,4.521,5.3096,6.7688,4.2477,3.7884,3.3909,4.6229,5.3718,6.064,5.33,5.0507,2.3079,-1.4523,-2.5591,-1.2257,-2.1124,0.4037,1.7302
6.1655,1.641,0.5957,1.6652,0.9956,0.077,-0.5183,-2.2617,-3.5746,-0.1271,0.1615,0.4891,4.4099,5.1815,6.6765,4.1297,3.635,3.2706,4.4775,5.2539,5.9204,5.1994,4.904,2.1234,-1.6837,-2.8234,-1.4315,-2.2598,0.2964,1.6587
6.0798,1.4796,0.5642,1.4782,0.8201,-0.0906,-0.6457,-2.3429,-3.5856,-0.2581,0.1671,0.5607,4.2993,5.0465,6.5627,3.9896,3.4547,3.1308,4.3088,5.1218,5.7613,5.0539,4.7433,1.9305,-1.8934,-3.0724,-1.6412,-2.4115,0.1766,1.5668
5.9896,1.3177,0.5153,1.2862,0.6389,-0.2695,-0.7474,-2.4103,-3.5761,-0.3833,0.1641,0.6168,4.2053,4.9209,6.4358,3.8399,3.2617,2.9817,4.1303,4.9866,5.6023,4.9043,4.5802,1.7512,-2.0593,-3.2785,-1.8301,-2.5472,0.0549,1.4622
5.9037,1.1726,0.4523,1.1049,0.464,-0.4427,-0.8112,-2.4539,-3.5419,-0.4877,0.1588,0.6573,4.1403,4.8182,6.306,3.695,3.0721,2.8339,3.9562,4.8592,5.4581,4.7603,4.425,1.6031,-2.1658,-3.4216,-1.9798,-2.6507,-0.0577,1.3531
5.8307,1.0587,0.3808,0.9473,0.3063,-0.5948,-0.8294,-2.4652,-3.4786,-0.5571,0.1578,0.6826,4.1114,4.7473,6.1838,3.5692,2.9018,2.6976,3.7987,4.7499,5.341,4.6294,4.2855,1.4975,-2.2064,-3.4919,-2.0807,-2.7124,-0.1508,1.2472
5.7773,0.9849,0.3068,0.8224,0.1739,-0.7141,-0.7984,-2.4377,-3.3822,-0.5791,0.1684,0.6941,4.1207,4.7127,6.0787,3.4739,2.7642,2.5808,3.6675,4.6669,5.2594,4.5175,4.167,1.4391,-2.184,-3.4909,-2.1317,-2.7302,-0.2166,1.1503
5.747,0.9529,0.236,0.7335,0.0721,-0.7951,-0.7189,-2.368,-3.2501,-0.5439,0.1983,0.6951,4.1669,4.7142,5.9972,3.4161,2.6679,2.4881,3.5686,4.6155,5.2178,4.4287,4.0726,1.4268,-2.1102,-3.4302,-2.138,-2.7089,-0.2507,1.067
5.7392,0.9573,0.173,0.6796,0.0029,-0.8377,-0.5948,-2.2566,-3.0825,-0.4454,0.2555,0.6916,4.2463,4.7489,5.9409,3.3962,2.6151,2.421,3.5043,4.5973,5.2161,4.3666,4.0051,1.4558,-2.0023,-3.328,-2.1077,-2.6572,-0.2527,1
5.75,0.9871,0.1209,0.6555,-0.0348,-0.8466,-0.4328,-2.107,-2.883,-0.2818,0.3477,0.6928,4.3544,4.8115,5.9056,3.4087,2.6017,2.3774,3.4729,4.6096,5.2499,4.3335,3.9668,1.5198,-1.8799,-3.2046,-2.0484,-2.5848,-0.2264,0.9509
5.772,1.0285,0.0808,0.6545,-0.0436,-0.829,-0.2407,-1.9262,-2.6586,-0.0565,0.481,0.7109,4.487,4.8962,5.8818,3.4422,2.618,2.353,3.4694,4.6457,5.3113,4.3302,3.9595,1.613,-1.7609,-3.0783,-1.9646,-2.4988,-0.1788,0.9194
5.7962,1.0676,0.0522,0.6696,-0.0264,-0.7923,-0.0273,-1.7238,-2.4207,0.2215,0.6583,0.7593,4.6404,4.9971,5.8563,3.4824,2.6499,2.3416,3.4861,4.6958,5.3903,4.3551,3.9831,1.7312,-1.6588,-2.9616,-1.8569,-2.4018,-0.1198,0.9037
5.8128,1.0928,0.0327,0.6945,0.0135,-0.7432,0.1976,-1.5118,-2.1841,0.5378,0.8773,0.8498,4.8111,5.1091,5.8157,3.5149,2.6825,2.3361,3.5135,4.7486,5.4767,4.4038,4.0342,1.8715,-1.5806,-2.8601,-1.7229,-2.2924,-0.0602,0.9007
5.8133,1.0961,0.0182,0.7241,0.0728,-0.6875,0.4238,-1.3045,-1.9664,0.8722,1.1289,0.989,4.9953,5.2279,5.75,3.528,2.7026,2.3305,3.5422,4.7937,5.5611,4.4696,4.1058,2.0316,-1.5274,-2.7728,-1.5602,-2.1665,-0.0098,0.9069
5.7921,1.0737,0.0042,0.7537,0.1476,-0.6308,0.6399,-1.1177,-1.7869,1.1999,1.3973,1.1759,5.1877,5.3498,5.656,3.5147,2.7016,2.3206,3.5648,4.8233,5.637,4.5444,4.1883,2.2087,-1.4946,-2.6942,-1.3683,-2.0214,0.0239,0.9194
5.7474,1.0258,-0.0137,0.7792,0.2322,-0.5785,0.8344,-0.9675,-1.6641,1.4932,1.6604,1.4,5.3811,5.4711,5.5386,3.4746,2.6777,2.306,3.577,4.8335,5.7004,4.6205,4.2717,2.3977,-1.4748,-2.6178,-1.1517,-1.8578,0.0375,0.9364
5.6823,0.9559,-0.0382,0.7967,0.32,-0.5364,0.9962,-0.8687,-1.6133,1.725,1.8935,1.643,5.5666,5.5879,5.4106,3.4127,2.6361,2.2904,3.5792,4.8245,5.7505,4.6922,4.3487,2.5912,-1.4595,-2.5382,-0.92,-1.6817,0.0315,0.9579
5.6035,0.8702,-0.0701,0.8026,0.4038,-0.51,1.116,-0.832,-1.6424,1.8729,2.073,1.8812,5.7338,5.6953,5.2898,3.3385,2.5873,2.2808,3.5756,4.8003,5.788,4.7568,4.4162,2.7794,-1.4417,-2.4534,-0.6874,-1.5042,0.0102,0.9846
5.5195,0.7757,-0.1077,0.7939,0.4769,-0.5041,1.1875,-0.861,-1.7495,1.9232,2.1818,2.0902,5.8719,5.7876,5.1946,3.2626,2.5443,2.2852,3.5722,4.7661,5.8143,4.8138,4.4748,2.9507,-1.4171,-2.3653,-0.4708,-1.3397,-0.02,1.0174
5.4379,0.6789,-0.1482,0.768,0.5336,-0.5214,1.209,-0.9502,-1.9208,1.8742,2.2119,2.2493,5.9707,5.8581,5.1385,3.1942,2.5184,2.3093,3.5747,4.7268,5.8291,4.8634,4.5274,3.093,-1.385,-2.2794,-0.2868,-1.2028,-0.0522,1.056
5.3626,0.5837,-0.1888,0.7223,0.5696,-0.5625,1.1839,-1.085,-2.1306,1.7367,2.167,2.3452,6.0223,5.8993,5.1257,3.1373,2.5151,2.3538,3.5849,4.6838,5.8298,4.9047,4.5763,3.1956,-1.3479,-2.2032,-0.1489,-1.1057,-0.0807,1.0979
5.2924,0.4898,-0.2281,0.6539,0.5813,-0.6251,1.1212,-1.2424,-2.3444,1.5334,2.0618,2.3741,6.0219,5.9048,5.149,3.0897,2.5323,2.413,3.5996,4.6347,5.8111,4.9342,4.6218,3.2508,-1.3107,-2.1439,-0.0651,-1.0546,-0.1027,1.1381
5.2209,0.3926,-0.2675,0.56,0.5662,-0.7047,1.0341,-1.3949,-2.5239,1.295,1.9198,2.3425,5.9697,5.8699,5.1912,3.043,2.5602,2.4758,3.6103,4.5733,5.7661,4.9458,4.6614,3.256,-1.2783,-2.1067,-0.0359,-1.0488,-0.1187,1.1686
5.1379,0.2842,-0.3112,0.4381,0.523,-0.7943,0.939,-1.5146,-2.6333,1.0561,1.7692,2.2653,5.8712,5.7937,5.2278,2.9842,2.5827,2.5272,3.6051,4.491,5.6881,4.932,4.691,3.2141,-1.254,-2.0926,-0.0539,-1.0802,-0.1325,1.1804
5.0311,0.1555,-0.3651,0.2873,0.4527,-0.8853,0.8526,-1.5781,-2.6462,0.8497,1.6384,2.1635,5.7368,5.6791,5.2334,2.899,2.5813,2.5515,3.5708,4.3795,5.5724,4.8855,4.7058,3.134,-1.2388,-2.0989,-0.1055,-1.135,-0.1502,1.1643
4.8894,-0.0009,-0.4346,0.1098,0.3596,-0.9682,0.7896,-1.5707,-2.5505,0.7033,1.5516,2.0598,5.5812,5.5334,5.1865,2.775,2.5389,2.5352,3.4963,4.2326,5.4183,4.8009,4.7006,3.0285,-1.2311,-2.1192,-0.173,-1.1961,-0.1788,1.114
4.7055,-0.1883,-0.5221,-0.0884,0.2514,-1.0338,0.7613,-1.4886,-2.3508,0.6347,1.5251,1.9755,5.4212,5.3676,5.0746,2.6057,2.4434,2.4699,3.3752,4.0492,5.2301,4.677,4.6719,2.9129,-1.2267,-2.1444,-0.2374,-1.246,-0.2239,1.0269
4.4791,-0.4028,-0.6256,-0.2967,0.1392,-1.0741,0.7745,-1.3388,-2.0676,0.6514,1.5656,1.9277,5.2746,5.1955,4.897,2.3927,2.2916,2.3544,3.2086,3.8348,5.0181,4.5186,4.6182,2.8027,-1.2196,-2.164,-0.2811,-1.269,-0.2878,0.9062
4.2178,-0.6333,-0.7377,-0.5005,0.0359,-1.0844,0.831,-1.1383,-1.734,0.7505,1.6699,1.9274,5.1573,5.0325,4.664,2.147,2.0896,2.1953,3.0059,3.6017,4.7978,4.3369,4.5418,2.7123,-1.2023,-2.167,-0.2894,-1.2529,-0.369,0.7606
3.937,-0.8616,-0.8471,-0.6825,-0.0461,-1.0638,0.9279,-0.91,-1.3892,0.9206,1.8261,1.9794,5.0819,4.8937,4.3943,1.8872,1.852,2.006,2.7839,3.3674,4.5883,4.1496,4.4497,2.6531,-1.1665,-2.142,-0.252,-1.1892,-0.4615,0.6034
3.6566,-1.0662,-0.9401,-0.8258,-0.0973,-1.0157,1.0581,-0.679,-1.0722,1.1448,2.0165,2.0824,5.0558,4.7919,4.11,1.6361,1.5987,1.8047,2.5638,3.1518,4.4091,3.9776,4.3523,2.6328,-1.1045,-2.079,-0.1632,-1.0736,-0.5561,0.4499
3.3967,-1.2265,-1.0039,-0.9168,-0.1133,-0.9471,1.2116,-0.4682,-0.815,1.4045,2.2217,2.2307,5.0803,4.7358,3.8313,1.416,1.3505,1.6106,2.3669,2.9729,4.2765,3.8411,4.2612,2.6544,-1.0096,-1.9699,-0.0219,-0.9053,-0.6426,0.3146
3.1725,-1.3274,-1.0295,-0.9483,-0.0949,-0.867,1.3775,-0.2941,-0.6374,1.6822,2.4237,2.4157,5.151,4.7279,3.5721,1.2431,1.1244,1.4403,2.2096,2.8426,4.2001,3.7553,4.1863,2.7167,-0.8781,-1.8103,0.1686,-0.687,-0.7122,0.2084
2.9909,-1.3631,-1.0134,-0.9208,-0.0477,-0.7839,1.5459,-0.1647,-0.5444,1.9645,2.6099,2.6274,5.2585,4.7646,3.3384,1.1245,0.9303,1.304,2.1,2.7644,4.1812,3.7266,4.1328,2.8138,-0.7098,-1.601,0.4011,-0.4245,-0.7594,0.136
2.8497,-1.3389,-0.9584,-0.843,0.02,-0.7041,1.7101,-0.0779,-0.5261,2.2433,2.7746,2.8561,5.3909,4.8366,3.1286,1.0566,0.7697,1.2039,2.0363,2.7328,4.212,3.7511,4.1007,2.9369,-0.509,-1.3482,0.6658,-0.1267,-0.7836,0.0956
2.7385,-1.2698,-0.8741,-0.7304,0.0989,-0.6306,1.8672,-0.0236,-0.561,2.5152,2.9192,3.093,5.536,4.9312,2.9363,1.0268,0.6359,1.1335,2.0079,2.7346,4.2775,3.8156,4.0856,3.0753,-0.284,-1.0637,0.9505,0.195,-0.789,0.0794
2.6425,-1.178,-0.7743,-0.6022,0.1806,-0.5631,2.0182,0.0137,-0.6208,2.78,3.0501,3.3304,5.6831,5.0342,2.753,1.0164,0.5176,1.0802,1.9982,2.7524,4.3588,3.9009,4.0801,3.2182,-0.0466,-0.7637,1.2425,0.5266,-0.7838,0.0756
