time	FP1	F3	F7	FC3	C3	C5	P3	P7	PO7	PO3	O1	Oz	Pz	CPz	FP2	Fz	F4	F8	FC4	FCz	Cz	C4	C6	P4	P8	PO8	PO4	O2	HEOG_left	HEOG_right
-199.2188	0.0347	0.2832	-0.743	0.532	0.6201	1.0925	-0.2932	-0.0425	-0.0172	0.0711	-0.381	-0.8194	0.0824	1.0403	-0.0579	0.6082	0.7916	2.7701	0.8564	1.0999	1.7162	1.1431	0.155	1.188	0.4585	-2.4958	-1.6697	-1.8461	0.8902	-0.3327
-195.3125	-0.146	0.3571	-0.3261	0.5445	0.6209	0.6582	-0.4174	-0.2028	-0.1805	0.5909	-0.4941	-0.8364	0.0165	0.8385	-0.1156	0.7282	0.8535	2.3145	0.7349	1.1077	1.5313	1.017	0.3018	1.0202	0.5501	-1.6475	-1.5101	-1.5183	0.5741	-0.2281
-191.4062	-0.322	0.4094	0.0377	0.5301	0.5904	0.222	-0.5516	-0.3692	-0.3723	1.058	-0.6297	-0.881	-0.0622	0.6307	-0.1823	0.8129	0.8923	1.8959	0.609	1.085	1.3351	0.8716	0.4034	0.8375	0.6104	-0.9031	-1.3945	-1.2352	0.2888	-0.1328
-187.5	-0.4747	0.429	0.3175	0.4753	0.5158	-0.1919	-0.6931	-0.5345	-0.598	1.4281	-0.7925	-0.9747	-0.1607	0.4174	-0.2503	0.8393	0.8927	1.5439	0.4778	1.015	1.1243	0.6982	0.4375	0.6353	0.6135	-0.346	-1.3513	-1.0365	0.0671	-0.0513
-183.5938	-0.5873	0.4137	0.499	0.3768	0.3973	-0.556	-0.8324	-0.686	-0.8462	1.6718	-0.9703	-1.127	-0.2813	0.2018	-0.3075	0.7958	0.848	1.2765	0.3421	0.8909	0.9	0.496	0.392	0.4164	0.5457	-0.0234	-1.3904	-0.9427	-0.0692	0.0154
-179.6875	-0.6451	0.3713	0.5872	0.2434	0.2488	-0.8414	-0.9539	-0.8062	-1.0889	1.7778	-1.1346	-1.3321	-0.4192	-0.0095	-0.338	0.6844	0.7618	1.0981	0.2059	0.7185	0.6688	0.2737	0.271	0.1922	0.4084	0.0617	-1.4998	-0.9495	-0.1123	0.0706
-175.7812	-0.6373	0.3177	0.6042	0.0946	0.095	-1.0195	-1.0389	-0.8761	-1.2875	1.7512	-1.2481	-1.5689	-0.5624	-0.2057	-0.3251	0.5215	0.6467	0.9996	0.0771	0.5159	0.4434	0.0501	0.0977	-0.0174	0.2184	-0.0532	-1.6458	-1.0293	-0.0676	0.1196
-171.875	-0.5574	0.2715	0.5836	-0.0436	-0.0348	-1.0677	-1.071	-0.8811	-1.4042	1.6101	-1.2773	-1.8051	-0.6931	-0.3736	-0.2557	0.3337	0.5206	0.9601	-0.0331	0.31	0.24	-0.1494	-0.0879	-0.1883	0.0045	-0.3019	-1.7811	-1.1388	0.0483	0.1679
-167.9688	-0.4046	0.2492	0.5621	-0.1453	-0.1148	-0.9752	-1.0421	-0.8167	-1.4145	1.3801	-1.204	-2.0048	-0.7918	-0.4998	-0.1229	0.1525	0.402	0.9512	-0.1135	0.1309	0.0752	-0.2983	-0.2375	-0.2966	-0.1993	-0.6055	-1.8551	-1.2298	0.2128	0.2189
-164.0625	-0.185	0.2601	0.5705	-0.1916	-0.1301	-0.7481	-0.9559	-0.6921	-1.3164	1.0892	-1.0329	-2.1359	-0.8415	-0.5744	0.0725	0.007	0.3056	0.9428	-0.1568	0.0054	-0.0383	-0.376	-0.3077	-0.3251	-0.3601	-0.8891	-1.8268	-1.2624	0.4015	0.272
-160.1562	0.0883	0.3041	0.6268	-0.1757	-0.081	-0.4123	-0.8285	-0.5286	-1.1321	0.7655	-0.7904	-2.1776	-0.833	-0.5934	0.3222	-0.082	0.2387	0.9093	-0.1623	-0.0494	-0.0947	-0.3736	-0.2725	-0.2688	-0.4523	-1.0942	-1.6745	-1.2133	0.5931	0.3221
-156.25	0.3945	0.3731	0.7325	-0.1048	0.0157	-0.0119	-0.6856	-0.3549	-0.9014	0.4346	-0.5169	-2.1231	-0.7674	-0.561	0.6107	-0.1062	0.2006	0.8347	-0.1375	-0.0301	-0.0974	-0.2962	-0.1315	-0.1385	-0.4623	-1.1853	-1.4011	-1.0797	0.7709	0.36
-152.3438	0.7059	0.4525	0.8715	0.0003	0.1296	0.3944	-0.5568	-0.1995	-0.6701	0.1182	-0.2554	-1.9793	-0.657	-0.4893	0.9144	-0.0717	0.1834	0.7134	-0.0966	0.0517	-0.059	-0.1636	0.0879	0.0386	-0.3916	-1.1526	-1.0336	-0.8776	0.9228	0.3743
-148.4375	0.9896	0.5254	1.0142	0.1097	0.2227	0.7419	-0.469	-0.0839	-0.4761	-0.1672	-0.0406	-1.7642	-0.5236	-0.3974	1.2016	0.0025	0.1743	0.5494	-0.057	0.1703	0.0001	-0.0064	0.3352	0.2219	-0.2557	-1.0091	-0.6174	-0.6356	1.0397	0.3536
-144.5312	1.2121	0.5756	1.1249	0.1907	0.2578	0.9706	-0.4405	-0.0186	-0.3396	-0.4123	0.108	-1.5029	-0.3942	-0.3083	1.4345	0.0889	0.1589	0.3516	-0.0356	0.2916	0.0555	0.1395	0.5476	0.3652	-0.082	-0.7852	-0.2073	-0.3871	1.1122	0.2904
-140.625	1.3449	0.5916	1.1707	0.2165	0.2083	1.0393	-0.4768	-0.0009	-0.2592	-0.6154	0.1871	-1.2233	-0.2956	-0.2439	1.5753	0.1582	0.1261	0.1312	-0.0441	0.3808	0.0845	0.2402	0.6647	0.4256	0.0959	-0.5214	0.1426	-0.1639	1.1313	0.1843
-136.7188	1.3714	0.5702	1.1325	0.1741	0.0671	0.9378	-0.5681	-0.017	-0.2136	-0.78	0.2063	-0.9522	-0.2471	-0.2185	1.5952	0.1876	0.0715	-0.1011	-0.0859	0.4117	0.0723	0.2719	0.6433	0.3732	0.2439	-0.2598	0.3877	0.008	1.0901	0.044
-132.8125	1.293	0.5185	1.0113	0.0702	-0.1483	0.6937	-0.6895	-0.0447	-0.17	-0.9113	0.1824	-0.7115	-0.2553	-0.2337	1.4841	0.1685	0.0008	-0.3351	-0.1532	0.3755	0.0186	0.2269	0.4704	0.1996	0.3339	-0.0376	0.5	0.1114	0.9881	-0.1123
-128.9062	1.1299	0.454	0.8307	-0.0679	-0.3971	0.3686	-0.8041	-0.0577	-0.0926	-1.0104	0.1348	-0.5147	-0.3098	-0.2753	1.2562	0.1095	-0.0702	-0.5595	-0.2276	0.2839	-0.0596	0.1165	0.1693	-0.0791	0.3485	0.1187	0.4719	0.1391	0.8349	-0.2596
-125	0.9171	0.3994	0.63	-0.1991	-0.6237	0.0436	-0.8698	-0.0319	0.0464	-1.0709	0.0819	-0.3647	-0.3856	-0.316	0.9491	0.0342	-0.1196	-0.7623	-0.2837	0.167	-0.1312	-0.0313	-0.2036	-0.4252	0.2837	0.1956	0.3169	0.0947	0.6493	-0.372
-121.0938	0.6943	0.3752	0.4527	-0.2801	-0.7724	-0.202	-0.8486	0.0494	0.2587	-1.0785	0.0376	-0.2544	-0.4495	-0.3235	0.6146	-0.0266	-0.127	-0.9318	-0.2959	0.0638	-0.159	-0.1796	-0.5712	-0.7883	0.1494	0.1943	0.0667	-0.0083	0.4551	-0.4305
-117.1875	0.4949	0.3912	0.3316	-0.2797	-0.8034	-0.3122	-0.7169	0.191	0.5346	-1.0153	0.0102	-0.1698	-0.4702	-0.2712	0.3055	-0.0468	-0.0812	-1.0595	-0.2465	0.0097	-0.112	-0.2927	-0.8541	-1.1175	-0.033	0.1293	-0.2332	-0.1475	0.2735	-0.4299
-113.2812	0.3377	0.4409	0.2787	-0.1895	-0.704	-0.2695	-0.4732	0.3847	0.8437	-0.8658	0.0014	-0.0929	-0.4275	-0.1472	0.0626	-0.0142	0.0146	-1.142	-0.1318	0.0252	0.0236	-0.3453	-0.9908	-1.3721	-0.233	0.0274	-0.5301	-0.2945	0.1169	-0.3812
-109.375	0.2237	0.5017	0.281	-0.0277	-0.4934	-0.0972	-0.1403	0.6114	1.141	-0.624	0.0072	-0.0056	-0.318	0.0404	-0.094	0.0645	0.1421	-1.1804	0.0358	0.1093	0.2374	-0.3281	-0.9527	-1.528	-0.4157	-0.0756	-0.7718	-0.4167	-0.0146	-0.3091
-105.4688	0.1396	0.5411	0.3061	0.1658	-0.2169	0.1487	0.2389	0.8444	1.3776	-0.2974	0.0201	0.1081	-0.1554	0.2656	-0.1675	0.1653	0.2728	-1.1785	0.2311	0.241	0.4961	-0.2474	-0.7507	-1.5791	-0.5459	-0.1403	-0.9136	-0.4819	-0.1303	-0.2443
-101.5625	0.0653	0.5255	0.3131	0.3404	0.0652	0.3969	0.6103	1.0545	1.5121	0.0902	0.0312	0.2597	0.0336	0.4913	-0.1811	0.254	0.375	-1.1402	0.4223	0.3855	0.7504	-0.1211	-0.4307	-1.5338	-0.5949	-0.1318	-0.9262	-0.4639	-0.2433	-0.2136
-97.6562	-0.0176	0.4305	0.2653	0.448	0.2925	0.5802	0.92	1.2138	1.5204	0.5014	0.0312	0.4529	0.216	0.6787	-0.1701	0.2958	0.4224	-1.0679	0.5791	0.5041	0.9471	0.0283	-0.0592	-1.411	-0.5473	-0.03	-0.8022	-0.3493	-0.3649	-0.2321
-93.75	-0.1196	0.2476	0.1414	0.4557	0.4184	0.6523	1.1258	1.3002	1.4004	0.8905	0.0107	0.6813	0.3614	0.7971	-0.1707	0.2645	0.4	-0.9619	0.6799	0.565	1.0415	0.1803	0.2963	-1.2344	-0.4064	0.1621	-0.5582	-0.1447	-0.4993	-0.2986
-89.8438	-0.2392	-0.012	-0.0583	0.3536	0.4204	0.5977	1.2056	1.3016	1.1717	1.2116	-0.0388	0.9276	0.4494	0.8315	-0.2092	0.1503	0.3082	-0.8205	0.716	0.5503	1.0091	0.3225	0.5856	-1.0276	-0.1945	0.4156	-0.2327	0.1229	-0.6428	-0.3956
-85.9375	-0.3634	-0.3185	-0.3122	0.1574	0.3043	0.4336	1.1612	1.219	0.8705	1.4283	-0.1232	1.1668	0.4762	0.7867	-0.293	-0.0381	0.1623	-0.6407	0.6928	0.4596	0.8518	0.4515	0.7867	-0.8092	0.0531	0.6811	0.1244	0.4105	-0.7848	-0.4932
-82.0312	-0.4718	-0.6294	-0.5833	-0.096	0.1015	0.2022	1.0176	1.0674	0.5412	1.5217	-0.2431	1.3716	0.4563	0.6865	-0.4093	-0.2748	-0.0109	-0.4201	0.6278	0.3089	0.5979	0.5715	0.9052	-0.5891	0.2997	0.9029	0.4648	0.6705	-0.9109	-0.5569
-78.125	-0.543	-0.8982	-0.8302	-0.3568	-0.1391	-0.0414	0.8168	0.8735	0.2282	1.4939	-0.3906	1.5201	0.4201	0.5672	-0.5306	-0.523	-0.18	-0.1602	0.5446	0.1252	0.2956	0.6888	0.9642	-0.3671	0.518	1.0354	0.7554	0.8641	-1.0075	-0.5562
-74.2188	-0.5612	-1.0842	-1.0176	-0.575	-0.3631	-0.2448	0.6083	0.6697	-0.0311	1.3668	-0.5474	1.6023	0.4055	0.4691	-0.6248	-0.743	-0.3163	0.1295	0.4662	-0.0606	0.0013	0.8063	0.9912	-0.135	0.697	1.0566	0.9864	0.9715	-1.0649	-0.4726
-70.3125	-0.522	-1.1615	-1.1251	-0.7108	-0.523	-0.3692	0.4387	0.4865	-0.2118	1.1759	-0.6856	1.6232	0.4472	0.4247	-0.6667	-0.9013	-0.4014	0.4286	0.4091	-0.2215	-0.2344	0.9195	1.0068	0.1182	0.8401	0.9735	1.1702	0.9959	-1.079	-0.3055
-66.4062	-0.4337	-1.1246	-1.1514	-0.7437	-0.5879	-0.3971	0.3413	0.3448	-0.3045	0.9594	-0.7725	1.6008	0.5653	0.449	-0.6449	-0.9777	-0.4316	0.7049	0.3787	-0.3415	-0.3798	1.0147	1.0184	0.3986	0.9574	0.8178	1.3326	0.9607	-1.0524	-0.0739
-62.5	-0.3168	-0.9901	-1.1131	-0.6764	-0.5502	-0.3334	0.3292	0.2506	-0.3163	0.7468	-0.7791	1.5594	0.7567	0.5342	-0.5661	-0.97	-0.42	0.9181	0.3677	-0.4195	-0.4295	1.0714	1.0212	0.7004	1.0546	0.6341	1.4989	0.8996	-0.9934	0.1861
-58.5938	-0.1992	-0.793	-1.0392	-0.5339	-0.4262	-0.2028	0.3925	0.1939	-0.2694	0.5502	-0.6886	1.521	0.9931	0.6493	-0.4524	-0.8937	-0.3939	1.026	0.3568	-0.4694	-0.4064	1.0655	1.0012	1.0015	1.1251	0.4662	1.6802	0.8449	-0.9162	0.427
-54.6875	-0.11	-0.5797	-0.9622	-0.3566	-0.2513	-0.0436	0.5019	0.153	-0.1949	0.3607	-0.5024	1.4984	1.2256	0.7479	-0.3357	-0.7778	-0.3876	0.9945	0.3195	-0.5152	-0.3537	0.9745	0.9392	1.2648	1.1485	0.3452	1.8661	0.8178	-0.8382	0.6003
-50.7812	-0.0727	-0.3964	-0.9086	-0.1897	-0.0704	0.1006	0.6183	0.1025	-0.1245	0.154	-0.2404	1.4916	1.3968	0.7803	-0.2488	-0.6556	-0.432	0.8074	0.2289	-0.5824	-0.3224	0.7838	0.8163	1.446	1.0961	0.284	2.0255	0.824	-0.7761	0.6682
-46.875	-0.0981	-0.2783	-0.8911	-0.071	0.0747	0.1914	0.7039	0.0224	-0.0807	-0.0982	0.0656	1.4904	1.4563	0.7092	-0.2158	-0.5543	-0.5435	0.4753	0.0678	-0.6872	-0.3543	0.4924	0.6197	1.5056	0.9432	0.2783	2.1176	0.8554	-0.7397	0.6146
-42.9688	-0.1811	-0.2402	-0.9043	-0.0202	0.1566	0.2051	0.7346	-0.0942	-0.0695	-0.4147	0.3817	1.4786	1.3761	0.5217	-0.2447	-0.4854	-0.7149	0.0374	-0.1632	-0.8285	-0.4686	0.1177	0.3489	1.4224	0.6811	0.313	2.1057	0.8962	-0.7264	0.452
-39.0625	-0.3003	-0.2733	-0.9252	-0.0334	0.1703	0.1395	0.7063	-0.2392	-0.079	-0.7933	0.6805	1.4415	1.1598	0.2356	-0.3243	-0.4408	-0.9134	-0.4425	-0.4412	-0.985	-0.6546	-0.3038	0.0207	1.202	0.3254	0.3697	1.9721	0.931	-0.7188	0.2207
-35.1562	-0.4227	-0.3485	-0.9207	-0.0848	0.133	0.0156	0.6343	-0.3913	-0.0844	-1.2068	0.9462	1.3697	0.8423	-0.1052	-0.4272	-0.3966	-1.0869	-0.8893	-0.7238	-1.1199	-0.8756	-0.7226	-0.3326	0.8793	-0.0853	0.4323	1.726	0.9515	-0.687	-0.0204
-31.25	-0.5128	-0.4265	-0.8578	-0.136	0.0772	-0.1296	0.5466	-0.5239	-0.0583	-1.6073	1.1742	1.2609	0.4798	-0.4428	-0.5178	-0.3231	-1.1786	-1.2334	-0.9603	-1.1932	-1.081	-1.0869	-0.6706	0.5098	-0.4981	0.4886	1.4021	0.9578	-0.5979	-0.2092
-27.3438	-0.543	-0.4704	-0.7157	-0.1494	0.0381	-0.2544	0.4719	-0.6128	0.0185	-1.9372	1.3664	1.1177	0.1327	-0.7238	-0.5639	-0.1987	-1.145	-1.4274	-1.1057	-1.1766	-1.2248	-1.3558	-0.9553	0.157	-0.8602	0.5278	1.0516	0.9556	-0.4267	-0.2972
-23.4375	-0.5025	-0.4575	-0.495	-0.1017	0.041	-0.3264	0.4289	-0.6438	0.1491	-2.1447	1.525	0.9447	-0.1525	-0.915	-0.546	-0.0206	-0.9705	-1.4566	-1.134	-1.0655	-1.2813	-1.509	-1.1608	-0.1235	-1.1335	0.5379	0.7287	0.9503	-0.1673	-0.2623
-19.5312	-0.4	-0.3854	-0.2195	0.008	0.0917	-0.3325	0.419	-0.6164	0.3179	-2.1978	1.6481	0.745	-0.3553	-1.0125	-0.4638	0.1908	-0.6742	-1.3396	-1.0454	-0.8832	-1.2544	-1.5499	-1.2761	-0.2958	-1.3043	0.5047	0.478	0.9432	0.163	-0.113
-15.625	-0.2614	-0.2726	0.0675	0.157	0.1743	-0.2827	0.425	-0.5435	0.494	-2.0934	1.7278	0.5196	-0.4846	-1.0412	-0.3358	0.3955	-0.3068	-1.1217	-0.8658	-0.677	-1.1768	-1.5013	-1.3038	-0.3493	-1.3843	0.4146	0.3247	0.9291	0.5246	0.115
-11.7188	-0.1218	-0.1521	0.3127	0.3047	0.2553	-0.2062	0.4165	-0.4485	0.6393	-1.8582	1.7529	0.268	-0.5728	-1.0456	-0.1932	0.544	0.0603	-0.8621	-0.6392	-0.5064	-1.1002	-1.3971	-1.2552	-0.2977	-1.4047	0.2599	0.2721	0.8979	0.8647	0.3691
-7.8125	-0.0157	-0.0631	0.4647	0.4037	0.293	-0.1441	0.3599	-0.3588	0.7185	-1.541	1.7141	-0.0088	-0.6621	-1.0749	-0.0723	0.5903	0.3512	-0.6217	-0.4176	-0.4281	-1.0795	-1.2728	-1.1465	-0.1728	-1.4029	0.0432	0.3028	0.8386	1.1278	0.5917
-3.9062	0.0319	-0.0397	0.4859	0.4133	0.2501	-0.1373	0.2305	-0.2976	0.7103	-1.1975	1.611	-0.3052	-0.789	-1.1666	-0.0052	0.5046	0.5017	-0.4511	-0.2489	-0.4802	-1.1563	-1.1581	-0.9968	-0.0137	-1.409	-0.2191	0.386	0.7443	1.2681	0.7316
0	0.0113	-0.1026	0.3617	0.3112	0.1062	-0.2149	0.0243	-0.2766	0.6157	-0.8733	1.4584	-0.6075	-0.9697	-1.334	-0.0133	0.2829	0.4745	-0.3836	-0.1673	-0.6718	-1.3447	-1.0726	-0.8283	0.1438	-1.4345	-0.4971	0.487	0.6163	1.2586	0.7525
3.9062	-0.0708	-0.2527	0.1061	0.1013	-0.1336	-0.3847	-0.2355	-0.2913	0.4609	-0.5898	1.2894	-0.8931	-1.1925	-1.5596	-0.1024	-0.0504	0.2669	-0.4301	-0.1872	-0.9785	-1.6264	-1.0243	-0.6661	0.276	-1.4679	-0.7497	0.5772	0.4678	1.0978	0.6396
7.8125	-0.1932	-0.4701	-0.2398	-0.185	-0.4369	-0.6284	-0.5007	-0.3223	0.2924	-0.3388	1.1512	-1.1324	-1.4183	-1.7988	-0.2608	-0.4448	-0.0875	-0.58	-0.3013	-1.347	-1.9532	-1.0113	-0.5367	0.3757	-1.4781	-0.93	0.643	0.3235	0.8103	0.401
11.7188	-0.3261	-0.7181	-0.6154	-0.4952	-0.7498	-0.9038	-0.7076	-0.3412	0.166	-0.0867	1.0956	-1.2949	-1.5902	-1.9908	-0.462	-0.834	-0.5262	-0.8041	-0.4836	-1.7063	-2.2589	-1.024	-0.4645	0.4518	-1.4258	-0.9923	0.6882	0.2161	0.443	0.067
15.625	-0.4375	-0.9508	-0.9535	-0.7674	-1.0093	-1.1541	-0.794	-0.32	0.1314	0.212	1.1654	-1.3561	-1.6487	-2.0751	-0.6701	-1.1491	-0.9708	-1.0625	-0.6963	-1.9842	-2.4765	-1.0492	-0.4673	0.5232	-1.2773	-0.9016	0.7313	0.1785	0.0556	-0.3163
19.5312	-0.5011	-1.1234	-1.1947	-0.9442	-1.1585	-1.3216	-0.7169	-0.2406	0.2183	0.5983	1.3816	-1.3052	-1.5487	-2.0091	-0.8481	-1.3317	-1.3439	-1.3128	-0.898	-2.1224	-2.5536	-1.0737	-0.5526	0.6114	-1.0177	-0.6424	0.7968	0.2349	-0.2903	-0.6946
23.4375	-0.5004	-1.2002	-1.2986	-0.9856	-1.1601	-1.3613	-0.465	-0.1019	0.4277	1.0924	1.7351	-1.1498	-1.2723	-1.7789	-0.9662	-1.3445	-1.5836	-1.5191	-1.0514	-2.0881	-2.4651	-1.0861	-0.7142	0.733	-0.659	-0.2264	0.9051	0.3927	-0.5434	-1.0152
27.3438	-0.4309	-1.1608	-1.2511	-0.8757	-1.0036	-1.2512	-0.0639	0.0789	0.7309	1.6842	2.1869	-0.9154	-0.8351	-1.4035	-1.0067	-1.1762	-1.6545	-1.6588	-1.1288	-1.8785	-2.2161	-1.0774	-0.9319	0.8943	-0.2404	0.3054	1.0632	0.6379	-0.6707	-1.2362
31.25	-0.2987	-1.0018	-1.0641	-0.6246	-0.706	-0.997	0.43	0.2695	1.0762	2.3319	2.6754	-0.6419	-0.2836	-0.9295	-0.9656	-0.8419	-1.5516	-1.7266	-1.1156	-1.5185	-1.8389	-1.041	-1.1737	1.0898	0.1783	0.8852	1.2604	0.9349	-0.6619	-1.3333
35.1562	-0.1184	-0.7367	-0.7722	-0.2652	-0.3069	-0.6305	0.9425	0.4311	1.4016	2.9697	3.129	-0.3755	0.3136	-0.4202	-0.852	-0.3801	-1.2992	-1.7353	-1.0115	-1.0549	-1.3844	-0.9725	-1.4012	1.3035	0.5292	1.4282	1.4707	1.2325	-0.5302	-1.3046
39.0625	0.0885	-0.3944	-0.4252	0.1539	0.14	-0.2026	1.3988	0.5268	1.649	3.5234	3.4802	-0.1602	0.8788	0.0574	-0.6858	0.1528	-0.9454	-1.7128	-0.8304	-0.5476	-0.9121	-0.8705	-1.5761	1.5133	0.7508	1.8487	1.6606	1.4747	-0.3091	-1.171
42.9688	0.2965	-0.0154	-0.0793	0.5763	0.5769	0.2271	1.7408	0.5306	1.7771	3.9288	3.6776	-0.0281	1.3405	0.4456	-0.495	0.6901	-0.5526	-1.6962	-0.5982	-0.0601	-0.4797	-0.7379	-1.6679	1.6974	0.8016	2.0786	1.802	1.6158	-0.0469	-0.9729
46.875	0.4784	0.3533	0.2136	0.9474	0.9511	0.6028	1.9393	0.4325	1.7714	4.15	3.6949	0.0077	1.6472	0.7052	-0.311	1.1633	-0.1858	-1.724	-0.3487	0.3491	-0.1349	-0.5819	-1.658	1.8413	0.67	2.0852	1.8844	1.6336	0.2019	-0.7621
50.7812	0.6103	0.6643	0.4146	1.2224	1.2221	0.8821	2.0003	0.2419	1.6472	4.1918	3.535	-0.0434	1.7783	0.8214	-0.1648	1.5123	0.0991	-1.8261	-0.1168	0.6347	0.0908	-0.4138	-1.5424	1.9441	0.3777	1.8825	1.9239	1.5395	0.3865	-0.5899
54.6875	0.6747	0.8771	0.5042	1.371	1.3663	1.0416	1.9626	-0.0129	1.4481	4.1035	3.2287	-0.1514	1.7472	0.8034	-0.0824	1.6921	0.2631	-2.0171	0.0667	0.7688	0.1841	-0.2477	-1.3322	2.0188	-0.024	1.5306	1.9631	1.3773	0.4679	-0.4968
58.5938	0.6638	0.9618	0.4837	1.3794	1.3772	1.0776	1.8874	-0.2887	1.2369	3.9697	2.8282	-0.2739	1.5974	0.6795	-0.083	1.6781	0.2883	-2.2926	0.1791	0.7424	0.1483	-0.1004	-1.0513	2.0886	-0.4642	1.1237	2.0601	1.2125	0.424	-0.5054
62.5	0.5799	0.9032	0.371	1.2499	1.2643	1.0017	1.8416	-0.5355	1.0825	3.8912	2.3961	-0.3682	1.3906	0.4881	-0.1774	1.4663	0.1761	-2.6307	0.2065	0.5632	-0.0003	0.0088	-0.7343	2.1784	-0.8656	0.7682	2.2708	1.1145	0.2518	-0.6177
66.4062	0.4357	0.7024	0.1958	0.9992	1.0495	0.8359	1.8803	-0.7067	1.0422	3.9598	1.9931	-0.4025	1.193	0.27	-0.3652	1.0731	-0.0573	-2.997	0.1444	0.2529	-0.2366	0.0608	-0.4223	2.3058	-1.1578	0.5578	2.629	1.1369	-0.034	-0.8173
70.3125	0.2551	0.3784	-0.0063	0.6571	0.7657	0.6082	2.0306	-0.7713	1.1461	4.2328	1.6664	-0.3637	1.0627	0.0631	-0.632	0.5344	-0.3833	-3.3507	-0.0017	-0.1546	-0.5279	0.0408	-0.157	2.4753	-1.2882	0.553	3.131	1.3036	-0.4026	-1.0712
74.2188	0.0746	-0.0294	-0.1962	0.2666	0.4549	0.3508	2.2837	-0.722	1.3857	4.7142	1.4434	-0.2579	1.0411	-0.0982	-0.9439	-0.0944	-0.7629	-3.65	-0.2131	-0.614	-0.8338	-0.0537	0.0272	2.678	-1.2284	0.7682	3.7315	1.6034	-0.8094	-1.3332
78.125	-0.0559	-0.4614	-0.3315	-0.116	0.1675	0.1007	2.5955	-0.5791	1.7113	5.3477	1.3296	-0.1062	1.1511	-0.1817	-1.2455	-0.7391	-1.1447	-3.8535	-0.4545	-1.0678	-1.1045	-0.206	0.1116	2.8956	-0.9762	1.1697	4.3488	1.9943	-1.1979	-1.5461
82.0312	-0.075	-0.8406	-0.3669	-0.4238	-0.0397	-0.0989	2.8952	-0.3881	2.0402	6.0227	1.3121	0.0638	1.3981	-0.1545	-1.4623	-1.3104	-1.4639	-3.9212	-0.6724	-1.4476	-1.2808	-0.3754	0.1014	3.1059	-0.5558	1.6828	4.8801	2.4123	-1.5042	-1.6461
85.9375	0.0829	-1.0808	-0.2565	-0.5849	-0.1089	-0.2001	3.1007	-0.2118	2.2721	6.5916	1.365	0.2244	1.7737	0.0168	-1.51	-1.711	-1.6452	-3.8147	-0.7971	-1.6781	-1.2993	-0.4993	0.0306	3.2891	-0.0158	2.2042	5.2204	2.7844	-1.6621	-1.5688
89.8438	0.4764	-1.1002	0.0391	-0.5328	0.0099	-0.1562	3.1335	-0.1198	2.307	6.896	1.4531	0.3515	2.2572	0.3608	-1.3099	-1.8486	-1.6104	-3.4999	-0.7512	-1.6865	-1.1007	-0.5018	-0.0396	3.4299	0.5741	2.6184	5.2794	3.0378	-1.6136	-1.2597
93.75	1.1412	-0.8376	0.5434	-0.2203	0.3479	0.0677	2.9322	-0.1782	2.0635	6.7945	1.5348	0.4246	2.8174	0.8937	-0.8065	-1.6519	-1.2912	-2.9533	-0.4634	-1.4149	-0.6428	-0.3097	-0.0313	3.5169	1.1304	2.8135	4.9951	3.1088	-1.3189	-0.6853
97.6562	2.078	-0.2666	1.2551	0.3683	0.9072	0.4837	2.4607	-0.4394	1.4915	6.1898	1.5641	0.4249	3.412	1.6093	0.0175	-1.0857	-0.6452	-2.1691	0.1154	-0.8331	0.0875	0.1299	0.1328	3.5406	1.5667	2.698	4.3408	2.9479	-0.7659	0.1575
101.5625	3.246	0.5961	2.1445	1.2101	1.6557	1.0749	1.7126	-0.9348	0.5813	5.049	1.494	0.3349	3.9891	2.4735	1.1355	-0.1605	0.3321	-1.1651	0.9979	0.0517	1.0659	0.8337	0.5083	3.4912	1.8085	2.2141	3.3268	2.5246	0.0248	1.2381
105.4688	4.5667	1.6925	3.1563	2.245	2.5301	1.7955	0.7118	-1.6686	-0.6333	3.4153	1.284	0.1393	4.4899	3.4239	2.4801	1.066	1.6009	0.016	2.1522	1.1922	2.23	1.7746	1.1141	3.3581	1.8058	1.347	1.9983	1.8322	1.0031	2.4957
109.375	5.9365	2.9322	4.219	3.3844	3.445	2.5791	-0.4897	-2.6158	-2.0773	1.4072	0.9083	-0.1715	4.8546	4.3758	3.9542	2.496	3.0805	1.3095	3.5034	2.5062	3.4861	2.8832	1.9262	3.1325	1.5418	0.1269	0.43	0.8908	2.0974	3.8487
113.2812	7.2446	4.2082	5.2575	4.5267	4.3085	3.3502	-1.816	-3.7233	-3.6432	-0.7943	0.3644	-0.5973	5.0302	5.2345	5.4464	4.0062	4.6596	2.6366	4.9434	3.8866	4.722	4.0606	2.884	2.8104	1.0346	-1.3744	-1.2807	-0.2504	3.2273	5.2074
117.1875	8.3918	5.4141	6.2058	5.573	5.0367	4.0384	-3.1746	-4.9146	-5.2047	-2.9704	-0.3212	-1.1243	4.9784	5.9098	6.8467	5.4652	6.2124	3.9142	6.3489	5.2171	5.8238	5.1965	3.9054	2.3972	0.3317	-3.0532	-3.022	-1.5149	4.3161	6.4856
121.0938	9.3057	6.4586	7.0156	6.4421	5.568	4.5898	-4.4655	-6.0987	-6.634	-4.8974	-1.0929	-1.7232	4.6834	6.3304	8.0597	6.7513	7.6157	5.0643	7.6006	6.3869	6.6926	6.1896	4.905	1.9102	-0.5001	-4.7856	-4.677	-2.8049	5.3009	7.6107
125	9.948	7.2758	7.66	7.0797	5.87	4.9744	-5.591	-7.1808	-7.8175	-6.3808	-1.8698	-2.3492	4.1559	6.4549	9.0142	7.7664	8.7646	6.0216	8.6008	7.3045	7.2573	6.9638	5.8092	1.3785	-1.3884	-6.4427	-6.1335	-4.012	6.136	8.528
128.9062	10.3134	7.8286	8.1306	7.4613	5.9412	5.1864	-6.4663	-8.0738	-8.6686	-7.2839	-2.5553	-2.9452	3.434	6.2766	9.6671	8.4442	9.5824	6.7381	9.2849	7.9059	7.483	7.4759	6.5638	0.84	-2.2664	-7.9046	-7.2943	-5.0323	6.7928	9.203
132.8125	10.4217	8.106	8.4309	7.5891	5.806	5.2403	-7.0281	-8.7091	-9.1354	-7.5454	-3.0504	-3.4479	2.5784	5.8221	10.0035	8.7526	10.0253	7.1851	9.6242	8.1574	7.3703	7.7159	7.1339	0.3356	-3.0799	-9.073	-8.0859	-5.7815	7.2544	9.6194
136.7188	10.3066	8.1168	8.5676	7.4843	5.5055	5.1631	-7.2413	-9.0461	-9.2029	-7.1811	-3.2694	-3.7955	1.664	5.1436	10.0316	8.6897	10.0814	7.3528	9.6232	8.0538	6.9501	7.6989	7.4985	-0.0972	-3.7888	-9.8793	-8.4644	-6.2055	7.5107	9.7759
140.625	10.0046	7.8814	8.5446	7.1788	5.0876	4.9858	-7.1017	-9.0768	-8.8918	-6.2724	-3.1551	-3.9357	0.7695	4.3084	9.7766	8.2774	9.767	7.2485	9.3116	7.6138	6.2739	7.4568	7.6461	-0.4291	-4.3643	-10.2886	-8.4175	-6.2855	7.5545	9.6827
144.5312	9.5489	7.4254	8.36	6.707	4.5988	4.7375	-6.6347	-8.8262	-8.2531	-4.9443	-2.6901	-3.8346	-0.0334	3.388	9.2748	7.5556	9.1216	6.8953	8.737	6.8754	5.4039	7.0299	7.5733	-0.6414	-4.784	-10.2983	-7.9617	-6.0352	7.3825	9.3589
148.4375	8.9676	6.7764	8.0084	6.1032	4.0795	4.4418	-5.8886	-8.347	-7.3603	-3.3394	-1.8999	-3.4813	-0.6876	2.4507	8.57	6.5773	8.2031	6.3305	7.9583	5.8927	4.4063	6.4624	7.2875	-0.724	-5.0283	-9.9328	-7.1363	-5.4935	6.9988	8.8304
152.3438	8.2863	5.9644	7.4869	5.4004	3.5634	4.1172	-4.926	-7.7095	-6.2988	-1.5931	-0.8485	-2.8903	-1.1541	1.5571	7.7127	5.4066	7.0836	5.6039	7.0406	4.7337	3.3469	5.8008	6.8086	-0.6715	-5.0786	-9.2368	-5.9953	-4.714	6.42	8.1305
156.25	7.532	5.0247	6.801	4.6327	3.0782	3.7794	-3.8132	-6.9891	-5.1545	0.1844	0.374	-2.0992	-1.4119	0.759	6.7589	4.1171	5.8445	4.7748	6.0519	3.4769	2.2888	5.0924	6.17	-0.4799	-4.9206	-8.2686	-4.6	-3.7554	5.6786	7.2999
160.1562	6.7364	3.9995	5.9697	3.8364	2.6467	3.4435	-2.6123	-6.254	-4.0045	1.9168	1.6665	-1.1638	-1.455	0.0997	5.7675	2.7883	4.5702	3.9058	5.0589	2.2058	1.2909	4.3844	5.4176	-0.1446	-4.551	-7.0943	-3.0132	-2.6741	4.8218	6.3856
164.0625	5.9359	2.9382	5.0277	3.0505	2.2874	3.1257	-1.3753	-5.5563	-2.9093	3.5625	2.9323	-0.151	-1.289	-0.3866	4.7962	1.5002	3.3412	3.0555	4.1231	1.0015	0.405	3.7227	4.6075	0.338	-3.9837	-5.7841	-1.2962	-1.5213	3.9069	5.4387
167.9688	5.1694	1.8945	4.0233	2.3138	2.0135	2.8432	-0.1424	-4.9265	-1.9102	5.1079	4.0914	0.8695	-0.9268	-0.6755	3.8959	0.3257	2.2276	2.2724	3.2988	-0.0668	-0.3282	3.1509	3.8042	0.9673	-3.2546	-4.4083	0.4925	-0.341	2.9944	4.5096
171.875	4.475	0.9219	3.0147	1.6621	1.8323	2.6134	1.0569	-4.3739	-1.0296	6.559	5.0893	1.8347	-0.3852	-0.7543	3.106	-0.678	1.2849	1.591	2.6299	-0.9486	-0.8819	2.7082	3.0772	1.7354	-2.4178	-3.0334	2.2977	0.8291	2.14	3.6445
175.7812	3.8848	0.0681	2.0628	1.1243	1.7447	2.4528	2.2013	-3.8911	-0.2737	7.9307	5.8998	2.6952	0.3167	-0.6237	2.4519	-1.4755	0.5509	1.0316	2.149	-1.6175	-1.2457	2.427	2.4955	2.6245	-1.537	-1.7178	4.068	1.9575	1.3895	2.8799
179.6875	3.4212	-0.631	1.2237	0.719	1.7463	2.3752	3.2738	-3.4617	0.3623	9.2363	6.5237	3.4202	1.1574	-0.2985	1.9443	-2.0558	0.0451	0.6025	1.8752	-2.0717	-1.4256	2.3286	2.1184	3.6055	-0.6736	-0.5086	5.7556	3.018	0.7742	2.2401
183.5938	3.094	-1.1541	0.5413	0.4532	1.8274	2.3894	4.2581	-3.0696	0.8885	10.4788	6.9818	3.9977	2.1116	0.1919	1.5805	-2.4305	-0.2313	0.3029	1.8117	-2.3312	-1.4426	2.4182	1.985	4.6379	0.1233	0.5612	7.3158	3.9885	0.309	1.7341
187.5	2.8986	-1.4972	0.0419	0.3214	1.9743	2.4971	5.1365	-2.7052	1.315	11.644	7.3051	4.4307	3.1474	0.8051	1.347	-2.6286	-0.2936	0.125	1.944	-2.4313	-1.3289	2.681	2.1042	5.6719	0.8233	1.472	8.7068	4.8495	-0.0085	1.3565
191.4062	2.8173	-1.6719	-0.2685	0.3071	2.1698	2.6904	5.8891	-2.3694	1.6477	12.7006	7.5243	4.7308	4.2241	1.4888	1.2232	-2.688	-0.1707	0.0567	2.2399	-2.4141	-1.1226	3.0812	2.4493	6.6523	1.4147	2.2172	9.8896	5.5826	-0.1954	1.0898
195.3125	2.8231	-1.7028	-0.4028	0.3861	2.3939	2.9514	6.4958	-2.0714	1.8875	13.6059	7.6609	4.9118	5.2926	2.186	1.1866	-2.6468	0.0997	0.0839	2.6527	-2.3201	-0.8616	3.5661	2.9606	7.5247	1.9009	2.7996	10.8303	6.1698	-0.2784	0.9101
199.2188	2.8864	-1.6215	-0.3881	0.5305	2.6259	3.2536	6.9393	-1.825	2.032	14.3169	7.7238	4.9848	6.2981	2.8413	1.2175	-2.5361	0.4764	0.1919	3.1286	-2.1812	-0.5782	4.075	3.5587	8.2427	2.294	3.2273	11.5039	6.5948	-0.2869	0.795
203.125	2.9829	-1.4612	-0.259	0.7137	2.8467	3.5659	7.2101	-1.6427	2.0789	14.8021	7.7101	4.9573	7.1854	3.4084	1.3039	-2.3746	0.9205	0.3676	3.6153	-2.0162	-0.2955	4.551	4.1628	8.775	2.607	3.5096	11.8981	6.8464	-0.2452	0.7293
207.0312	3.0987	-1.2508	-0.0499	0.9135	3.042	3.8585	7.3098	-1.5319	2.03	15.0503	7.6105	4.8346	7.9046	3.856	1.4434	-2.1684	1.3999	0.5996	4.0711	-1.8307	-0.0257	4.9519	4.7084	9.109	2.8476	3.6528	12.0162	6.9216	-0.1665	0.7103
210.9375	3.2322	-1.0116	0.2101	1.1153	3.2035	4.1082	7.2521	-1.4934	1.8939	15.0717	7.4154	4.6215	8.4178	4.1702	1.6422	-1.9131	1.8917	0.8774	4.4695	-1.6204	0.2274	5.2555	5.1578	9.2519	3.0147	3.6579	11.8771	6.8273	-0.0509	0.7475
214.8438	3.3903	-0.7559	0.5	1.3112	3.33	4.3012	7.06	-1.5222	1.6852	14.8931	7.1209	4.3245	8.7028	4.3547	1.9106	-1.6007	2.3822	1.1907	4.7997	-1.3779	0.4642	5.4592	5.4982	9.2263	3.0981	3.5207	11.5116	6.5792	0.113	0.8593
218.75	3.5813	-0.4892	0.8051	1.4984	3.425	4.4332	6.7613	-1.6104	1.4228	14.5484	6.7315	3.954	8.7549	4.4253	2.2559	-1.2258	2.8655	1.5284	5.0627	-1.0998	0.6846	5.5736	5.7346	9.0629	3.0827	3.2361	10.9574	6.1991	0.3411	1.0665
222.6562	3.8073	-0.213	1.1143	1.6764	3.4947	4.5069	6.3834	-1.7489	1.1277	14.0698	6.262	3.5252	8.5861	4.404	2.6768	-0.7919	3.3401	1.8795	5.2659	-0.7925	0.8838	5.6154	5.8796	8.793	2.9537	2.8036	10.2527	5.7119	0.6455	1.3852
226.5625	4.0591	0.0713	1.4172	1.8438	3.5439	4.5263	5.9491	-1.9284	0.8211	13.4828	5.7362	3.0596	8.2216	4.3121	3.1601	-0.314	3.806	2.2353	5.4178	-0.4741	1.0508	5.6011	5.9477	8.4412	2.7019	2.2344	9.432	5.1435	1.0262	1.8213
230.4688	4.3153	0.3594	1.7017	1.9969	3.5742	4.4929	5.475	-2.1389	0.5235	12.8056	5.1838	2.5838	7.6963	4.1661	3.6824	0.1824	4.2623	2.592	5.5265	-0.1716	1.1704	5.5438	5.9545	8.0222	2.3288	1.5555	8.5238	4.5205	1.4672	2.3668
234.375	4.5477	0.6435	1.9549	2.1299	3.583	4.4042	4.9719	-2.3683	0.2538	12.0509	4.6355	2.1267	7.0507	3.9761	4.2147	0.6653	4.705	2.952	5.5983	0.0855	1.227	5.4536	5.9163	7.5418	1.8489	0.8084	7.5514	3.8691	1.9382	3.0001
238.2812	4.7289	0.9132	2.1642	2.237	3.5654	4.2555	4.4471	-2.6012	0.0286	11.2303	4.1175	1.7155	6.3283	3.7487	4.7298	1.1039	5.1273	3.3231	5.639	0.2732	1.2112	5.3382	5.8494	7.0011	1.2906	0.044	6.5365	3.2145	2.4016	3.6886
242.1875	4.8417	1.1605	2.32	2.3161	3.5187	4.046	3.9083	-2.8195	-0.1387	10.3593	3.6479	1.3714	5.5754	3.4925	5.2091	1.4754	5.5204	3.7178	5.6558	0.381	1.1261	5.2052	5.7673	6.4042	0.6944	-0.6862	5.5039	2.5791	2.8221	4.3938
246.0938	4.8869	1.3839	2.4194	2.374	3.4468	3.7848	3.3683	-3.0042	-0.2388	9.4627	3.2347	1.1084	4.8409	3.2242	5.6476	1.7723	5.8779	4.1508	5.6584	0.4183	0.9924	5.064	5.6785	5.7653	0.1086	-1.3378	4.4856	1.982	3.1756	5.0789
250	4.886	1.5931	2.4697	2.4284	3.3644	3.4963	2.8475	-3.1386	-0.2675	8.5777	2.8769	0.9332	4.1768	2.9734	6.0542	2.0061	6.1999	4.6375	5.6613	0.4154	0.8494	4.9285	5.586	5.1137	-0.4172	-1.88	3.5221	1.4396	3.4547	5.7151
253.9062	4.8774	1.8086	2.489	2.5063	3.2962	3.2192	2.3739	-3.2111	-0.2266	7.7539	2.5677	0.8467	3.6356	2.7816	6.4479	2.205	6.4952	5.1908	5.6831	0.4195	0.7507	4.8173	5.4902	4.4937	-0.8402	-2.2988	2.6599	0.966	3.6683	6.2866
257.8125	4.9074	2.0563	2.5042	2.638	3.2724	3	1.9785	-3.2182	-0.1246	7.046	2.2981	0.8435	3.2634	2.695	6.849	2.4056	6.7801	5.8162	5.7441	0.4834	0.7528	4.7517	5.3923	3.9565	-1.1326	-2.5979	1.9437	0.5716	3.8362	6.7898
261.7188	5.0162	2.359	2.544	2.8466	3.3194	2.882	1.688	-3.1663	0.0228	6.5029	2.0596	0.9103	3.0902	2.7516	7.2692	2.6405	7.0709	6.506	5.8595	0.6501	0.8997	4.7504	5.2966	3.5487	-1.2886	-2.7989	1.4046	0.2614	3.9788	7.2292
265.625	5.2259	2.726	2.6313	3.1389	3.4506	2.8929	1.5168	-3.0715	0.1932	6.1535	1.846	1.0254	3.1218	2.9677	7.7033	2.9246	7.3753	7.2332	6.0329	0.9374	1.2074	4.8216	5.21	3.2991	-1.3271	-2.9375	1.051	0.0314	4.1076	7.6087
269.5312	5.5329	3.1471	2.7768	3.499	3.6598	3.0357	1.4613	-2.9584	0.3586	5.997	1.6544	1.1586	3.3344	3.3285	8.1275	3.2476	7.6848	7.9508	6.2511	1.3291	1.6556	4.9577	5.138	3.2102	-1.2883	-3.0571	0.8639	-0.1315	4.2197	7.9253
273.4375	5.9079	3.593	2.9762	3.8905	3.9206	3.2863	1.4992	-2.8563	0.4887	5.9994	1.4846	1.277	3.6781	3.7881	8.5035	3.5749	7.9741	8.5951	6.4845	1.7768	2.1892	5.1339	5.0819	3.2577	-1.2236	-3.1976	0.8013	-0.2471	4.2986	8.1655
277.3438	6.3039	4.0211	3.2122	4.2634	4.1924	3.5967	1.5941	-2.794	0.5557	6.0996	1.3384	1.3515	4.0876	4.2796	8.7894	3.8575	8.2064	9.0973	6.6939	2.2123	2.7309	5.3136	5.0369	3.3981	-1.1826	-3.3832	0.8098	-0.3371	4.3213	8.3074
281.25	6.6673	4.3875	3.4583	4.5665	4.4297	3.9045	1.705	-2.7927	0.5396	6.2218	1.2178	1.3645	4.4959	4.7312	8.9498	4.047	8.3441	9.3964	6.8402	2.5672	3.2015	5.4575	4.9939	3.5808	-1.2006	-3.6137	0.8386	-0.419	4.2672	8.3259
285.1562	6.9498	4.6572	3.6852	4.7592	4.5934	4.1455	1.7962	-2.8607	0.4333	6.2924	1.1229	1.3138	4.8495	5.0847	8.9653	4.1114	8.3611	9.4531	6.8954	2.7929	3.5406	5.5353	4.9439	3.7609	-1.2908	-3.8639	0.8515	-0.5034	4.1257	8.2011
289.0625	7.1172	4.8135	3.8665	4.8215	4.6603	4.2664	1.8474	-2.9886	0.246	6.255	1.0507	1.2129	5.1174	5.3088	8.835	4.0456	8.2511	9.2586	6.8513	2.875	3.7219	5.5341	4.8816	3.9072	-1.4441	-4.0925	0.8316	-0.5937	3.8998	7.9237
292.9688	7.1539	4.8612	3.9833	4.7583	4.6294	4.2371	1.8583	-3.1493	0.0039	6.0821	0.9951	1.087	5.2948	5.4056	8.5762	3.8741	8.031	8.8371	6.7215	2.8372	3.7598	5.4612	4.8085	4.0065	-1.6349	-4.2566	0.7795	-0.6882	3.6056	7.4996
296.875	7.0634	4.8251	4.0277	4.5991	4.5224	4.0576	1.8487	-3.3027	-0.2537	5.7789	0.9495	0.9668	5.3998	5.4072	8.2187	3.6464	7.737	8.2401	6.5379	2.7355	3.7045	5.3412	4.7307	4.0608	-1.8298	-4.3259	0.7074	-0.7835	3.2675	6.9499
300.7812	6.8654	4.7436	4.0043	4.3916	4.3792	3.7591	1.8524	-3.4035	-0.482	5.38	0.91	0.8811	5.464	5.3653	7.8	3.4256	7.4167	7.5365	6.3426	2.6437	3.6287	5.2074	4.655	4.0813	-1.9979	-4.2928	0.63	-0.8772	2.9121	6.3091
304.6875	6.591	4.6609	3.929	4.1922	4.2486	3.3984	1.9073	-3.4126	-0.6404	4.9395	0.8783	0.8513	5.5225	5.3376	7.3589	3.2751	7.118	6.7989	6.1768	2.6362	3.6095	5.0921	4.5842	4.0813	-2.1172	-4.1725	0.5587	-0.9696	2.5618	5.6204
308.5938	6.2778	4.619	3.8272	4.0554	4.1776	3.0454	2.044	-3.3056	-0.7007	4.5185	0.8631	0.8888	5.604	5.3738	6.9312	3.2473	6.8801	6.0924	6.0721	2.7723	3.7113	5.0179	4.5145	4.0697	-2.1778	-3.9969	0.4967	-1.0636	2.2318	4.9312
312.5	5.9647	4.6524	3.7302	4.025	4.2021	2.7691	2.2779	-3.0789	-0.6534	4.1736	0.8792	0.9948	5.7253	5.5071	6.5461	3.3762	6.7283	5.466	6.0455	3.0877	3.975	4.9954	4.4369	4.0497	-2.1804	-3.8019	0.441	-1.162	1.9304	4.287
316.4062	5.6882	4.7858	3.6712	4.129	4.3413	2.6257	2.6067	-2.7517	-0.5087	3.9487	0.9442	1.1627	5.8918	5.7521	6.2249	3.6761	6.6736	4.95	6.1006	3.5926	4.4143	5.025	4.3433	4.0219	-2.1312	-3.6134	0.3882	-1.2637	1.6616	3.726
320.3125	5.4789	5.0338	3.681	4.3782	4.5986	2.6503	3.0144	-2.3609	-0.2918	3.8729	1.0737	1.3824	6.1019	6.1087	5.981	4.1439	6.7164	4.5583	6.2322	4.2766	5.0196	5.1036	4.2334	3.9912	-2.0362	-3.4376	0.3428	-1.3588	1.4283	3.2751
324.2188	5.3592	5.4011	3.7834	4.7678	4.9648	2.8545	3.4789	-1.9534	-0.0351	3.9618	1.2779	1.6432	6.3538	6.5683	5.8214	4.764	6.851	4.2919	6.4328	5.1161	5.7665	5.2316	4.1205	3.9736	-1.8982	-3.258	0.324	-1.4273	1.2344	2.947
328.125	5.3414	5.883	3.9904	5.281	5.4244	3.2273	3.9806	-1.5751	0.2308	4.2191	1.5581	1.9362	6.6508	7.1204	5.7487	5.512	7.0691	4.1422	6.6975	6.081	6.6233	5.417	4.0329	3.9979	-1.7184	-3.0423	0.366	-1.442	1.0851	2.7389
332.0312	5.4269	6.4652	4.2992	5.8918	5.9593	3.739	4.5064	-1.2608	0.4834	4.6378	1.9051	2.2543	7.0026	7.7549	5.762	6.3571	7.3599	4.0913	7.0245	7.1379	7.5568	5.6744	4.0098	4.1023	-1.4997	-2.7547	0.5111	-1.376	0.986	2.6336
335.9375	5.6074	7.1239	4.6907	6.5681	6.5508	4.346	5.0497	-1.0282	0.7111	5.199	2.3	2.5914	7.4211	8.4605	5.8567	7.2629	7.7087	4.1116	7.412	8.2503	8.5329	6.0196	4.0933	4.3235	-1.2512	-2.3707	0.7956	-1.2119	0.9407	2.6034
339.8438	5.8656	7.8251	5.1309	7.273	7.1779	4.9963	5.6042	-0.8761	0.9118	5.8706	2.7151	2.9405	7.9129	9.2183	6.0227	8.1859	8.0935	4.1656	7.8526	9.3753	9.5142	6.4616	4.3175	4.6841	-0.9902	-1.8874	1.2357	-0.9497	0.9468	2.6138
343.75	6.1757	8.5258	5.5751	7.9652	7.8143	5.6337	6.1573	-0.7883	1.0897	6.6063	3.1179	3.2922	8.469	9.9955	6.2406	9.0753	8.4827	4.2075	8.3272	10.4608	10.4562	6.9931	4.6967	5.1809	-0.741	-1.3279	1.817	-0.6091	0.9938	2.6285
347.6562	6.5043	9.176	5.9734	8.5998	8.4248	6.2019	6.6842	-0.7401	1.2506	7.3473	3.4749	3.634	9.0587	10.7416	6.4789	9.8735	8.8346	4.1891	8.8012	11.4436	11.3049	7.5847	5.2162	5.7802	-0.5301	-0.7362	2.4921	-0.2272	1.0617	2.6138
351.5625	6.8118	9.7232	6.2794	9.1307	8.9662	6.6496	7.1474	-0.7056	1.3983	8.0267	3.7556	3.9492	9.6296	11.391	6.6951	10.5201	9.1018	4.0673	9.2265	12.2541	12.0002	8.1846	5.8281	6.4202	-0.3805	-0.1677	3.1889	0.1485	1.1235	2.5418
355.4688	7.0573	10.1213	6.4586	9.5167	9.3924	6.9383	7.5022	-0.6642	1.5309	8.5758	3.9363	4.2175	10.1151	11.8738	6.8408	10.9606	9.24	3.8134	9.5489	12.826	12.4847	8.7259	6.4554	7.0233	-0.3049	0.3242	3.8252	0.4693	1.1507	2.3951
359.375	7.2064	10.3407	6.4973	9.7299	9.6654	7.0506	7.7073	-0.6038	1.6396	8.9338	4.0016	4.4167	10.4502	12.1329	6.8735	11.1575	9.2198	3.422	9.7206	13.1116	12.7175	9.1411	7.0066	7.5133	-0.302	0.6998	4.3274	0.6945	1.1212	2.17
363.2812	7.2397	10.3781	6.4071	9.7661	9.7669	6.9981	7.7372	-0.5211	1.7099	9.0597	3.9457	4.5274	10.5884	12.1409	6.7676	11.1022	9.0373	2.9149	9.7145	13.0969	12.6881	9.3798	7.3965	7.8344	-0.3541	0.9411	4.6466	0.7988	1.0263	1.8789
367.1875	7.1589	10.2613	6.2247	9.6497	9.7085	6.822	7.5928	-0.4181	1.7265	8.9428	3.7742	4.538	10.517	11.9129	6.5232	10.8218	8.7197	2.3406	9.5345	12.8111	12.4255	9.423	7.5674	7.9645	-0.4298	1.055	4.7688	0.7771	0.8751	1.5502
371.0938	6.9868	10.0454	6.0037	9.4328	9.5329	6.5871	7.3069	-0.2973	1.6809	8.6096	3.5062	4.4506	10.2634	11.5071	6.1674	10.3777	8.3217	1.7652	9.218	12.3253	11.9961	9.2898	7.5036	7.9208	-0.489	1.07	4.7168	0.6454	0.6936	1.2228
375	6.7614	9.8007	5.8016	9.1844	9.3059	6.3685	6.9399	-0.156	1.5789	8.1232	3.1757	4.2828	9.8909	11.0137	5.7481	9.8534	7.9128	1.2586	8.8286	11.7384	11.4913	9.0324	7.2344	7.753	-0.4918	1.0276	4.5429	0.4379	0.5176	0.938
378.9062	6.5247	9.5946	5.6643	8.974	9.1005	6.2349	6.569	0.0155	1.4435	7.5736	2.8294	4.0664	9.4845	10.5332	5.322	9.336	7.5598	0.8766	8.441	11.1546	11.0066	8.7225	6.8251	7.5293	-0.4078	0.9706	4.3151	0.2001	0.3823	0.7294
382.8125	6.311	9.474	5.6141	8.8531	8.9777	6.2336	6.2705	0.2317	1.3122	7.06	2.5204	3.8401	9.1304	10.1522	4.9416	8.8951	7.3093	0.6471	8.1237	10.6583	10.6181	8.4332	6.3626	7.3182	-0.2253	0.9315	4.0989	-0.0213	0.3106	0.615
386.7188	6.1375	9.4536	5.6447	8.8418	8.9712	6.38	6.1019	0.5051	1.2271	6.6714	2.2973	3.6402	8.8947	9.9226	4.6429	8.5668	7.1758	0.5629	7.9229	10.2947	10.3648	8.2222	5.9371	7.1718	0.0418	0.924	3.9422	-0.188	0.3055	0.592
390.625	6.0017	9.5129	5.7238	8.9238	9.0782	6.6546	6.0887	0.8384	1.2232	6.4687	2.192	3.4913	8.8084	9.8507	4.4379	8.3471	7.1396	0.5847	7.8532	10.0614	10.2405	8.1204	5.6269	7.1157	0.3535	0.9406	3.8648	-0.278	0.3472	0.6372
394.5312	5.883	9.6025	5.8026	9.0517	9.2616	7.0084	6.2189	1.2186	1.3182	6.4749	2.2115	3.4015	8.8608	9.8982	4.3139	8.1955	7.1539	0.6518	7.8966	9.9133	10.1985	8.129	5.4855	7.148	0.651	0.9582	3.8567	-0.2876	0.3981	0.712
398.4375	5.7517	9.6587	5.8302	9.1612	9.4618	7.3745	6.4492	1.6175	1.5106	6.6768	2.3362	3.3618	9.0065	9.9967	4.239	8.0495	7.1588	0.7001	8.0088	9.7789	10.1677	8.2227	5.5332	7.2454	0.8718	0.9493	3.8864	-0.2286	0.4116	0.772
402.3438	5.5795	9.6213	5.7676	9.1896	9.6141	7.6847	6.7198	1.9985	1.7843	7.035	2.5263	3.3517	9.1802	10.0683	4.1746	7.8445	7.099	0.6795	8.1335	9.5831	10.0747	8.3604	5.7547	7.3751	0.9667	0.8953	3.9143	-0.1218	0.3464	0.7783
406.25	5.3512	9.4506	5.5981	9.0942	9.6682	7.8866	6.974	2.3267	2.1178	7.5004	2.7344	3.3478	9.3177	10.0496	4.0888	7.5339	6.9396	0.5677	8.2185	9.27	9.867	8.4977	6.1038	7.5073	0.9148	0.7958	3.9086	0.0105	0.1787	0.7087
410.1562	5.0716	9.1387	5.3323	8.8647	9.6034	7.957	7.1762	2.5788	2.4938	8.0297	2.9184	3.3315	9.3753	9.9101	3.9691	7.1035	6.6758	0.3773	8.2309	8.8196	9.5289	8.6009	6.5157	7.6244	0.7305	0.6708	3.8572	0.1501	-0.089	0.5657
414.0625	4.7671	8.7128	5.005	8.5268	9.4346	7.9073	7.3221	2.7487	2.9033	8.5958	3.0532	3.2945	9.3427	9.6612	3.8269	6.5771	6.3355	0.1537	8.1661	8.2526	9.0869	8.6557	6.9238	7.7251	0.4599	0.5552	3.7734	0.2854	-0.4259	0.3787
417.9688	4.4796	8.2273	4.6659	8.1352	9.2088	7.7796	7.4376	2.8472	3.3437	9.1891	3.1348	3.2404	9.2449	9.3526	3.6947	6.0091	5.9724	-0.0361	8.0488	7.6245	8.6024	8.6708	7.2758	7.8229	0.169	0.4878	3.6926	0.4102	-0.7797	0.198
421.875	4.2554	7.7499	4.3652	7.758	8.9903	7.633	7.5666	2.8952	3.8104	9.8097	3.178	3.1806	9.133	9.0575	3.6151	5.4689	5.6518	-0.1202	7.9234	7.0088	8.1543	8.6729	7.5437	7.9381	-0.0736	0.4991	3.6614	0.522	-1.0892	0.082
425.7812	4.1324	7.342	4.1387	7.4572	8.8408	7.5241	7.7518	2.9141	4.2874	10.4535	3.2082	3.1289	9.0661	8.8499	3.6254	5.0193	5.4326	-0.0421	7.8389	6.4756	7.8161	8.6961	7.726	8.0887	-0.2148	0.6008	3.7209	0.6193	-1.3009	0.08
429.6875	4.1291	7.0423	3.9976	7.2703	8.7994	7.4884	8.0141	2.9161	4.7402	11.0979	3.2493	3.095	9.0904	8.7814	3.7435	4.6975	5.3506	0.2238	7.8322	6.0714	7.6346	8.7691	7.8421	8.2805	-0.2296	0.7817	3.8908	0.6995	-1.3831	0.2167
433.5938	4.2405	6.8573	3.9255	7.2002	8.8701	7.5287	8.3395	2.8992	5.1171	11.6932	3.3145	3.0808	9.2215	8.8649	3.9596	4.5041	5.4081	0.6638	7.9157	5.8065	7.6172	8.9043	7.9219	8.5007	-0.1254	1.0097	4.1574	0.7581	-1.3343	0.4835
437.5	4.441	6.7616	3.8847	7.2154	9.0208	7.6157	8.678	2.8482	5.3587	12.1664	3.401	3.0794	9.4374	9.0699	4.2387	4.4036	5.5726	1.2292	8.0739	5.6544	7.7304	9.0934	7.9946	8.7175	0.0637	1.2413	4.4723	0.7876	-1.1827	0.8413
441.4062	4.6934	6.7086	3.8297	7.2618	9.1947	7.7003	8.9558	2.743	5.4144	12.4352	3.4916	3.0776	9.6835	9.3322	4.5305	4.3361	5.7864	1.8501	8.2682	5.5624	7.9124	9.3095	8.0784	8.8866	0.2894	1.4326	4.7618	0.7777	-0.9761	1.2315
445.3125	4.9613	6.647	3.7238	7.2818	9.3297	7.7319	9.0974	2.569	5.2596	12.4313	3.5616	3.0597	9.8893	9.5729	4.7857	4.2363	5.9818	2.4535	8.4493	5.4694	8.0917	9.5156	8.1758	8.9622	0.5039	1.5504	4.9455	0.7163	-0.7673	1.5936
449.2188	5.2188	6.5389	3.5531	7.2333	9.3795	7.6779	9.051	2.3271	4.9072	12.1235	3.5874	3.0125	9.9906	9.723	4.9699	4.0533	6.0992	2.9812	8.5714	5.3258	8.2086	9.6757	8.2748	8.9112	0.6713	1.5789	4.9588	0.5916	-0.5981	1.8821
453.125	5.4558	6.3712	3.3321	7.1034	9.3275	7.5348	8.8075	2.0384	4.4097	11.5333	3.5536	2.9292	9.9496	9.7431	5.072	3.7643	6.1008	3.3999	8.6052	5.1072	8.2306	9.766	8.3546	8.7254	0.7737	1.5199	4.7724	0.3955	-0.4882	2.0756
457.0312	5.6748	6.1574	3.0994	6.9106	9.1904	7.3294	8.4064	1.7413	3.8496	10.738	3.4559	2.8111	9.7667	9.6333	5.1049	3.379	5.9769	3.7019	8.544	4.8185	8.158	9.7805	8.3949	8.4268	0.8114	1.3899	4.402	0.1278	-0.4316	2.1785
460.9375	5.8835	5.93	2.9035	6.6955	9.0099	7.1083	7.9277	1.4818	3.3204	9.8587	3.2992	2.6671	9.4808	9.4308	5.0971	2.9328	5.7444	3.8983	8.4027	4.4881	8.018	9.7318	8.3835	8.0651	0.7989	1.2132	3.9066	-0.2015	-0.404	2.2141
464.8438	6.0857	5.7255	2.7848	6.5048	8.837	6.9223	7.4709	1.2996	2.9058	9.0374	3.0936	2.5118	9.1576	9.1961	5.0814	2.4733	5.4387	4.007	8.2121	4.1551	7.8527	9.6456	8.3209	7.7078	0.7593	1.0156	3.3752	-0.5699	-0.3747	2.2125
468.75	6.2761	5.5706	2.7601	6.3746	8.7147	6.81	7.1278	1.2154	2.6591	8.4077	2.8492	2.3632	8.8725	8.9956	5.0835	2.0457	5.1022	4.0426	8.0086	3.8555	7.7037	9.5533	8.2219	7.4248	0.7175	0.8191	2.9064	-0.9434	-0.3209	2.2003
472.6562	6.4399	5.4726	2.8158	6.3177	8.6638	6.7871	6.9575	1.2233	2.591	8.0655	2.5735	2.239	8.6899	8.8819	5.1142	1.6801	4.775	4.0113	7.8254	3.6112	7.5996	9.4829	8.1115	7.272	0.6943	0.6392	2.5854	-1.2805	-0.2373	2.1922
476.5625	6.5576	5.417	2.9104	6.3199	8.6778	6.8419	6.9699	1.2905	2.6683	8.046	2.2696	2.153	8.6453	8.8806	5.1679	1.3855	4.4861	3.9116	7.6834	3.4247	7.5488	9.4514	8.0182	7.2772	0.7	0.4838	2.4634	-1.5405	-0.1389	2.1891
480.4688	6.6118	5.3731	2.9876	6.3445	8.7247	6.9399	7.1224	1.366	2.8232	8.314	1.9375	2.1109	8.7351	8.984	5.2262	1.1509	4.2492	3.7395	7.5865	3.2793	7.5382	9.4603	7.9653	7.4306	0.7312	0.3524	2.5439	-1.6935	-0.0548	2.1791
484.375	6.5944	5.3043	2.9933	6.3448	8.7588	7.0349	7.3317	1.3952	2.9714	8.7693	1.5768	2.1097	8.9165	9.1547	5.2663	0.9515	4.0633	3.4953	7.523	3.1463	7.5391	9.4961	7.9646	7.6859	0.7708	0.2378	2.781	-1.7277	-0.0181	2.144
488.2812	6.5126	5.1819	2.8937	6.2801	8.7363	7.084	7.4978	1.3371	3.0349	9.2693	1.1914	2.1391	9.1196	9.3385	5.271	0.7609	3.9175	3.1898	7.4715	2.9961	7.5187	9.5361	8.0147	7.9708	0.7924	0.128	3.0907	-1.6529	-0.0522	2.0676
492.1875	6.3908	4.9955	2.6869	6.1299	8.6308	7.0614	7.5327	1.1773	2.9616	9.6626	0.7933	2.186	9.2672	9.4811	5.2369	0.5624	3.7988	2.8465	7.4109	2.8105	7.4523	9.5578	8.1027	8.2061	0.7682	0.0113	3.3726	-1.4964	-0.161	1.9434
496.0938	6.2673	4.758	2.4046	5.9025	8.4438	6.9653	7.3857	0.9332	2.7368	9.824	0.4044	2.2384	9.2965	9.544	5.1778	0.3559	3.6992	2.4989	7.3289	2.5906	7.3335	9.5473	8.2096	8.3258	0.6767	-0.1207	3.5352	-1.2961	-0.3245	1.7797
500	6.1852	4.5017	2.1031	5.6321	8.2038	6.8176	7.0562	0.6483	2.3838	9.6825	0.0532	2.2867	9.1754	9.5142	5.1212	0.1579	3.6178	2.1832	7.2256	2.3574	7.1758	9.5035	8.3146	8.2935	0.5088	-0.2699	3.519	-1.0922	-0.504	1.5971
503.9062	6.1805	4.268	1.8466	5.3692	7.9581	6.655	6.5927	0.3787	1.9538	9.2342	-0.232	2.3227	8.9095	9.4043	5.0989	-0.0053	3.5589	1.9284	7.1112	2.1447	7.0076	9.4365	8.3989	8.1093	0.2709	-0.4311	3.3103	-0.9194	-0.6526	1.4226
507.8125	6.2727	4.0946	1.6886	5.1647	7.7578	6.5157	6.0774	0.1762	1.5106	8.5397	-0.4299	2.3369	8.5392	9.2459	5.1366	-0.1083	3.5275	1.7493	7.0004	1.988	6.8622	9.3626	8.4483	7.8084	-0.0142	-0.5929	2.943	-0.8019	-0.7279	1.2815
511.7188	6.4589	4.0044	1.6585	5.056	7.6425	6.4269	5.6036	0.0737	1.1137	7.7059	-0.5333	2.3169	8.1274	9.078	5.2453	-0.1359	3.523	1.6428	6.9054	1.912	6.7664	9.2978	8.454	7.4502	-0.3112	-0.7403	2.4901	-0.7513	-0.7041	1.1902
515.625	6.7151	3.9991	1.7537	5.0565	7.6291	6.3961	5.2499	0.0759	0.8047	6.8583	-0.5511	2.247	7.7429	8.9347	5.417	-0.0906	3.5373	1.5905	6.8321	1.9226	6.7322	9.2525	8.4146	7.1029	-0.5785	-0.8593	2.0438	-0.7675	-0.5785	1.1525
519.5312	7.0003	4.0583	1.9414	5.1519	7.7058	6.4085	5.0602	0.1587	0.5983	6.1101	-0.5076	2.1106	7.4412	8.8351	5.6265	0.0068	3.5544	1.5629	6.7779	2.0029	6.752	9.228	8.3349	6.8259	-0.7782	-0.9419	1.692	-0.8428	-0.3746	1.1597
523.4375	7.2657	4.1453	2.1679	5.3037	7.8349	6.432	5.032	0.275	0.4811	5.5359	-0.4376	1.8933	7.2503	8.7777	5.836	0.1198	3.5538	1.5265	6.7333	2.1163	6.8005	9.2162	8.225	6.6549	-0.8854	-0.9917	1.4954	-0.9675	-0.1379	1.1929
527.3438	7.4636	4.2158	2.3716	5.459	7.9618	6.4271	5.1172	0.3661	0.4159	5.1574	-0.3795	1.5869	7.1634	8.7415	6.0039	0.2047	3.5158	1.4504	6.6851	2.2149	6.8399	9.2016	8.0965	6.5935	-0.8956	-1.0259	1.4714	-1.1335	0.0727	1.2283
531.25	7.5568	4.2293	2.4993	5.5634	8.0291	6.3582	5.2354	0.3755	0.3517	4.944	-0.3681	1.193	7.1412	8.6921	6.0943	0.2209	3.4271	1.3133	6.6193	2.2515	6.8299	9.1649	7.9578	6.6126	-0.825	-1.0728	1.5895	-1.3358	0.1991	1.2424
535.1562	7.5264	4.1602	2.5196	5.5757	7.9913	6.2046	5.2955	0.2617	0.2362	4.8286	-0.4286	0.7246	7.1249	8.5923	6.0865	0.1419	3.2852	1.1095	6.5242	2.1922	6.7384	9.0878	7.8102	6.6597	-0.7065	-1.1656	1.7797	-1.5715	0.1998	1.2184
539.0625	7.3776	4.0054	2.4311	5.4787	7.8273	5.967	5.2217	0.0087	0.0291	4.7335	-0.5726	0.2063	7.0548	8.4157	5.9821	-0.0364	3.1015	0.8544	6.3946	2.0265	6.5514	8.9586	7.648	6.674	-0.5795	-1.3316	1.9514	-1.8358	0.0636	1.1531
542.9688	7.1424	3.7863	2.263	5.2846	7.548	5.6693	4.975	-0.3681	-0.2876	4.5983	-0.7957	-0.3273	6.8897	8.1566	5.8086	-0.2921	2.9019	0.5859	6.2346	1.7714	6.279	8.7784	7.4649	6.6055	-0.4796	-1.5838	2.018	-2.1184	-0.1841	1.061
546.875	6.8756	3.5445	2.0676	5.0326	7.1938	5.3546	4.5647	-0.8232	-0.7029	4.3996	-1.0773	-0.8349	6.6221	7.836	5.6152	-0.5804	2.7226	0.3596	6.0607	1.4678	5.9557	8.5639	7.2618	6.4306	-0.4297	-1.9142	1.9205	-2.4005	-0.4852	0.9756
550.7812	6.6448	3.3306	1.9047	4.7776	6.8254	5.076	4.0465	-1.2886	-1.1772	4.157	-1.3822	-1.2711	6.2825	7.4983	5.4619	-0.844	2.6039	0.2375	5.9003	1.1703	5.6323	8.3466	7.0536	6.1597	-0.4356	-2.2937	1.644	-2.6547	-0.7622	0.9424
554.6875	6.5151	3.1894	1.8248	4.575	6.5071	4.8831	3.5078	-1.6879	-1.6501	3.923	-1.666	-1.5926	5.9319	7.2008	5.403	-1.0282	2.5791	0.2715	5.7855	0.9311	5.3635	8.1662	6.8685	5.8356	-0.487	-2.6771	1.2207	-2.8492	-0.939	1.0053
558.5938	6.5306	3.1449	1.8533	4.4628	6.2881	4.8082	3.0428	-1.9537	-2.0547	3.7611	-1.8837	-1.7646	5.6446	6.9964	5.4695	-1.0972	2.663	0.4854	5.7433	0.7846	5.1904	8.0582	6.7399	5.5197	-0.5625	-3.0131	0.7213	-2.9548	-0.9616	1.1892
562.5	6.7005	3.1902	1.9814	4.449	6.1869	4.855	2.7275	-2.0437	-2.3336	3.7214	-2.0006	-1.769	5.4849	6.9163	5.6566	-1.0467	2.8434	0.8631	5.784	0.7344	5.1278	8.0421	6.6942	5.2738	-0.638	-3.2565	0.2346	-2.9538	-0.8155	1.4864
566.4062	6.9923	3.2853	2.1676	4.5061	6.1844	4.9936	2.5994	-1.9503	-2.453	3.8214	-2.0007	-1.6111	5.4876	6.9579	5.9208	-0.9079	3.0793	1.3465	5.8948	0.7509	5.1567	8.1128	6.7401	5.1407	-0.6938	-3.379	-0.1561	-2.8474	-0.531	1.8517
570.3125	7.3373	3.3656	2.348	4.5777	6.2278	5.1659	2.6494	-1.7019	-2.4091	4.0391	-1.8918	-1.3216	5.6457	7.0835	6.1897	-0.7408	3.308	1.8455	6.0401	0.7782	5.2281	8.2394	6.8633	5.1319	-0.7196	-3.3745	-0.394	-2.6587	-0.178	2.2104
574.2188	7.6455	3.3593	2.4551	4.5942	6.2457	5.2994	2.8261	-1.3553	-2.2279	4.3178	-1.704	-0.9528	5.9116	7.2292	6.3805	-0.6178	3.4612	2.2586	6.1703	0.751	5.2772	8.3732	7.0288	5.2261	-0.7151	-3.2594	-0.4613	-2.428	0.1523	2.4783
578.125	7.8284	3.208	2.4369	4.4941	6.1695	5.3266	3.0518	-0.9823	-1.9573	4.5809	-1.483	-0.5676	6.2098	7.3229	6.4227	-0.6024	3.4834	2.4976	6.2357	0.615	5.2415	8.4598	7.1873	5.3761	-0.6866	-3.066	-0.3802	-2.2037	0.3717	2.5848
582.0312	7.8202	2.8857	2.2722	4.2429	5.9537	5.2041	3.2433	-0.6537	-1.6556	4.7504	-1.2797	-0.2261	6.4568	7.3047	6.2783	-0.7288	3.3497	2.5107	6.2007	0.3461	5.0811	8.454	7.2861	5.5236	-0.6432	-2.834	-0.2041	-2.0293	0.4196	2.4943
585.9375	7.5935	2.4086	1.9776	3.8462	5.5909	4.9249	3.3323	-0.4258	-1.3795	4.7648	-1.1381	0.0279	6.5818	7.143	5.9523	-0.9897	3.0738	2.2968	6.0543	-0.0386	4.7903	8.3318	7.2808	5.6148	-0.5928	-2.6024	-0.002	-1.9328	0.2798	2.2167
589.8438	7.1642	1.8336	1.6033	3.3504	5.1145	4.5224	3.28	-0.3324	-1.1742	4.5932	-1.0862	0.1752	6.5435	6.8428	5.4923	-1.3363	2.7076	1.9077	5.8144	-0.4825	4.4012	8.0966	7.1468	5.6129	-0.5407	-2.4037	0.1586	-1.9209	-0.0154	1.8063
593.75	6.5845	1.2455	1.2201	2.8319	4.5907	4.0615	3.0828	-0.3817	-1.0681	4.2408	-1.1307	0.2225	6.3371	6.4437	4.977	-1.69	2.3291	1.4381	5.5244	-0.9015	3.975	7.7799	6.8874	5.5053	-0.4892	-2.2605	0.2273	-1.9806	-0.395	1.3494
597.6562	5.9289	0.7361	0.9013	2.3786	4.1014	3.6218	2.7684	-0.5597	-1.0719	3.7468	-1.2575	0.1977	5.9916	6.0086	4.4967	-1.9621	2.0241	1.004	5.2441	-1.2055	3.5865	7.4342	6.5374	5.3039	-0.4377	-2.1847	0.1797	-2.0856	-0.7698	0.9447
601.5625	5.2762	0.3818	0.7045	2.068	3.7233	3.2777	2.3863	-0.8356	-1.1809	3.1742	-1.4363	0.1408	5.56	5.608	4.133	-2.0769	1.8658	0.7162	5.0365	-1.321	3.3052	7.1221	6.1579	5.0398	-0.3835	-2.1776	0.0208	-2.2041	-1.0571	0.6806
605.4688	4.6939	0.2256	0.6588	1.9487	3.5104	3.0801	1.9942	-1.1698	-1.378	2.5952	-1.6268	0.0936	5.1045	5.303	3.9405	-1.9904	1.8973	0.6543	4.9533	-1.2094	3.1787	6.9021	5.8244	4.7549	-0.3229	-2.2305	-0.2195	-2.3074	-1.2018	0.6159
609.375	4.2275	0.2691	0.7603	2.0298	3.482	3.0471	1.6448	-1.5194	-1.6378	2.0758	-1.7867	0.0904	4.6818	5.1322	3.9374	-1.7006	2.1223	0.8486	5.0231	-0.8769	3.2226	6.8155	5.6085	4.4921	-0.2528	-2.328	-0.4955	-2.3753	-1.1866	0.767
613.2812	3.8968	0.475	0.9761	2.2811	3.6211	3.1635	1.3759	-1.8444	-1.9298	1.6628	-1.8782	0.1516	4.332	5.1054	4.1037	-1.2454	2.5059	1.2758	5.2459	-0.3712	3.4196	6.8779	5.56	4.2876	-0.1728	-2.4506	-0.7574	-2.3996	-1.0322	1.1065
617.1875	3.6979	0.7789	1.2549	2.6423	3.8808	3.3873	1.2048	-2.1105	-2.2236	1.3761	-1.8758	0.2794	4.0728	5.2042	4.3883	-0.6925	2.9854	1.8667	5.5937	0.2308	3.7258	7.0764	5.6948	4.164	-0.0876	-2.5792	-0.963	-2.3847	-0.7865	1.5717
621.0938	3.609	1.1064	1.54	3.0377	4.1961	3.661	1.1277	-2.2932	-2.4927	1.2081	-1.7725	0.4573	3.8995	5.389	4.7208	-0.1213	3.486	2.5254	6.0179	0.8414	4.0827	7.3743	5.9916	4.1276	-0.0074	-2.6982	-1.0865	-2.3458	-0.5088	2.081
625	3.5974	1.3899	1.7825	3.3934	4.499	3.9242	1.1232	-2.3793	-2.7189	1.1282	-1.5832	0.6529	3.7901	5.6086	5.0267	0.3937	3.9379	3.1515	6.4616	1.3808	4.43	7.7205	6.3999	4.1675	0.0533	-2.7985	-1.1235	-2.3054	-0.2544	2.5533
628.9062	3.6273	1.5815	1.9506	3.6523	4.7322	4.1257	1.1594	-2.3673	-2.8928	1.0943	-1.3437	0.8247	3.7136	5.8108	5.2425	0.7972	4.2893	3.6613	6.8713	1.7915	4.7171	8.0616	6.8552	4.2582	0.0778	-2.8789	-1.0901	-2.2876	-0.0624	2.9245
632.8125	3.667	1.6607	2.0351	3.7841	4.8599	4.2339	1.2027	-2.2666	-3.0123	1.0657	-1.1031	0.9318	3.6398	5.952	5.3284	1.0603	4.513	4.0031	7.2081	2.0456	4.9099	8.3531	7.2966	4.3656	0.0514	-2.9455	-1.018	-2.3122	0.0509	3.1602
636.7188	3.6949	1.6348	2.0488	3.7884	4.8729	4.2418	1.2266	-2.0943	-3.0786	1.0152	-0.9116	0.9444	3.5473	6.0031	5.2764	1.1811	4.607	4.1632	7.452	2.144	4.9937	8.566	7.6786	4.454	-0.0344	-3.0089	-0.9453	-2.3886	0.0928	3.2589
640.625	3.7023	1.5334	2.0207	3.6913	4.7871	4.1657	1.2171	-1.8714	-3.0934	0.9375	-0.8081	0.8526	3.4299	5.9529	5.1124	1.1796	4.5898	4.1646	7.6015	2.1099	4.9717	8.6881	7.975	4.4936	-0.1777	-3.0792	-0.9059	-2.5124	0.0891	3.2483
644.5312	3.6935	1.3991	1.9872	3.5355	4.6368	4.0379	1.1753	-1.6194	-3.057	0.8488	-0.8096	0.6703	3.2972	5.8072	4.8888	1.089	4.4918	4.0582	7.6676	1.9786	4.8604	8.7196	8.1733	4.4656	-0.3637	-3.1614	-0.9202	-2.6658	0.0758	3.1752
648.4375	3.6806	1.2755	1.9816	3.3685	4.4637	3.8955	1.115	-1.3572	-2.9695	0.7805	-0.9072	0.4327	3.172	5.5862	4.6724	0.9467	4.3468	3.9101	7.6669	1.7871	4.6843	8.6678	8.2666	4.3659	-0.5658	-3.2505	-0.99	-2.8218	0.0885	3.0915
652.3438	3.6768	1.1972	2.0256	3.2308	4.3064	3.7705	1.0575	-1.1003	-2.8328	0.7666	-1.0685	0.1887	3.0835	5.3193	4.5268	0.7865	4.1837	3.7869	7.6146	1.5666	4.4701	8.5415	8.2471	4.2049	-0.7501	-3.3312	-1.0972	-2.952	0.1528	3.0419
656.25	3.6904	1.1819	2.1246	3.1471	4.1912	3.6825	1.0241	-0.8618	-2.6542	0.8292	-1.246	-0.0118	3.0587	5.0389	4.4957	0.6331	4.0221	3.7423	7.5208	1.3383	4.2422	8.3496	8.1063	4.0048	-0.8834	-3.3815	-1.2099	-3.0343	0.2769	3.0538
660.1562	3.7219	1.2283	2.2677	3.1228	4.1267	3.6355	1.0287	-0.6536	-2.4488	0.9682	-1.3905	-0.1309	3.114	4.7746	4.5912	0.5006	3.8704	3.8061	7.3905	1.1137	4.0191	8.101	7.8411	3.7944	-0.942	-3.3793	-1.2905	-3.0598	0.4495	3.1323
664.0625	3.7644	1.3176	2.4317	3.1442	4.1038	3.618	1.0727	-0.4878	-2.2403	1.1572	-1.4638	-0.153	3.2499	4.5487	4.7905	0.393	3.7275	3.9791	7.2257	0.8973	3.8119	7.8081	7.4636	3.6032	-0.917	-3.3099	-1.3066	-3.0345	0.6422	3.2619
667.9688	3.8077	1.4204	2.588	3.1848	4.0993	3.6081	1.144	-0.3758	-2.0588	1.3503	-1.4479	-0.0875	3.4497	4.3725	5.0429	0.3077	3.5873	4.2341	7.0295	0.6914	3.6244	7.4888	7.0062	3.4558	-0.8148	-3.1707	-1.2384	-2.9765	0.816	3.4112
671.875	3.843	1.5049	2.7089	3.2129	4.0842	3.5796	1.22	-0.3262	-1.9348	1.4956	-1.3462	0.0352	3.6827	4.2465	5.2845	0.2388	3.443	4.5235	6.8095	0.499	3.4544	7.1668	6.5201	3.369	-0.6524	-2.9717	-1.0821	-2.9085	0.9309	3.5425
675.7812	3.8674	1.545	2.7737	3.2003	4.0319	3.511	1.2729	-0.3427	-1.8932	1.5505	-1.1792	0.1745	3.9102	4.1606	5.456	0.18	3.2917	4.7916	6.5784	0.3257	3.2957	6.8687	6.0648	3.3492	-0.4494	-2.7319	-0.8493	-2.8496	0.9554	3.6216
679.6875	3.8846	1.5254	2.7724	3.1289	3.9249	3.3912	1.276	-0.4232	-1.9485	1.4931	-0.9766	0.2913	4.092	4.0969	5.518	0.1263	3.1356	4.9875	6.352	0.1778	3.1392	6.618	5.6943	3.3921	-0.2213	-2.4745	-0.5625	-2.8084	0.8744	3.6269
683.5938	3.9044	1.4446	2.7072	2.9949	3.7593	3.225	1.2079	-0.5618	-2.1039	1.3254	-0.7696	0.3585	4.1934	4.0332	5.4588	0.0748	2.983	5.0772	6.1461	0.0614	2.9765	6.4309	5.4456	3.4826	0.0226	-2.2219	-0.2505	-2.7814	0.6935	3.5539
687.5	3.9391	1.3144	2.5928	2.8095	3.546	3.033	1.0562	-0.7512	-2.3536	1.0704	-0.5857	0.3654	4.1906	3.9481	5.2957	0.0262	2.8472	5.0515	5.9742	-0.0192	2.8023	6.3134	5.3346	3.5967	0.2767	-1.9932	0.0565	-2.7549	0.4402	3.4162
691.4062	4	1.1579	2.4543	2.5976	3.3093	2.8495	0.8192	-0.9864	-2.6855	0.7636	-0.4461	0.3182	4.0745	3.8258	5.0685	-0.014	2.7449	4.9269	5.8463	-0.0606	2.6186	6.2627	5.3584	3.7049	0.5342	-1.8036	0.3304	-2.7123	0.159	3.2415
695.3125	4.0949	1.0048	2.3234	2.3929	3.0825	2.715	0.5065	-1.2641	-3.0834	0.445	-0.365	0.2346	3.8518	3.6607	4.8307	-0.0352	2.6939	4.7422	5.7692	-0.0586	2.4362	6.2702	5.5003	3.7768	0.7819	-1.6658	0.5471	-2.6418	-0.0958	3.0642
699.2188	4.2254	0.8852	2.2327	2.2311	2.9018	2.6659	0.1385	-1.581	-3.5254	0.1518	-0.3486	0.1376	3.5434	3.4593	4.6384	-0.023	2.7102	4.5484	5.747	-0.0077	2.2743	6.3248	5.7345	3.7868	0.9992	-1.591	0.6893	-2.5439	-0.2708	2.917
703.125	4.3858	0.824	2.209	2.1423	2.7984	2.7242	-0.2543	-1.9289	-3.9821	-0.0865	-0.3946	0.0481	3.1815	3.2394	4.5394	0.0367	2.8041	4.3981	5.7817	0.0977	2.1567	6.415	6.028	3.7193	1.1618	-1.5903	0.7472	-2.4332	-0.324	2.825
707.0312	4.5632	0.8348	2.2678	2.1444	2.7918	2.8902	-0.6338	-2.2908	-4.4159	-0.2496	-0.4926	-0.0194	2.8047	3.0281	4.5652	0.1539	2.9783	4.3345	5.8729	0.2611	2.1066	6.5305	6.343	3.5724	1.2476	-1.6735	0.7204	-2.3359	-0.2334	2.8021
710.9375	4.738	0.9188	2.4086	2.2399	2.8863	3.1423	-0.9569	-2.6395	-4.7834	-0.3258	-0.6251	-0.0583	2.4541	2.8567	4.7251	0.3299	3.2268	4.3837	6.018	0.4818	2.142	6.6627	6.6402	3.3594	1.2435	-1.8467	0.6175	-2.2817	-0.001	2.8515
714.8438	4.8873	1.0653	2.6146	2.4172	3.0713	3.4434	-1.1802	-2.9395	-5.0412	-0.3096	-0.77	-0.0696	2.1688	2.7569	5.006	0.5575	3.5361	4.5514	6.211	0.7539	2.2721	6.8051	6.8843	3.1058	1.1488	-2.1095	0.4548	-2.2946	0.3484	2.9687
718.75	4.9891	1.2557	2.8555	2.6544	3.3248	3.7517	-1.2657	-3.1524	-5.1525	-0.1994	-0.9029	-0.06	1.9827	2.7554	5.3757	0.8225	3.8872	4.8227	6.4432	1.0666	2.496	6.9534	7.0497	2.8447	0.9753	-2.4517	0.2534	-2.3852	0.7734	3.1446
722.6562	5.0275	1.4682	3.0915	2.9257	3.6188	4.031	-1.1875	-3.2442	-5.0948	0.0036	-1.0004	-0.0399	1.9199	2.8693	5.7898	1.1077	4.259	5.1665	6.7027	1.4065	2.8028	7.1044	7.1249	2.6096	0.744	-2.8519	0.0362	-2.5471	1.224	3.3682
726.5625	4.9961	1.6816	3.2803	3.2051	3.924	4.2573	-0.9387	-3.1922	-4.8655	0.2937	-1.0436	-0.0221	1.9907	3.1021	6.2	1.3968	4.6312	5.5415	6.9753	1.759	3.1733	7.2559	7.1155	2.4287	0.48	-3.2796	-0.1754	-2.7582	1.6502	3.6268
730.4688	4.9002	1.8776	3.3838	3.47	4.2134	4.4198	-0.5357	-2.9906	-4.4855	0.658	-1.0216	-0.0201	2.1888	3.4418	6.5612	1.6771	4.9856	5.9043	7.2473	2.1094	3.5824	7.4072	7.0441	2.3209	0.2079	-3.6989	-0.3633	-2.9863	2.0086	3.9059
734.375	4.7564	2.043	3.3753	3.7021	4.4638	4.5183	-0.0195	-2.6543	-4.0004	1.0738	-0.9346	-0.0466	2.4916	3.8618	6.8382	1.9401	5.3081	6.217	7.5073	2.4438	4.002	7.5595	6.9479	2.2943	-0.0507	-4.0747	-0.5126	-3.1965	2.2691	4.1872
738.2812	4.5895	2.1701	3.2452	3.8877	4.657	4.5582	0.548	-2.2189	-3.4757	1.51	-0.7954	-0.11	2.8634	4.3247	7.0099	2.1804	5.5886	6.4535	7.7484	2.7491	4.4043	7.7155	6.8721	2.3475	-0.2773	-4.3776	-0.6105	-3.3586	2.4194	4.4484
742.1875	4.428	2.2572	3.0039	4.018	4.7808	4.5478	1.0931	-1.7378	-2.9885	1.9306	-0.629	-0.2115	3.2616	4.7884	7.0716	2.3945	5.8215	6.6031	7.9684	3.0139	4.7645	7.878	6.8594	2.4706	-0.4556	-4.5869	-0.6456	-3.4514	2.4664	4.6652
746.0938	4.2964	2.3079	2.6801	4.0891	4.829	4.4965	1.5419	-1.2758	-2.6151	2.3018	-0.4683	-0.3421	3.6444	5.2123	7.0335	2.5793	6.0054	6.671	8.1682	3.2288	5.0628	8.0471	6.9389	2.6475	-0.5705	-4.6918	-0.6074	-3.466	2.4336	4.8154
750	4.2079	2.3291	2.3143	4.1024	4.8026	4.4151	1.8335	-0.8998	-2.4167	2.5985	-0.3481	-0.4831	3.9765	5.5632	6.9155	2.7314	6.1427	6.6755	8.3488	3.387	5.2857	8.2169	7.1172	2.8565	-0.6087	-4.6899	-0.4882	-3.4045	2.3538	4.8841
753.9062	4.1591	2.3287	1.9514	4.0634	4.7088	4.3167	1.9312	-0.6665	-2.4271	2.809	-0.2969	-0.6097	4.233	5.8179	6.7409	2.8472	6.237	6.6426	8.5075	3.4846	5.4258	8.3742	7.3754	3.0717	-0.5623	-4.5862	-0.2865	-3.2794	2.26	4.8668
757.8125	4.1287	2.3126	1.6319	3.9809	4.5593	4.2153	1.8282	-0.612	-2.6457	2.936	-0.3314	-0.6973	4.3996	5.9637	6.5285	2.9223	6.2911	6.5983	8.6357	3.5205	5.4805	8.4988	7.6726	3.2646	-0.4329	-4.3935	-0.011	-3.1106	2.1769	4.7707
761.7188	4.0824	2.2842	1.3855	3.8658	4.3686	4.1236	1.5486	-0.7425	-3.0374	2.9939	-0.4522	-0.7285	4.4709	5.9979	6.2895	2.9526	6.3044	6.5618	8.7192	3.496	5.4521	8.5674	7.9551	3.4075	-0.2354	-4.1329	0.3168	-2.9233	2.1182	4.6123
765.625	3.9802	2.2438	1.228	3.7289	4.1515	4.0493	1.1419	-1.0326	-3.5395	3.0045	-0.6431	-0.6961	4.448	5.9263	6.0273	2.9347	6.2729	6.5401	8.741	3.4159	5.347	8.5587	8.1665	3.4784	0.0025	-3.8354	0.6634	-2.7441	2.0878	4.4144
769.5312	3.7855	2.1903	1.1606	3.5802	3.9208	3.9911	0.6742	-1.428	-4.0726	2.9913	-0.8735	-0.6027	4.3362	5.7613	5.7404	2.8682	6.1906	6.5265	8.6855	3.2881	5.1763	8.4582	8.256	3.4658	0.2433	-3.5413	0.9871	-2.5974	2.0855	4.2031
773.4375	3.4707	2.122	1.172	3.4271	3.6859	3.9367	0.2158	-1.856	-4.5554	2.9733	-1.1034	-0.4569	4.1436	5.5198	5.4266	2.7554	6.0514	6.5021	8.542	3.1241	4.9548	8.2604	8.1832	3.3712	0.4451	-3.2976	1.245	-2.5029	2.1125	4.0056
777.3438	3.0202	2.038	1.2419	3.2734	3.4511	3.8653	-0.1717	-2.2401	-4.9191	2.9609	-1.2918	-0.2689	3.8796	5.2213	5.0852	2.6023	5.8519	6.4414	8.3074	2.9372	4.699	7.9685	7.9196	3.2084	0.5693	-3.1516	1.4008	-2.4734	2.1747	3.8481
781.25	2.4312	1.9381	1.3469	3.1197	3.2165	3.7536	-0.4452	-2.516	-5.1192	2.9548	-1.4056	-0.0479	3.5557	4.8847	4.7187	2.4167	5.5926	6.3202	7.986	2.7411	4.425	7.5932	7.4525	2.9996	0.5874	-3.1414	1.4327	-2.5131	2.2813	3.7529
785.1562	1.7137	1.8236	1.4651	2.9647	2.9796	3.5843	-0.587	-2.6447	-5.1423	2.9493	-1.4267	0.1992	3.1842	4.5271	4.3321	2.2078	5.2788	6.1233	7.5897	2.5473	4.1464	7.1507	6.7881	2.7694	0.4875	-3.2859	1.3373	-2.6172	2.4408	3.734
789.0625	0.8898	1.697	1.5802	2.8067	2.7375	3.3518	-0.6049	-2.6199	-5.0056	2.9374	-1.3559	0.4661	2.7787	4.1616	3.9312	1.9845	4.9206	5.8494	7.1357	2.3633	3.8718	6.6601	5.955	2.5387	0.2774	-3.5784	1.1311	-2.7726	2.6547	3.7924
792.9688	-0.0084	1.562	1.6826	2.6446	2.4881	3.0652	-0.529	-2.4686	-4.752	2.9162	-1.2116	0.7457	2.3532	3.7967	3.5207	1.7546	4.5316	5.5118	6.6448	2.191	3.6049	6.1417	5.0028	2.3203	-0.0168	-3.985	0.8462	-2.9608	2.9134	3.913
796.875	-0.9417	1.4225	1.7689	2.4785	2.2318	2.7452	-0.4036	-2.2419	-4.4396	2.8887	-1.0258	1.0284	1.921	3.4368	3.1031	1.5241	4.1277	5.136	6.1389	2.0273	3.3449	5.615	3.997	2.1172	-0.3553	-4.4518	0.5236	-3.1615	3.1956	4.067
