time	FP1	F3	F7	FC3	C3	C5	P3	P7	PO7	PO3	O1	Oz	Pz	CPz	FP2	Fz	F4	F8	FC4	FCz	Cz	C4	C6	P4	P8	PO8	PO4	O2	HEOG_left	HEOG_right
-199.2188	-1.6065	-0.2083	-0.8211	1.2936	1.3044	0.3454	2.1867	0.8898	2.5054	2.7152	2.0656	1.7429	2.3799	2.7038	-0.958	0.4248	-0.1555	-0.368	0.6553	1.8709	2.9591	1.675	0.95	2.3875	1.1446	2.1232	2.6172	2.0766	-1.2837	-1.4051
-195.3125	-1.5551	-0.2932	-0.7752	1.0503	1.0017	0.3918	1.7435	0.8929	2.1536	2.2045	1.7627	1.5969	1.8102	2.182	-0.8342	0.376	0.0339	-0.1904	0.7734	1.6707	2.5653	1.5603	0.9621	2.025	1.0686	1.9567	2.2234	1.863	-1.1349	-1.1018
-191.4062	-1.5001	-0.3654	-0.7282	0.8289	0.7137	0.4288	1.2741	0.8518	1.7488	1.6461	1.4201	1.4114	1.2415	1.6779	-0.7069	0.335	0.2063	-0.0134	0.8757	1.4876	2.1916	1.4426	0.9681	1.6525	0.97	1.7432	1.7976	1.6092	-0.9904	-0.8187
-187.5	-1.4319	-0.4134	-0.6732	0.6444	0.4547	0.4487	0.7672	0.7331	1.2562	1.0124	1.0138	1.1611	0.6851	1.2118	-0.5702	0.3134	0.3531	0.1584	0.9539	1.3398	1.8596	1.3233	0.9639	1.2688	0.833	1.4486	1.3223	1.2882	-0.8478	-0.5701
-183.5938	-1.3383	-0.423	-0.6003	0.5107	0.2407	0.4513	0.2311	0.5205	0.6673	0.3034	0.5385	0.8392	0.1635	0.8075	-0.4176	0.3244	0.473	0.3205	1.0083	1.2449	1.5907	1.2098	0.951	0.885	0.6549	1.0613	0.7999	0.8927	-0.7037	-0.3616
-179.6875	-1.2053	-0.3792	-0.4984	0.4388	0.0882	0.4438	-0.3059	0.2191	0.0044	-0.4501	0.0111	0.4601	-0.2903	0.4907	-0.2424	0.382	0.5732	0.4688	1.048	1.2168	1.4035	1.115	0.936	0.5246	0.4472	0.5953	0.2546	0.4378	-0.5536	-0.1897
-175.7812	-1.0204	-0.2697	-0.3576	0.4345	0.0107	0.4381	-0.7999	-0.1454	-0.6843	-1.1921	-0.5329	0.0566	-0.6385	0.2838	-0.0393	0.4976	0.6669	0.6009	1.0881	1.2639	1.3104	1.0549	0.9288	0.2188	0.2329	0.0866	-0.2716	-0.0425	-0.3931	-0.043
-171.875	-0.7765	-0.0892	-0.1736	0.4968	0.0148	0.446	-1.202	-0.5326	-1.3346	-1.8526	-1.0457	-0.3281	-0.8474	0.1999	0.1934	0.6765	0.7693	0.7162	1.1449	1.3858	1.3147	1.0437	0.9391	-0.0008	0.0401	-0.415	-0.7285	-0.5034	-0.2194	0.0934
-167.9688	-0.4752	0.1569	0.0496	0.6167	0.0979	0.475	-1.4693	-0.8953	-1.8799	-2.3629	-1.4772	-0.6488	-0.8969	0.2386	0.452	0.9147	0.8928	0.8158	1.2309	1.5719	1.4082	1.0895	0.9724	-0.1105	-0.1048	-0.8569	-1.0691	-0.8984	-0.0328	0.2333
-164.0625	-0.1288	0.4516	0.2982	0.7779	0.2474	0.5249	-1.5746	-1.1892	-2.2638	-2.6686	-1.784	-0.8685	-0.7865	0.3843	0.7265	1.1975	1.0428	0.9017	1.3503	1.8023	1.5713	1.1909	1.0286	-0.1002	-0.1832	-1.1929	-1.2595	-1.1883	0.1635	0.384
-160.1562	0.2404	0.7678	0.5507	0.9592	0.4427	0.5888	-1.5116	-1.3809	-2.4487	-2.7393	-1.9369	-0.9642	-0.5372	0.6085	1.0004	1.5002	1.2153	0.9754	1.4976	2.0501	1.7762	1.3361	1.1013	0.0236	-0.1878	-1.3911	-1.2864	-1.3474	0.3624	0.5441
-156.25	0.6027	1.0724	0.781	1.1374	0.6586	0.655	-1.2959	-1.4522	-2.4209	-2.5728	-1.9248	-0.9309	-0.1885	0.8753	1.2531	1.7915	1.3967	1.0379	1.6581	2.2852	1.9901	1.5047	1.1792	0.2393	-0.1235	-1.4367	-1.1583	-1.3666	0.5544	0.703
-152.3438	0.926	1.3323	0.9644	1.2909	0.8696	0.7115	-0.9609	-1.4016	-2.1909	-2.1942	-1.7565	-0.7817	0.2091	1.1472	1.4625	2.0382	1.566	1.0882	1.81	2.4779	2.1808	1.6708	1.248	0.5141	-0.0056	-1.333	-0.9039	-1.2536	0.7278	0.8435
-148.4375	1.1801	1.5196	1.0822	1.4013	1.0536	0.7496	-0.5511	-1.2414	-1.7898	-1.6502	-1.4581	-0.5441	0.6022	1.3908	1.6077	2.2096	1.6981	1.1229	1.9283	2.603	2.3199	1.807	1.2932	0.8093	0.1435	-1.1	-0.5654	-1.0305	0.8701	0.946
-144.5312	1.3422	1.6153	1.1257	1.4547	1.1939	0.7655	-0.114	-0.9935	-1.2641	-1.001	-1.0685	-0.2546	0.9442	1.5805	1.6726	2.2819	1.7685	1.1356	1.9884	2.641	2.3864	1.8882	1.302	1.0863	0.2985	-0.7701	-0.1903	-0.7298	0.9691	0.9927
-140.625	1.3996	1.6112	1.0972	1.4424	1.28	0.7611	0.3076	-0.6848	-0.6687	-0.3106	-0.6328	0.0478	1.2015	1.7	1.648	2.2419	1.7574	1.1176	1.9704	2.5807	2.3678	1.8953	1.2649	1.3115	0.435	-0.3835	0.1762	-0.3884	1.0155	0.9722
-136.7188	1.3524	1.5103	1.0092	1.3606	1.3078	0.7412	0.6808	-0.344	-0.0605	0.361	-0.1956	0.3287	1.3572	1.7424	1.533	2.0882	1.6536	1.0592	1.8621	2.4191	2.2607	1.817	1.177	1.4604	0.5339	0.0173	0.4989	-0.0417	1.0039	0.8819
-132.8125	1.2135	1.3252	0.88	1.2121	1.2781	0.711	0.9844	0.0011	0.5076	0.9639	0.2049	0.5621	1.4108	1.7086	1.3358	1.8315	1.4573	0.9529	1.6613	2.1624	2.0698	1.6515	1.0389	1.5196	0.583	0.3926	0.7559	0.2804	0.9353	0.7284
-128.9062	1.0064	1.0764	0.7305	1.0065	1.1957	0.6735	1.2082	0.3245	0.9914	1.4612	0.5399	0.733	1.3746	1.6053	1.0733	1.493	1.1801	0.7957	1.3769	1.8249	1.8063	1.406	0.8566	1.4871	0.5784	0.7101	0.9388	0.5568	0.8166	0.5265
-125	0.7615	0.7897	0.5796	0.7611	1.0688	0.6288	1.3497	0.6033	1.3579	1.8286	0.7913	0.8365	1.2688	1.4428	0.7686	1.1019	0.844	0.5924	1.0275	1.4278	1.486	1.0963	0.641	1.3712	0.524	0.9467	1.0497	0.7753	0.6602	0.2968
-121.0938	0.5117	0.4939	0.4422	0.499	0.9073	0.5746	1.4109	0.8198	1.5874	2.0536	0.9506	0.8757	1.1155	1.2335	0.4491	0.6914	0.4776	0.3556	0.6392	0.9975	1.1275	0.7441	0.4066	1.1877	0.4299	1.0904	1.0976	0.9312	0.4822	0.0627
-117.1875	0.2873	0.2173	0.328	0.2465	0.7228	0.5084	1.3951	0.9628	1.6736	2.1326	1.0167	0.8586	0.9339	0.9906	0.1424	0.2947	0.1129	0.1055	0.2425	0.5625	0.7503	0.3749	0.1696	0.9571	0.3099	1.1394	1.093	1.0253	0.3003	-0.153
-113.2812	0.1116	-0.0155	0.2416	0.0282	0.5272	0.4282	1.3056	1.0291	1.6219	2.0692	0.9939	0.795	0.7378	0.7276	-0.1268	-0.0594	-0.2203	-0.1342	-0.1323	0.1508	0.374	0.0151	-0.0536	0.7015	0.179	1.101	1.0453	1.0612	0.1319	-0.33
-109.375	-0.0026	-0.1881	0.1821	-0.1382	0.3313	0.3337	1.1461	1.0222	1.4476	1.8732	0.8897	0.6943	0.5353	0.4575	-0.3408	-0.35	-0.4984	-0.3398	-0.4585	-0.2144	0.0161	-0.3117	-0.249	0.4412	0.0509	0.9893	0.9606	1.0438	-0.0089	-0.4538
-105.4688	-0.0551	-0.2949	0.1439	-0.2457	0.1434	0.2249	0.9214	0.9503	1.1731	1.5592	0.7142	0.5644	0.3297	0.1914	-0.4907	-0.5673	-0.7075	-0.4935	-0.7173	-0.5172	-0.3093	-0.5874	-0.4076	0.1924	-0.0639	0.8219	0.8421	0.9775	-0.1132	-0.5172
-101.5625	-0.0568	-0.3422	0.1177	-0.299	-0.0315	0.1025	0.6391	0.823	0.8249	1.1465	0.4795	0.4114	0.122	-0.0616	-0.5772	-0.7129	-0.8445	-0.5867	-0.8995	-0.751	-0.5929	-0.8017	-0.526	-0.0348	-0.1597	0.6171	0.6911	0.8663	-0.1789	-0.5212
-97.6562	-0.0264	-0.3456	0.094	-0.3123	-0.1914	-0.0324	0.3117	0.649	0.4311	0.6596	0.2004	0.2404	-0.0856	-0.2946	-0.6085	-0.7977	-0.9154	-0.6207	-1.0052	-0.9182	-0.8302	-0.9525	-0.6066	-0.2362	-0.2348	0.3911	0.5095	0.7138	-0.2102	-0.4739
-93.75	0.0162	-0.3247	0.0662	-0.3041	-0.3349	-0.1769	-0.0424	0.436	0.0201	0.1281	-0.105	0.0566	-0.2876	-0.5016	-0.5964	-0.8367	-0.9314	-0.6051	-1.0417	-1.0268	-1.0199	-1.0435	-0.6551	-0.412	-0.2907	0.1572	0.3014	0.5244	-0.2153	-0.388
-89.8438	0.0559	-0.2963	0.0341	-0.2914	-0.4596	-0.3247	-0.3983	0.1923	-0.3806	-0.4131	-0.4149	-0.1335	-0.4727	-0.6763	-0.5518	-0.8439	-0.9036	-0.5534	-1.0196	-1.0866	-1.1614	-1.0816	-0.6775	-0.5636	-0.3302	-0.0742	0.0749	0.3052	-0.2025	-0.277
-85.9375	0.0863	-0.2697	0.0033	-0.2859	-0.5604	-0.4657	-0.7258	-0.0703	-0.7453	-0.9244	-0.7041	-0.321	-0.6251	-0.8106	-0.4822	-0.8279	-0.8396	-0.4787	-0.9494	-1.1059	-1.2534	-1.0744	-0.6778	-0.6916	-0.3563	-0.295	-0.1571	0.0663	-0.1779	-0.1526
-82.0312	0.1098	-0.2457	-0.016	-0.2926	-0.6299	-0.5867	-0.9927	-0.335	-1.051	-1.3645	-0.9466	-0.4952	-0.7266	-0.8957	-0.3907	-0.7913	-0.743	-0.3906	-0.841	-1.0901	-1.2942	-1.0289	-0.6573	-0.7944	-0.3713	-0.4982	-0.379	-0.1785	-0.1441	-0.0231
-78.125	0.1336	-0.2188	-0.0137	-0.311	-0.6608	-0.6741	-1.1699	-0.5792	-1.279	-1.6941	-1.1182	-0.6445	-0.7618	-0.9252	-0.2795	-0.733	-0.6156	-0.2952	-0.7046	-1.0437	-1.284	-0.953	-0.6165	-0.8686	-0.378	-0.6779	-0.5737	-0.4133	-0.1016	0.1049
-74.2188	0.1647	-0.1822	0.0158	-0.3389	-0.6492	-0.7172	-1.2359	-0.7767	-1.4151	-1.8805	-1.2003	-0.7583	-0.7229	-0.8983	-0.1532	-0.6532	-0.4626	-0.1972	-0.5535	-0.973	-1.2284	-0.8567	-0.5574	-0.911	-0.3793	-0.8285	-0.7265	-0.6214	-0.0517	0.225
-70.3125	0.2047	-0.1332	0.07	-0.3747	-0.597	-0.7117	-1.1823	-0.9016	-1.4503	-1.9024	-1.1823	-0.8279	-0.6138	-0.8237	-0.0223	-0.5574	-0.296	-0.1022	-0.4057	-0.8896	-1.1409	-0.754	-0.4868	-0.921	-0.3792	-0.9447	-0.8264	-0.7877	0.0019	0.3289
-66.4062	0.2473	-0.0765	0.1373	-0.4196	-0.5141	-0.6611	-1.0153	-0.9333	-1.3803	-1.7539	-1.0636	-0.8481	-0.4506	-0.7204	0.0962	-0.4587	-0.1364	-0.0188	-0.2841	-0.8111	-1.0431	-0.6619	-0.4162	-0.9018	-0.3816	-1.0211	-0.8686	-0.9007	0.0514	0.4065
-62.5	0.2795	-0.0241	0.1991	-0.477	-0.4177	-0.5773	-0.7562	-0.8612	-1.206	-1.4461	-0.8532	-0.818	-0.2603	-0.615	0.1814	-0.377	-0.0102	0.0406	-0.2131	-0.7594	-0.9623	-0.5985	-0.3611	-0.8611	-0.3894	-1.0519	-0.8546	-0.9534	0.0862	0.4474
-58.5938	0.2856	0.0067	0.234	-0.5512	-0.3294	-0.4783	-0.438	-0.6887	-0.9341	-1.0076	-0.5692	-0.7411	-0.0756	-0.5374	0.2134	-0.3346	0.0559	0.0628	-0.2135	-0.7569	-0.9258	-0.5792	-0.3374	-0.8102	-0.403	-1.0328	-0.7921	-0.9445	0.0956	0.4429
-54.6875	0.2526	-0.0017	0.2242	-0.6451	-0.2708	-0.384	-0.1008	-0.4331	-0.5795	-0.4825	-0.2366	-0.6262	0.071	-0.5141	0.1788	-0.3507	0.0419	0.037	-0.2972	-0.8211	-0.9551	-0.6136	-0.3571	-0.7622	-0.4204	-0.9618	-0.694	-0.8785	0.0722	0.3897
-50.7812	0.1754	-0.0623	0.1603	-0.7578	-0.2592	-0.3123	0.2139	-0.1238	-0.1665	0.0738	0.1153	-0.4866	0.153	-0.5616	0.0751	-0.4353	-0.0595	-0.0411	-0.4627	-0.9592	-1.0604	-0.7022	-0.425	-0.7296	-0.4375	-0.8418	-0.5772	-0.7662	0.0146	0.2912
-46.875	0.0595	-0.1783	0.0438	-0.8842	-0.3035	-0.276	0.4686	0.2018	0.2694	0.6007	0.4547	-0.3393	0.1541	-0.6833	-0.0874	-0.5864	-0.2399	-0.1667	-0.6944	-1.1658	-1.2384	-0.837	-0.5371	-0.7222	-0.4498	-0.6825	-0.4606	-0.6234	-0.0705	0.1579
-42.9688	-0.0795	-0.3421	-0.1136	-1.0149	-0.403	-0.281	0.634	0.5032	0.6841	1.0392	0.7508	-0.203	0.0701	-0.8695	-0.2876	-0.789	-0.4765	-0.3267	-0.9649	-1.4235	-1.473	-1.0028	-0.6813	-0.746	-0.4542	-0.5002	-0.3633	-0.4699	-0.169	0.0061
-39.0625	-0.2197	-0.536	-0.2936	-1.1385	-0.5479	-0.3268	0.6921	0.7423	1.029	1.34	0.9759	-0.0963	-0.092	-1.1	-0.4979	-1.0188	-0.7367	-0.5022	-1.2411	-1.706	-1.7389	-1.1811	-0.8414	-0.8025	-0.4506	-0.3171	-0.3018	-0.3274	-0.2621	-0.1459
-35.1562	-0.3382	-0.7357	-0.4755	-1.2444	-0.7222	-0.4079	0.6369	0.8882	1.2594	1.4705	1.1094	-0.0344	-0.3163	-1.3498	-0.6901	-1.2472	-0.9854	-0.6728	-1.4909	-1.9836	-2.0075	-1.3541	-1.0006	-0.8893	-0.442	-0.1572	-0.288	-0.216	-0.3315	-0.2809
-31.25	-0.4166	-0.9158	-0.6409	-1.3253	-0.9065	-0.5156	0.4756	0.9215	1.3422	1.4205	1.1401	-0.0266	-0.5812	-1.5938	-0.8402	-1.4468	-1.1919	-0.8206	-1.6895	-2.2289	-2.2521	-1.508	-1.145	-1.0007	-0.4336	-0.0414	-0.3262	-0.1506	-0.3636	-0.3861
-27.3438	-0.4451	-1.0549	-0.7765	-1.379	-1.0823	-0.6392	0.227	0.8376	1.2637	1.2038	1.0692	-0.0742	-0.8621	-1.8109	-0.9326	-1.5965	-1.3353	-0.9332	-1.8238	-2.4216	-2.4521	-1.6343	-1.2662	-1.1279	-0.4306	0.0174	-0.4115	-0.1372	-0.3537	-0.4545
-23.4375	-0.4242	-1.1402	-0.8768	-1.4095	-1.2348	-0.7685	-0.0805	0.6473	1.0329	0.8565	0.9099	-0.169	-1.1342	-1.986	-0.962	-1.685	-1.4077	-1.0061	-1.8929	-2.5511	-2.5955	-1.7305	-1.3612	-1.2597	-0.4361	0.0189	-0.5296	-0.1698	-0.3058	-0.4853
-19.5312	-0.3634	-1.1704	-0.9437	-1.4258	-1.3555	-0.895	-0.4128	0.3752	0.6806	0.4304	0.6859	-0.2946	-1.3743	-2.1105	-0.9334	-1.7114	-1.4137	-1.0421	-1.9059	-2.6174	-2.6797	-1.7981	-1.4313	-1.3831	-0.449	-0.0238	-0.658	-0.2313	-0.2322	-0.4826
-15.625	-0.2786	-1.1545	-0.986	-1.439	-1.4422	-1.0136	-0.7348	0.0553	0.254	-0.016	0.427	-0.4289	-1.5626	-2.1812	-0.8598	-1.6837	-1.3678	-1.0499	-1.8781	-2.6285	-2.7088	-1.8403	-1.4802	-1.4842	-0.4634	-0.0854	-0.7699	-0.2958	-0.1493	-0.4544
-11.7188	-0.1876	-1.1087	-1.0149	-1.4585	-1.4982	-1.1218	-1.0147	-0.2749	-0.1919	-0.4272	0.1649	-0.548	-1.6838	-2.1987	-0.7596	-1.6157	-1.289	-1.0409	-1.8251	-2.5973	-2.6914	-1.8598	-1.511	-1.549	-0.4688	-0.1334	-0.8387	-0.3343	-0.0741	-0.4112
-7.8125	-0.1064	-1.0509	-1.0411	-1.4883	-1.529	-1.2194	-1.2278	-0.5808	-0.6027	-0.7588	-0.0717	-0.63	-1.7282	-2.1654	-0.6517	-1.5221	-1.1965	-1.026	-1.7592	-2.5369	-2.6369	-1.8572	-1.525	-1.5649	-0.452	-0.1348	-0.8416	-0.3202	-0.0206	-0.3638
-3.9062	-0.046	-0.9956	-1.0708	-1.5254	-1.5405	-1.3071	-1.359	-0.8356	-0.9337	-0.9825	-0.2595	-0.6585	-1.692	-2.0846	-0.5522	-1.4158	-1.1052	-1.0135	-1.6874	-2.4574	-2.5528	-1.8302	-1.5204	-1.5222	-0.4004	-0.063	-0.7643	-0.2354	0.0025	-0.3229
0	-0.0108	-0.9513	-1.1049	-1.5607	-1.5366	-1.3856	-1.4028	-1.0241	-1.155	-1.0867	-0.3824	-0.6246	-1.5777	-1.96	-0.4719	-1.305	-1.0239	-1.0083	-1.6113	-2.3643	-2.4441	-1.7758	-1.4943	-1.4165	-0.3058	0.095	-0.6026	-0.0739	-0.0073	-0.2978
3.9062	0.0005	-0.9194	-1.1399	-1.5816	-1.519	-1.4554	-1.3629	-1.1422	-1.2537	-1.0743	-0.4312	-0.5274	-1.3939	-1.7966	-0.4152	-1.1938	-0.9554	-1.0129	-1.5298	-2.2591	-2.3136	-1.6921	-1.4442	-1.2506	-0.1674	0.3346	-0.3638	0.1564	-0.047	-0.2958
7.8125	-0.0065	-0.8958	-1.1712	-1.5744	-1.4869	-1.5162	-1.2491	-1.1952	-1.2328	-0.9582	-0.4032	-0.3739	-1.1551	-1.6015	-0.3804	-1.0823	-0.8973	-1.0276	-1.4409	-2.1408	-2.1631	-1.5806	-1.3709	-1.0351	0.0063	0.6331	-0.0658	0.4346	-0.1093	-0.3207
11.7188	-0.0233	-0.8733	-1.1953	-1.5266	-1.4368	-1.5666	-1.0753	-1.1938	-1.1079	-0.7568	-0.3007	-0.1769	-0.8801	-1.3845	-0.361	-0.9687	-0.8438	-1.0516	-1.3436	-2.0077	-1.9955	-1.4468	-1.2786	-0.7882	0.1979	0.9526	0.2651	0.7301	-0.1851	-0.3725
15.625	-0.0407	-0.8435	-1.2122	-1.4292	-1.3639	-1.6039	-0.8571	-1.1501	-0.902	-0.4909	-0.1312	0.0459	-0.5908	-1.1584	-0.3479	-0.8503	-0.7873	-1.0826	-1.2379	-1.8593	-1.8154	-1.2997	-1.1753	-0.533	0.3846	1.247	0.5965	1.0072	-0.265	-0.4471
19.5312	-0.0503	-0.7998	-1.2253	-1.2802	-1.2645	-1.6242	-0.6111	-1.0756	-0.6425	-0.1824	0.0925	0.2743	-0.3106	-0.9385	-0.3314	-0.725	-0.7202	-1.1155	-1.1244	-1.6974	-1.6304	-1.1501	-1.0702	-0.2947	0.5425	1.4697	0.894	1.2303	-0.3412	-0.536
23.4375	-0.0457	-0.739	-1.2406	-1.0874	-1.1383	-1.6234	-0.355	-0.9811	-0.3582	0.1456	0.351	0.4867	-0.0627	-0.7411	-0.3031	-0.5924	-0.6363	-1.1426	-1.004	-1.5268	-1.4511	-1.0083	-0.9723	-0.0964	0.6518	1.5832	1.1245	1.3692	-0.4087	-0.6286
27.3438	-0.0236	-0.6629	-1.2643	-0.8699	-0.9915	-1.5991	-0.1081	-0.8786	-0.0778	0.4669	0.6172	0.6614	0.1318	-0.5824	-0.2578	-0.4546	-0.5322	-1.1538	-0.877	-1.3558	-1.2901	-0.8833	-0.8875	0.0438	0.7011	1.5664	1.2607	1.4035	-0.4656	-0.7141
31.25	0.0155	-0.5778	-1.3019	-0.6554	-0.8375	-1.5522	0.1086	-0.7828	0.17	0.7514	0.8572	0.7779	0.2565	-0.4765	-0.194	-0.317	-0.4088	-1.1395	-0.7445	-1.1953	-1.1608	-0.7807	-0.8183	0.1162	0.6909	1.4201	1.2858	1.3266	-0.5136	-0.7833
35.1562	0.0673	-0.4943	-1.3562	-0.4748	-0.6948	-1.4885	0.2737	-0.7123	0.3591	0.9654	1.0322	0.8187	0.3016	-0.4328	-0.1143	-0.1884	-0.2721	-1.0927	-0.6087	-1.0578	-1.0752	-0.7031	-0.7629	0.121	0.6346	1.1703	1.1983	1.1485	-0.5571	-0.8305
39.0625	0.1239	-0.4254	-1.4282	-0.3556	-0.5844	-1.4192	0.3674	-0.6874	0.4673	1.0732	1.1034	0.7713	0.2665	-0.4545	-0.0258	-0.0797	-0.1331	-1.012	-0.4742	-0.9558	-1.0421	-0.6499	-0.717	0.0692	0.5576	0.8675	1.016	0.8966	-0.6023	-0.8539
42.9688	0.1743	-0.3854	-1.5175	-0.3159	-0.5255	-1.36	0.3741	-0.7261	0.4808	1.0425	1.0386	0.6299	0.1597	-0.5386	0.0604	-0.0039	-0.0071	-0.9037	-0.3491	-0.9013	-1.0667	-0.6188	-0.675	-0.0191	0.4937	0.5827	0.7769	0.6153	-0.6559	-0.8561
46.875	0.205	-0.3883	-1.6233	-0.3623	-0.5327	-1.329	0.2857	-0.8374	0.3975	0.8515	0.8187	0.3986	-0.002	-0.677	0.1291	0.025	0.0869	-0.7827	-0.2457	-0.9051	-1.1512	-0.6079	-0.6342	-0.1176	0.4802	0.3998	0.5365	0.3619	-0.7245	-0.8447
50.7812	0.2005	-0.4465	-1.7454	-0.4903	-0.6151	-1.3433	0.1037	-1.016	0.2314	0.4968	0.445	0.0927	-0.1971	-0.8603	0.1603	-0.008	0.1275	-0.6722	-0.1813	-0.9777	-1.2973	-0.6187	-0.5972	-0.1983	0.5509	0.4042	0.3609	0.2006	-0.8144	-0.8324
54.6875	0.1436	-0.5699	-1.8854	-0.6879	-0.7758	-1.4165	-0.1583	-1.2389	0.0148	0.001	-0.0559	-0.2581	-0.4027	-1.0814	0.1302	-0.1192	0.092	-0.602	-0.1779	-1.1305	-1.5088	-0.6586	-0.5744	-0.2371	0.7304	0.6697	0.3166	0.1945	-0.9325	-0.8368
58.5938	0.0151	-0.7662	-2.0477	-0.9412	-1.0136	-1.5564	-0.4746	-1.4669	-0.2024	-0.584	-0.6302	-0.6104	-0.5992	-1.339	0.0118	-0.3256	-0.0429	-0.605	-0.2612	-1.3768	-1.7931	-0.7425	-0.5839	-0.2172	1.0289	1.2449	0.4588	0.3962	-1.0873	-0.8803
62.5	-0.205	-1.0419	-2.2407	-1.24	-1.3245	-1.7645	-0.8092	-1.6517	-0.3567	-1.1792	-1.1998	-0.9092	-0.772	-1.638	-0.2225	-0.6451	-0.2993	-0.7129	-0.4576	-1.7313	-2.1612	-0.8909	-0.6494	-0.1326	1.4397	2.1423	0.8211	0.8392	-1.2899	-0.9872
66.4062	-0.5348	-1.4025	-2.4773	-1.582	-1.7028	-2.0365	-1.1198	-1.7453	-0.3811	-1.6888	-1.6718	-1.0942	-0.9122	-1.9872	-0.5959	-1.0934	-0.6947	-0.9508	-0.7897	-2.2083	-2.6244	-1.1264	-0.7951	0.013	1.9397	3.3325	1.4085	1.5303	-1.5528	-1.1812
70.3125	-0.9865	-1.852	-2.7724	-1.9722	-2.1403	-2.3634	-1.3627	-1.7115	-0.2179	-2.0155	-1.9521	-1.1087	-1.0143	-2.393	-1.1211	-1.6793	-1.2369	-1.3305	-1.2695	-2.8158	-3.1892	-1.4659	-1.0389	0.209	2.4927	4.7443	2.1954	2.4457	-1.8871	-1.4791
74.2188	-1.559	-2.3887	-3.138	-2.4188	-2.6238	-2.7309	-1.4989	-1.5336	0.1652	-2.079	-1.9632	-0.9108	-1.0724	-2.852	-1.7918	-2.3973	-1.9172	-1.8442	-1.8911	-3.5479	-3.8487	-1.9121	-1.3845	0.4427	3.0558	6.272	3.1293	3.5308	-2.2967	-1.8847
78.125	-2.2311	-2.9988	-3.574	-2.9238	-3.1308	-3.1183	-1.4982	-1.2187	0.7625	-1.8326	-1.6598	-0.4822	-1.0762	-3.3433	-2.5752	-3.2201	-2.7035	-2.459	-2.6231	-4.3771	-4.5759	-2.4452	-1.8146	0.7058	3.5852	7.7869	4.1384	4.7039	-2.7716	-2.3816
82.0312	-2.9555	-3.6482	-4.0603	-3.472	-3.6249	-3.4955	-1.3429	-0.7977	1.5232	-1.2738	-1.041	0.1645	-1.0083	-3.8237	-3.4078	-4.0918	-3.5354	-3.1147	-3.4048	-5.2474	-5.3181	-3.0174	-2.2863	0.9974	4.0425	9.1516	5.1417	5.8644	-3.2817	-2.929
85.9375	-3.6571	-4.2765	-4.5491	-4.0215	-4.0527	-3.8209	-1.0284	-0.3207	2.3523	-0.4478	-0.1544	0.9851	-0.8447	-4.229	-4.196	-4.9267	-4.3236	-3.7256	-4.1468	-6.0732	-5.9966	-3.5537	-2.7323	1.3254	4.398	10.2347	6.0589	6.9029	-3.774	-3.46
89.8438	-4.2361	-4.7959	-4.9654	-4.4992	-4.3454	-4.0416	-0.5644	0.1493	3.1228	0.5595	0.9089	1.9079	-0.5576	-4.4788	-4.8234	-5.6131	-4.9557	-4.1882	-4.7378	-6.7437	-6.5122	-3.9581	-3.066	1.7038	4.632	10.9241	6.8194	7.7138	-4.1749	-3.8866
93.75	-4.5782	-5.0977	-5.2124	-4.805	-4.4241	-4.0956	0.0271	0.5444	3.6948	1.6345	2.0277	2.8443	-0.1208	-4.4876	-5.1643	-6.0245	-5.308	-4.393	-5.0571	-7.1345	-6.7557	-4.1264	-3.1938	2.1477	4.7333	11.1373	7.3684	8.2081	-4.3975	-4.1092
97.6562	-4.5693	-5.0657	-5.1854	-4.8251	-4.211	-3.9189	0.7138	0.8006	3.9401	2.6543	3.0715	3.7025	0.4836	-4.1784	-5.1011	-6.0365	-5.2625	-4.2403	-4.9919	-7.1238	-6.6234	-3.9629	-3.0288	2.6671	4.6974	10.8289	7.6713	8.3247	-4.3537	-4.0306
101.5625	-4.1146	-4.596	-4.7896	-4.4519	-3.6426	-3.455	1.4559	0.8669	3.7661	3.5065	3.9226	4.4028	1.2596	-3.4971	-4.5444	-5.5472	-4.7263	-3.6565	-4.4562	-6.6123	-6.0346	-3.3981	-2.5077	3.2609	4.5234	9.995	7.7153	8.0389	-3.9696	-3.5726
105.4688	-3.1576	-3.618	-3.9604	-3.606	-2.6842	-2.6672	2.21	0.7127	3.1336	4.1055	4.4959	4.8898	2.1935	-2.4245	-3.4506	-4.4965	-3.65	-2.6093	-3.4077	-5.5426	-4.9477	-2.4041	-1.6041	3.9146	4.2138	8.6745	7.5096	7.3672	-3.2005	-2.6916
109.375	-1.6959	-2.1132	-2.6802	-2.2556	-1.3401	-1.55	2.9329	0.3337	2.065	4.4031	4.7506	5.1399	3.2523	-0.9844	-1.8354	-2.8826	-2.0421	-1.1176	-1.8602	-3.914	-3.3735	-1.0034	-0.3373	4.5997	3.7751	6.9478	7.0838	6.366	-2.0439	-1.3916
113.2812	0.2105	-0.1266	-0.9891	-0.4298	0.3401	-0.1371	3.5854	-0.2456	0.6416	4.3924	4.6933	5.1618	4.3853	0.7549	0.2222	-0.7693	0.0251	0.7453	0.1129	-1.7903	-1.3797	0.7301	1.2266	5.2778	3.2217	4.9328	6.4845	5.1255	-0.546	0.2707
117.1875	2.4422	2.232	1.0149	1.7781	2.2639	1.4969	4.1357	-0.9743	-1.0092	4.1044	4.3714	4.9903	5.5293	2.6858	2.585	1.7167	2.4199	2.8585	2.3847	0.7036	0.9126	2.6801	2.9818	5.9063	2.5792	2.7753	5.7704	3.7575	1.2007	2.1892
121.0938	4.8347	4.7996	3.1881	4.2196	4.3051	3.2428	4.562	-1.781	-2.735	3.5992	3.8592	4.6773	6.6156	4.6745	5.0749	4.3997	4.9668	5.0675	4.7903	3.3952	3.3428	4.7037	4.7974	6.446	1.8863	0.6359	5.0059	2.3814	3.0686	4.2216
125	7.2024	7.3819	5.3609	6.7105	6.3211	4.9713	4.8552	-2.5843	-4.3802	2.9541	3.2429	4.2794	7.5781	6.5778	7.4975	7.0788	7.4703	7.2059	7.1497	6.0867	5.7318	6.6529	6.5362	6.8678	1.194	-1.3271	4.2534	1.1078	4.9128	6.2088
128.9062	9.3667	9.7826	7.364	9.0589	8.1721	6.5516	5.0192	-3.3043	-5.8064	2.2527	2.6057	3.8489	8.3609	8.2623	9.6696	9.5554	9.7422	9.117	9.2921	8.5823	7.9058	8.3943	8.0745	7.157	0.5607	-2.9748	3.567	0.0259	6.592	7.9981
132.8125	11.1797	11.8301	9.0519	11.092	9.7394	7.8709	5.07	-3.873	-6.9063	1.5748	2.0171	3.4262	8.9238	9.6206	11.4427	11.6589	11.6269	10.6734	11.0775	10.7127	9.7182	9.8256	9.317	7.314	0.0439	-4.2029	2.9879	-0.8048	7.9875	9.4628
136.7188	12.5402	13.3991	10.3198	12.6781	10.9373	8.8481	5.0328	-4.2409	-7.61	0.9899	1.5269	3.037	9.2443	10.5809	12.7187	13.2657	13.0177	11.7896	12.4101	12.3534	11.0644	10.8829	10.2049	7.3516	-0.3081	-4.9504	2.5415	-1.3573	9.015	10.5155
140.625	13.398	14.4197	11.1113	13.7377	11.7177	9.441	4.9378	-4.3811	-7.8866	0.5521	1.1639	2.6933	9.3168	11.1105	13.4538	14.3062	13.8639	12.4259	13.2435	13.4324	11.8881	11.5409	10.7166	7.2893	-0.4642	-5.2022	2.2369	-1.6344	9.6291	11.113
144.5312	13.7486	14.8774	11.4157	14.2448	12.0683	9.6447	4.8151	-4.2882	-7.7395	0.2987	0.938	2.3957	9.1493	11.2119	13.6536	14.7636	14.1661	12.5858	13.5757	13.9292	12.1784	11.8059	10.8622	7.147	-0.4143	-4.9856	2.0687	-1.662	9.8214	11.2535
148.4375	13.6215	14.8037	11.2604	14.2204	12.0063	9.4846	4.6906	-3.9772	-7.2013	0.2486	0.8442	2.1383	8.761	10.9153	13.3608	14.6636	13.9655	12.3067	13.4403	13.866	11.9626	11.7064	10.6741	6.9405	-0.1698	-4.3603	2.0196	-1.4814	9.6121	10.9681
152.3438	13.0681	14.2627	10.6998	13.7203	11.5699	9.0071	4.5835	-3.4788	-6.3265	0.4037	0.8673	1.9131	8.1787	10.2701	12.6401	14.0616	13.3281	11.6496	12.893	13.2948	11.2943	11.2833	10.1978	6.68	0.2407	-3.4074	2.0648	-1.1406	9.0426	10.3107
156.25	12.1498	13.3365	9.8052	12.8224	10.8118	8.269	4.5053	-2.8357	-5.1857	0.7495	0.9854	1.7129	7.4355	9.3364	11.5654	13.0294	12.3309	10.6876	12.0001	12.2851	10.243	10.5818	9.4836	6.3703	0.7771	-2.2168	2.1764	-0.6872	8.1665	9.3478
160.1562	10.9309	12.1127	8.6565	11.6155	9.7927	7.3308	4.46	-2.0971	-3.8593	1.2578	1.1739	1.5334	6.5694	8.1785	10.2098	11.6448	11.0495	9.4964	10.8284	10.9135	8.8854	9.6468	8.5811	6.0139	1.3948	-0.8779	2.3275	-0.164	7.0441	8.1509
164.0625	9.4753	10.6746	7.3344	10.1893	8.5774	6.2507	4.4456	-1.3146	-2.4332	1.8882	1.4072	1.3734	5.6215	6.8606	8.6408	9.9849	9.5513	8.1475	9.4393	9.2571	7.299	8.5209	7.5369	5.614	2.0506	0.5271	2.4959	0.3935	5.7387	6.7911
167.9688	7.8454	9.0951	5.9146	8.6269	7.2309	5.0825	4.4555	-0.5378	-0.9932	2.5922	1.6611	1.2342	4.6349	5.4447	6.9198	8.1228	7.8939	6.7039	7.8873	7.3905	5.56	7.2458	6.3943	5.1779	2.7064	1.9266	2.6655	0.9577	4.3145	5.3367
171.875	6.1036	7.4347	4.4637	7.0001	5.8154	3.8733	4.4798	0.1886	0.3791	3.3165	1.9135	1.1179	3.6528	3.9904	5.1045	6.1282	6.127	5.2199	6.2214	5.3866	3.7423	5.8643	5.1952	4.7183	3.3317	3.261	2.828	1.5081	2.8356	3.8513
175.7812	4.3133	5.7428	3.0361	5.3675	4.3885	2.664	4.5066	0.8265	1.6108	4.0074	2.1461	1.0271	2.7172	2.5554	3.2517	4.0695	4.2974	3.7416	4.4891	3.3179	1.9182	4.4232	3.9818	4.2546	3.9042	4.4821	2.9825	2.0302	1.3652	2.3939
179.6875	2.5403	4.0619	1.6741	3.7769	3.0021	1.4892	4.5235	1.345	2.6412	4.6158	2.3445	0.964	1.8682	1.1965	1.4207	2.0154	2.4542	2.3103	2.7411	1.2591	0.1597	2.9752	2.7973	3.8118	4.409	5.5529	3.1348	2.5147	-0.0366	1.0182
183.5938	0.8511	2.4325	0.4086	2.2684	1.703	0.3792	4.5199	1.7207	3.4249	5.1017	2.4986	0.9305	1.1433	-0.0304	-0.3264	0.0367	0.6524	0.9643	1.0339	-0.713	-1.4632	1.5783	1.6856	3.4198	4.8381	6.4482	3.2964	2.9568	-1.3144	-0.2283
187.5	-0.689	0.8976	-0.7375	0.8794	0.5325	-0.6389	4.4891	1.9383	3.9348	5.4389	2.6027	0.9286	0.5762	-1.0722	-1.9257	-1.7949	-1.0468	-0.259	-0.5702	-2.5218	-2.8851	0.2941	0.6896	3.1104	5.1889	7.1548	3.4824	3.3559	-2.4217	-1.3049
191.4062	-2.0202	-0.4959	-1.7464	-0.3536	-0.4728	-1.5398	4.4306	1.9911	4.1643	5.618	2.6563	0.9601	0.196	-1.8816	-3.3159	-3.4101	-2.5777	-1.3233	-2.0058	-4.0954	-4.0493	-0.8172	-0.152	2.914	5.4635	7.6721	3.7096	3.715	-3.3241	-2.1799
195.3125	-3.0922	-1.6976	-2.6012	-1.3946	-1.2815	-2.2994	4.3522	1.8835	4.129	5.6483	2.6652	1.028	0.026	-2.4207	-4.4422	-4.7463	-3.8753	-2.1941	-3.2086	-5.3713	-4.9114	-1.7013	-0.8065	2.8565	5.6679	8.0123	3.9931	4.0404	-4.0017	-2.8317
199.2188	-3.8672	-2.6577	-3.2844	-2.2099	-1.8681	-2.8957	4.2707	1.6328	3.8666	5.5574	2.6422	1.1357	0.0816	-2.6639	-5.2607	-5.7516	-4.8802	-2.8406	-4.121	-6.3006	-5.4425	-2.3141	-1.249	2.9567	5.8116	8.1991	4.3442	4.3404	-4.4496	-3.2489
203.125	-4.3223	-3.3326	-3.7777	-2.772	-2.213	-3.3095	4.2114	1.2704	3.4351	5.3882	2.608	1.2882	0.3697	-2.6003	-5.7417	-6.3884	-5.5438	-3.2378	-4.6967	-6.8515	-5.629	-2.6244	-1.4625	3.2238	5.9077	8.2656	4.7687	4.6249	-4.6754	-3.4303
207.0312	-4.4506	-3.6914	-4.0641	-3.0633	-2.3048	-3.5272	4.2053	0.8409	2.9082	5.1944	2.5895	1.4912	0.8877	-2.2334	-5.8718	-6.6367	-5.8341	-3.3705	-4.905	-7.0103	-5.4722	-2.6157	-1.4386	3.6576	5.9716	8.2509	5.2663	4.904	-4.6962	-3.3838
210.9375	-4.2627	-3.7219	-4.1333	-3.0791	-2.141	-3.5426	4.2845	0.3988	2.3677	5.0327	2.6167	1.7502	1.623	-1.5821	-5.6563	-6.4963	-5.7398	-3.2367	-4.7361	-6.7825	-4.9877	-2.2879	-1.178	4.2484	6.0203	8.1958	5.8302	5.1868	-4.5348	-3.1268
214.8438	-3.7873	-3.4348	-3.9875	-2.8284	-1.7305	-3.3603	4.4768	0.0018	1.8938	4.9557	2.7181	2.069	2.5525	-0.6792	-5.1199	-5.9886	-5.2754	-2.8522	-4.2043	-6.1937	-4.2051	-1.6582	-0.6931	4.9773	6.0698	8.1385	6.448	5.4805	-4.2182	-2.6869
218.75	-3.0715	-2.8651	-3.646	-2.3333	-1.0946	-2.9971	4.7989	-0.2984	1.5537	5.0035	2.9154	2.4474	3.6426	0.4284	-4.308	-5.1576	-4.4824	-2.2529	-3.3504	-5.2896	-3.1686	-0.7623	-0.0093	5.8173	6.1334	8.1101	7.1023	5.7887	-3.7773	-2.1023
222.6562	-2.1793	-2.0702	-3.1468	-1.6296	-0.268	-2.4831	5.2525	-0.4639	1.3926	5.1981	3.2184	2.8793	4.8489	1.6818	-3.2842	-4.0685	-3.4283	-1.4938	-2.241	-4.1345	-1.9366	0.3469	0.8337	6.734	6.2188	8.1308	7.7714	6.1108	-3.2477	-1.4213
226.5625	-1.1876	-1.1255	-2.5439	-0.7665	0.701	-1.8601	5.8211	-0.4777	1.4268	5.5395	3.6223	3.3522	6.1177	3.0126	-2.1273	-2.8045	-2.2008	-0.6444	-0.9622	-2.8085	-0.5802	1.6016	1.7836	7.687	6.3279	8.2079	8.4303	6.44	-2.6701	-0.6999
230.4688	-0.1794	-0.1167	-1.9009	0.1937	1.7528	-1.1775	6.4708	-0.3456	1.6426	6.0056	4.1072	3.846	7.3883	4.3472	-0.9246	-1.4599	-0.8982	0.2197	0.3889	-1.4013	0.821	2.9248	2.7799	8.632	6.4567	8.3355	9.0521	6.7639	-2.0897	0.0029
234.375	0.7639	0.8689	-1.282	1.1795	2.8211	-0.4867	7.1544	-0.0947	1.9988	6.555	4.6392	4.3348	8.5969	5.6132	0.2366	-0.1313	0.3822	1.0267	1.7165	-0.0046	2.186	4.2381	3.7606	9.5244	6.5972	8.4971	9.6097	7.0641	-1.5533	0.6312
238.2812	1.5723	1.7534	-0.7416	2.117	3.8398	0.1654	7.8177	0.2327	2.4351	7.1318	5.1744	4.7875	9.6831	6.7471	1.2774	1.0928	1.5557	1.7183	2.9378	1.2982	3.4409	5.4698	4.6699	10.3236	6.7392	8.6684	10.0782	7.3176	-1.1056	1.1387
242.1875	2.1944	2.4776	-0.3176	2.9394	4.7516	0.7419	8.4069	0.5868	2.8806	7.6716	5.662	5.1701	10.5965	7.701	2.1363	2.1425	2.5596	2.2568	3.9926	2.4407	4.5278	6.563	5.4657	10.9972	6.8737	8.823	10.4366	7.4993	-0.7837	1.4937
246.0938	2.603	3.0071	-0.0269	3.5959	5.5142	1.2188	8.876	0.9189	3.2645	8.1075	6.0477	5.447	11.3035	8.449	2.7755	2.9734	3.3589	2.6284	4.8487	3.3813	5.4108	7.4815	6.1241	11.5252	6.995	8.9366	10.6707	7.5847	-0.6126	1.6823
250	2.7957	3.3341	0.1321	4.0576	6.1056	1.5856	9.1917	1.1884	3.5234	8.3747	6.2768	5.5829	11.791	8.9886	3.1832	3.5704	3.9461	2.8418	5.5021	4.1053	6.0798	8.2118	6.6405	11.902	7.1018	8.9919	10.7745	7.5526	-0.6017	1.7082
253.9062	2.7911	3.4735	0.1741	4.3202	6.5236	1.8421	9.3372	1.3681	3.6088	8.4175	6.2986	5.5465	12.0676	9.3399	3.372	3.9449	4.3375	2.9224	5.9725	4.6233	6.5486	8.7621	7.028	12.137	7.1975	8.9801	10.7511	7.3886	-0.7443	1.5897
257.8125	2.6219	3.4558	0.1187	4.4016	6.7838	1.9955	9.3127	1.446	3.4925	8.1961	6.0728	5.3148	12.1619	9.5399	3.3729	4.1285	4.5649	2.9052	6.2948	4.9648	6.8493	9.1566	7.3108	12.2521	7.2887	8.9019	10.6133	7.0879	-1.0203	1.3551
261.7188	2.3251	3.3168	-0.0164	4.3369	6.9142	2.057	9.1358	1.4262	3.1721	7.6968	5.5797	4.8807	12.1169	9.6357	3.2256	4.1625	4.6658	2.8256	6.5086	5.1687	7.0246	9.4283	7.5177	12.2775	7.3829	8.7653	10.3821	6.6585	-1.4019	1.0359
265.625	1.9324	3.0887	-0.2214	4.1702	6.9488	2.0397	8.8407	1.3279	2.6755	6.9422	4.8311	4.2602	11.9836	9.6749	2.9686	4.087	4.6733	2.713	6.648	5.2726	7.1176	9.6096	7.6743	12.2455	7.4856	8.5829	10.0851	6.1221	-1.8609	0.6611
269.5312	1.4633	2.7938	-0.496	3.9456	6.9209	1.9571	8.475	1.1824	2.0615	5.9968	3.8791	3.4978	11.8125	9.6969	2.6298	3.9313	4.6083	2.5853	6.7339	5.3042	7.1627	9.7244	7.7967	12.1838	7.5981	8.3687	9.752	5.5146	-2.3762	0.2518
273.4375	0.9212	2.4409	-0.8483	3.6977	6.8564	1.8219	8.0946	1.0285	1.4145	4.9651	2.8159	2.6657	11.6451	9.725	2.2207	3.7079	4.4753	2.4461	6.7695	5.2748	7.1779	9.782	7.8884	12.1097	7.716	8.135	9.4101	4.882	-2.9384	-0.1815
277.3438	0.2955	2.0268	-1.2902	3.4447	6.7691	1.645	7.7549	0.9053	0.8315	3.9765	1.7629	1.8548	11.5076	9.7617	1.736	3.4121	4.2634	2.2864	6.7411	5.1778	7.162	9.7764	7.94	12.0264	7.8293	7.8908	9.0799	4.2747	-3.5502	-0.6379
281.25	-0.4312	1.5409	-1.8301	3.1854	6.659	1.4349	7.5007	0.8443	0.4029	3.1617	0.8477	1.1582	11.4072	9.7902	1.1586	3.0259	3.9519	2.0885	6.6243	4.9928	7.0956	9.6889	7.9332	11.9231	7.9238	7.6413	8.7716	3.7378	-4.2216	-1.1235
285.1562	-1.2722	0.9734	-2.4665	2.9027	6.515	1.1979	7.3563	0.8616	0.1898	2.6216	0.1751	0.6491	11.3336	9.7802	0.4694	2.529	3.5208	1.8336	6.3937	4.6945	6.9499	9.498	7.8485	11.7797	7.9835	7.387	8.4842	3.3008	-4.9617	-1.6448
289.0625	-2.2254	0.3254	-3.1815	2.5738	6.322	0.9399	7.3194	0.9527	0.2047	2.4002	-0.2013	0.3608	11.2652	9.7001	-0.3402	1.911	2.9627	1.5102	6.0356	4.2659	6.6983	9.1899	7.6741	11.5741	7.9928	7.1222	8.2069	2.9688	-5.7687	-2.2027
292.9688	-3.2633	-0.3819	-3.9377	2.1843	6.0717	0.6706	7.3611	1.093	0.4018	2.4685	-0.2962	0.2741	11.1782	9.5307	-1.2564	1.1852	2.2939	1.1233	5.56	3.712	6.3323	8.7711	7.4158	11.2923	7.9385	6.8315	7.9214	2.7161	-6.621	-2.7859
296.875	-4.3275	-1.1002	-4.6769	1.7426	5.7734	0.4091	7.4325	1.2428	0.6814	2.7262	-0.1928	0.3173	11.057	9.2775	-2.234	0.3977	1.5624	0.7004	5.0084	3.0713	5.8731	8.2767	7.1029	10.936	7.8106	6.4876	7.606	2.4872	-7.4729	-3.366
300.7812	-5.331	-1.7528	-5.3234	1.2893	5.4608	0.1884	7.4764	1.3585	0.9083	3.0217	-0.0257	0.3809	10.9004	8.9767	-3.1951	-0.3696	0.8484	0.2936	4.4552	2.4188	5.3779	7.7723	6.7894	10.5267	7.6027	6.0494	7.2387	2.2051	-8.2559	-3.8971
304.6875	-6.1687	-2.2427	-5.7928	0.8961	5.1911	0.0554	7.4407	1.4034	0.9431	3.1864	0.0522	0.3435	10.7231	8.6913	-4.0367	-1.0074	0.2556	-0.0263	3.9991	1.859	4.9338	7.3467	6.5475	10.1028	7.3114	5.4673	6.8013	1.7875	-8.8874	-4.3198
308.5938	-6.7363	-2.4698	-6.0055	0.6526	5.0342	0.0649	7.2889	1.3581	0.6755	3.0743	-0.093	0.1021	10.5502	8.4979	-4.6482	-1.3984	-0.1073	-0.1825	3.7454	1.5079	4.6419	7.0948	6.4526	9.7109	6.9366	4.6935	6.2827	1.1672	-9.2859	-4.5717
312.5	-6.9535	-2.3537	-5.9042	0.6445	5.0549	0.2666	7.0074	1.2244	0.0536	2.5978	-0.5419	-0.4003	10.4091	8.4668	-4.9355	-1.4426	-0.1507	-0.1102	3.7817	1.4664	4.5928	7.0963	6.5661	9.394	6.4827	3.6984	5.6821	0.3133	-9.3897	-4.6021
316.4062	-6.784	-1.856	-5.4694	0.9302	5.2942	0.6897	6.6068	1.0238	-0.9008	1.7493	-1.3011	-1.1595	10.3192	8.6429	-4.8447	-1.0829	0.173	0.225	4.1551	1.796	4.8434	7.3944	6.9175	9.1802	5.9599	2.4864	5.0122	-0.7552	-9.1737	-4.3863
320.3125	-6.2474	-0.9937	-4.7273	1.5238	5.7557	1.3315	6.1189	0.7917	-2.0946	0.6041	-2.3014	-2.1091	10.2865	9.0321	-4.3783	-0.3221	0.8545	0.8156	4.8584	2.5007	5.4011	7.9836	7.4946	9.0761	5.3865	1.1054	4.3003	-1.966	-8.6588	-3.9358
324.2188	-5.4175	0.1599	-3.7486	2.3888	6.4021	2.1531	5.5906	0.568	-3.3832	-0.6969	-3.4149	-3.1368	10.3015	9.5992	-3.5975	0.7751	1.8266	1.6098	5.8284	3.5245	6.2206	8.8076	8.2435	9.0659	4.7892	-0.3548	3.5863	-3.2066	-7.9112	-3.2999
328.125	-4.4084	1.4886	-2.6364	3.4457	7.1632	3.0854	5.0753	0.3889	-4.6031	-1.979	-4.4853	-4.111	10.3426	10.2757	-2.6115	2.0945	2.9769	2.5204	6.9582	4.7629	7.2144	9.7713	9.079	9.116	4.1998	-1.7782	2.9155	-4.3477	-7.0305	-2.5586
332.0312	-3.3513	2.8566	-1.5072	4.5895	7.9519	4.0419	4.6246	0.2804	-5.6063	-3.0707	-5.363	-4.9103	10.3831	10.9765	-1.5548	3.4958	4.1707	3.4414	8.1199	6.0852	8.2726	10.7603	9.9016	9.1837	3.6515	-3.0471	2.3301	-5.2735	-6.1307	-1.8078
335.9375	-2.3692	4.1358	-0.4696	5.712	8.6844	4.938	4.2811	0.2561	-6.2881	-3.8376	-5.9355	-5.449	10.3976	11.6182	-0.5603	4.8407	5.278	4.2699	9.1899	7.3615	9.2865	11.664	10.6173	9.227	3.1721	-4.0677	1.859	-5.9068	-5.3182	-1.1413
339.8438	-1.5548	5.2285	0.3945	6.7219	9.2969	5.707	4.0731	0.3176	-6.602	-4.2041	-6.1461	-5.6916	10.3677	12.1361	0.2648	6.0179	6.1971	4.9243	10.0718	8.487	10.1693	12.396	11.1555	9.213	2.7809	-4.788	1.5116	-6.2248	-4.674	-0.6344
343.75	-0.9585	6.0812	1.0401	7.5585	9.7554	6.3115	4.0103	0.4579	-6.5602	-4.1635	-6.0009	-5.6546	10.2843	12.4935	0.8557	6.959	6.8696	5.3576	10.7102	9.3968	10.8682	12.907	11.479	9.1233	2.4863	-5.2031	1.2765	-6.2582	-4.2424	-0.332
347.6562	-0.5866	6.6862	1.4611	8.1953	10.0565	6.7454	4.0825	0.6637	-6.2218	-3.7735	-5.5626	-5.3992	10.1468	12.6833	1.1956	7.6431	7.2839	5.5602	11.0947	10.0706	11.3679	13.1872	11.587	8.9556	2.2883	-5.3473	1.1254	-6.079	-4.0289	-0.245
351.5625	-0.4085	7.0735	1.6836	8.6372	10.2218	7.0287	4.2604	0.9175	-5.6764	-3.1415	-4.9354	-5.0153	9.9599	12.7237	1.3104	8.0908	7.4696	5.5559	11.2541	10.5273	11.6859	13.2623	11.5104	8.7216	2.1806	-5.2784	1.0217	-5.7801	-4.0062	-0.353
355.4688	-0.3695	7.2972	1.7561	8.9127	10.2875	7.1974	4.5007	1.1996	-5.0241	-2.4025	-4.2438	-4.6024	9.7321	12.6501	1.2575	8.353	7.485	5.3914	11.2449	10.8143	11.862	13.1833	11.3021	8.4435	2.1547	-5.0617	0.929	-5.4534	-4.125	-0.6124
359.375	-0.4053	7.4205	1.7367	9.065	10.2961	7.2937	4.7543	1.4897	-4.358	-1.6923	-3.6093	-4.2513	9.4737	12.5062	1.1103	8.4959	7.4026	5.1258	11.1376	10.9939	11.949	13.0149	11.0265	8.1486	2.201	-4.7568	0.819	-5.1735	-4.3268	-0.9664
363.2812	-0.4531	7.5044	1.684	9.1439	10.2893	7.3586	4.9762	1.7683	-3.7508	-1.1226	-3.1285	-4.0276	9.1979	12.3379	0.9441	8.5893	7.2955	4.8204	11.0042	11.1331	12.0028	12.8256	10.7489	7.866	2.3103	-4.412	0.6757	-4.9874	-4.5547	-1.3547
367.1875	-0.4603	7.5998	1.6489	9.1999	10.3048	7.4278	5.1359	2.02	-3.2467	-0.7615	-2.8564	-3.9629	8.9217	12.1895	0.8249	8.696	7.2278	4.532	10.9086	11.2942	12.0774	12.6788	10.5276	7.6231	2.4726	-4.0636	0.4971	-4.9128	-4.7602	-1.7207
371.0938	-0.3884	7.7446	1.6705	9.2795	10.3748	7.5303	5.2228	2.2351	-2.8595	-0.6242	-2.7995	-4.0513	8.6668	12.1014	0.8026	8.8668	7.2489	4.3087	10.9012	11.53	12.2206	12.6276	10.4085	7.4434	2.6766	-3.7382	0.2934	-4.9412	-4.9067	-2.0168
375	-0.2142	7.9632	1.7746	9.4212	10.5246	7.6884	5.247	2.411	-2.5767	-0.6765	-2.9184	-4.2552	8.4587	12.1089	0.9084	9.1367	7.3908	4.1878	11.0155	11.8795	12.4709	12.7101	10.4222	7.3455	2.9082	-3.4566	0.0833	-5.0463	-4.9696	-2.2063
378.9062	0.0705	8.2671	1.9729	9.6528	10.7711	7.9169	5.2347	2.5517	-2.3693	-0.8486	-3.141	-4.5164	8.3238	12.2389	1.1547	9.523	7.6675	4.1942	11.2673	12.3652	12.8549	12.9466	10.5819	7.3404	3.1507	-3.2361	-0.111	-5.1933	-4.935	-2.2649
382.8125	0.4606	8.6556	2.2648	9.9886	11.1204	8.2223	5.2186	2.6655	-2.2041	-1.0566	-3.3827	-4.7721	8.2844	12.5074	1.5374	10.0256	8.0759	4.3402	11.6553	12.991	13.384	13.3378	10.8834	7.4306	3.3846	-3.092	-0.2696	-5.3483	-4.7977	-2.1807
386.7188	0.939	9.1154	2.6385	10.4271	11.566	8.601	5.2286	2.7608	-2.0558	-1.2248	-3.5675	-4.9697	8.3538	12.9159	2.0388	10.6271	8.5976	4.6246	12.1621	13.741	14.0527	13.8658	11.3064	7.6081	3.5896	-3.0363	-0.3798	-5.4855	-4.561	-1.9544
390.625	1.4783	9.6219	3.0735	10.9513	12.0886	9.0389	5.2826	2.8434	-1.9145	-1.3034	-3.6455	-5.078	8.5318	13.4495	2.6296	11.2952	9.201	5.0326	12.7573	14.5819	14.8371	14.4965	11.8172	7.8545	3.7466	-3.0761	-0.4392	-5.5912	-4.2363	-1.5992
394.5312	2.0433	10.1417	3.543	11.5299	12.6572	9.5123	5.3822	2.913	-1.7886	-1.278	-3.6023	-5.0923	8.8027	14.0767	3.2712	11.9868	9.8442	5.5356	13.4012	15.466	15.6978	15.1842	12.3727	8.1423	3.8404	-3.21	-0.4553	-5.6632	-3.8433	-1.1405
398.4375	2.5938	10.6365	4.0168	12.1218	13.233	9.99	5.5131	2.9626	-1.6995	-1.168	-3.4576	-5.0312	9.1366	14.7521	3.9185	12.6525	10.4792	6.0934	14.0485	16.3373	16.5832	15.8775	12.9259	8.4382	3.862	-3.4256	-0.4425	-5.7065	-3.4094	-0.6145
402.3438	3.0883	11.0681	4.4636	12.6815	13.7735	10.4367	5.6487	2.9795	-1.6731	-1.016	-3.2563	-4.9281	9.4935	15.4212	4.5233	13.2428	11.0562	6.6569	14.6535	17.1386	17.4355	16.5253	13.4307	8.7076	3.8104	-3.6985	-0.4168	-5.7275	-2.9682	-0.0652
406.25	3.4897	11.4034	4.8536	13.1653	14.2372	10.8168	5.7579	2.9484	-1.7293	-0.8727	-3.053	-4.8196	9.8291	16.0274	5.0391	13.7144	11.5293	7.174	15.1747	17.818	18.1981	17.0827	13.8474	8.9195	3.6934	-3.9943	-0.3905	-5.7284	-2.5554	0.4603
410.1562	3.7701	11.6182	5.161	13.5368	14.5883	11.0989	5.8117	2.8558	-1.8729	-0.7817	-2.8972	-4.7345	10.1022	16.5187	5.4269	14.0349	11.8626	7.5959	15.579	18.335	18.8215	17.5161	14.1474	9.0512	3.526	-4.2736	-0.3686	-5.705	-2.2038	0.9173
414.0625	3.9155	11.7006	5.3672	13.7709	14.8006	11.2601	5.7901	2.6949	-2.0905	-0.7685	-2.8215	-4.6871	10.2806	16.8545	5.661	14.1874	12.0355	7.8856	15.8456	18.6652	19.2698	17.8061	14.3159	9.0908	3.3283	-4.4995	-0.3486	-5.6482	-1.938	1.2703
417.9688	3.9289	11.6524	5.4638	13.8581	14.861	11.2894	5.6841	2.4684	-2.3523	-0.8376	-2.8363	-4.6761	10.3457	17.0114	5.7349	14.1733	12.0471	8.0246	15.9689	18.8032	19.5243	17.9502	14.3541	9.0391	3.1218	-4.6452	-0.3236	-5.5493	-1.7694	1.4985
421.875	3.8309	11.4894	5.4548	13.8054	14.7715	11.1907	5.4966	2.1896	-2.62	-0.9762	-2.9315	-4.6885	10.2938	16.9858	5.6634	14.0118	11.918	8.0178	15.9605	18.7628	19.5859	17.9621	14.2794	8.9082	2.9254	-4.7013	-0.2878	-5.4066	-1.6938	1.6009
425.7812	3.6573	11.2393	5.3579	13.6364	14.5501	10.9831	5.2379	1.879	-2.8577	-1.1637	-3.0845	-4.7074	10.1349	16.7938	5.483	13.7387	11.6882	7.894	15.8474	18.5756	19.4747	17.8702	14.1233	8.7187	2.753	-4.6784	-0.2418	-5.2313	-1.6916	1.5966
429.6875	3.4542	10.9384	5.2033	13.388	14.2285	10.6986	4.9218	1.5591	-3.0428	-1.3825	-3.2694	-4.7205	9.8887	16.4686	5.2466	13.401	11.4117	7.7027	15.6697	18.2861	19.2267	17.7132	13.927	8.4949	2.6113	-4.6058	-0.1966	-5.0497	-1.7307	1.5231
433.5938	3.2708	10.6263	5.0299	13.104	13.8479	10.3773	4.5602	1.2486	-3.173	-1.6268	-3.4673	-4.726	9.5794	16.0543	5.016	13.0502	11.1478	7.5046	15.4739	17.9454	18.8891	17.5344	13.7358	8.2606	2.5002	-4.5265	-0.1746	-4.9004	-1.7721	1.4295
437.5	3.1529	10.3401	4.8801	12.8279	13.4525	10.0611	4.1595	0.957	-3.2676	-1.9056	-3.6723	-4.735	9.2304	15.5992	4.8519	12.7353	10.9516	7.3611	15.3058	17.6035	18.5127	17.3751	13.5916	8.0347	2.4142	-4.4873	-0.2061	-4.8272	-1.7763	1.3681
441.4062	3.1364	10.1099	4.7926	12.5952	13.0822	9.7866	3.7195	0.6836	-3.3624	-2.2407	-3.8925	-4.7689	8.8595	15.1482	4.804	12.4953	10.8649	7.3223	15.2029	17.3021	18.1442	17.2682	13.5266	7.8276	2.3439	-4.5296	-0.3236	-4.8691	-1.7095	1.3854
445.3125	3.2428	9.9545	4.7954	12.428	12.7662	9.5787	3.2356	0.4187	-3.4997	-2.659	-4.147	-4.8535	8.4765	14.7358	4.9042	12.3543	10.9098	7.4177	15.1882	17.0685	17.8197	17.2334	13.5582	7.6409	2.2787	-4.6802	-0.5539	-5.0514	-1.5495	1.5145
449.2188	3.4765	9.88	4.9006	12.3328	12.5188	9.4473	2.7024	0.1483	-3.7161	-3.1826	-4.4583	-5.0114	8.0831	14.3824	5.1615	12.3189	11.0863	7.6518	15.2666	16.913	17.5593	17.2741	13.6864	7.4679	2.2089	-4.946	-0.9108	-5.3788	-1.2892	1.7702
453.125	3.8238	9.8796	5.1005	12.3012	12.338	9.386	2.1182	-0.1396	-4.0317	-3.8197	-4.8433	-5.2546	7.6755	14.092	5.5618	12.3776	11.3728	8.005	15.4244	16.8288	17.3655	17.3777	13.8944	7.2969	2.1269	-5.3132	-1.3904	-5.8332	-0.9388	2.1476
457.0312	4.2545	9.9351	5.3689	12.3134	12.2074	9.374	1.4896	-0.4498	-4.4443	-4.5584	-5.306	-5.5807	7.2472	13.8542	6.0698	12.5038	11.7302	8.4388	15.6316	16.7941	17.2241	17.518	14.1513	7.1138	2.0279	-5.7514	-1.9704	-6.3772	-0.5247	2.6234
460.9375	4.725	10.0196	5.6642	12.3412	12.0998	9.3806	0.8322	-0.7769	-4.9286	-5.3658	-5.8333	-5.9716	6.7928	13.6472	6.6334	12.6593	12.1074	8.9035	15.847	16.777	17.1084	17.6592	14.4171	6.906	1.9098	-6.2206	-2.6134	-6.962	-0.0865	3.1589
464.8438	5.1833	10.0999	5.9367	12.3518	11.9824	9.3704	0.1691	-1.1058	-5.4417	-6.1928	-6.3964	-6.3981	6.3099	13.4428	7.1903	12.8001	12.4484	9.346	16.0231	16.7404	16.9842	17.761	14.648	6.6634	1.7717	-6.6809	-3.2751	-7.5373	0.3284	3.7057
468.75	5.5755	10.1403	6.1366	12.3113	11.8219	9.3095	-0.4732	-1.4159	-5.933	-6.983	-6.9566	-6.8261	5.8	13.2122	7.6756	12.8814	12.6984	9.717	16.1134	16.6474	16.8163	17.7842	14.8018	6.3797	1.6131	-7.1009	-3.9127	-8.0622	0.6715	4.2108
472.6562	5.8524	10.1065	6.222	12.1886	11.5895	9.1704	-1.0704	-1.6865	-6.3561	-7.6852	-7.475	-7.2247	5.2679	12.9307	8.0303	12.864	12.8112	9.9765	16.0777	16.4663	16.5738	17.6955	14.8434	6.0517	1.4336	-7.4625	-4.4934	-8.5121	0.9009	4.6247
476.5625	5.9768	9.9707	6.1652	11.9592	11.2656	8.9358	-1.6065	-1.9029	-6.6792	-8.2641	-7.9219	-7.5726	4.7208	12.5819	8.2096	12.7185	12.7542	10.098	15.8882	16.1747	16.2358	17.4722	14.7489	5.6791	1.233	-7.7627	-5.0001	-8.8822	0.9878	4.9075
480.4688	5.9287	9.7155	5.957	11.6098	10.842	8.6	-2.0766	-2.0612	-6.8921	-8.708	-8.2837	-7.8617	4.167	12.1602	8.1892	12.4295	12.5132	10.0706	15.5334	15.7625	15.7935	17.1049	14.5099	5.2645	1.0124	-8.0111	-5.4317	-9.1845	0.9214	5.0357
484.375	5.708	9.3364	5.6079	11.1404	10.3233	8.1682	-2.4882	-2.1695	-7.008	-9.0314	-8.5656	-8.0971	3.615	11.6708	7.9682	11.9973	12.094	9.8986	15.0202	15.2326	15.2517	16.5993	14.1339	4.8134	0.7748	-8.2239	-5.8004	-9.4422	0.7113	5.0051
488.2812	5.3339	8.8423	5.1454	10.5644	9.7249	7.6545	-2.8585	-2.2475	-7.06	-9.2698	-8.7895	-8.2942	3.0725	11.128	7.5684	11.4361	11.5203	9.5996	14.3727	14.5997	14.6264	15.9755	13.6437	4.3344	0.5258	-8.4192	-6.1258	-9.6811	0.386	4.8312
492.1875	4.8404	8.2515	4.6091	9.9059	9.0697	7.0788	-3.2105	-2.3223	-7.0931	-9.4714	-8.9876	-8.474	2.5465	10.5511	7.0282	10.7709	10.8298	9.1997	13.628	13.8863	13.9411	15.2646	13.0727	3.8387	0.2723	-8.6114	-6.4292	-9.9227	-0.0119	4.5452
496.0938	4.2688	7.5875	4.0428	9.1933	8.3829	6.4639	-3.5675	-2.4234	-7.1548	-9.6852	-9.1943	-8.6574	2.0418	9.9606	6.395	10.0316	10.0661	8.7291	12.8291	13.1186	13.2216	14.5036	12.4587	3.3381	0.0213	-8.8101	-6.7287	-10.1791	-0.4328	4.1874
500	3.6605	6.8732	3.4869	8.4541	7.6876	5.8322	-3.9481	-2.5758	-7.2841	-9.9495	-9.4375	-8.8599	1.5608	9.3731	5.716	9.2471	9.2712	8.2171	12.0179	12.3211	12.4915	13.7296	11.8371	2.8431	-0.2225	-9.0191	-7.0362	-10.4517	-0.8292	3.7999
503.9062	3.0505	6.1283	2.9724	7.7094	7.0007	5.2043	-4.3618	-2.7942	-7.5034	-10.2838	-9.7309	-9.0879	1.1031	8.7989	5.0314	8.4414	8.4795	7.6892	11.2281	11.5144	11.7684	12.9738	11.2349	2.3611	-0.4579	-9.2385	-7.3572	-10.7321	-1.1631	3.4195
507.8125	2.464	5.3689	2.5179	6.9725	6.3316	4.5972	-4.8077	-3.0797	-7.8129	-10.6845	-10.0704	-9.3369	0.6658	8.2412	4.3704	7.6314	7.7141	7.1651	10.4815	10.7132	11.0635	12.2584	10.6687	1.896	-0.6872	-9.4657	-7.6911	-11.0056	-1.412	3.0737
511.7188	1.9159	4.6094	2.1297	6.2506	5.6832	4.0237	-5.2745	-3.4183	-8.1912	-11.127	-10.434	-9.592	0.2443	7.6979	3.7504	6.8286	6.9871	6.6599	9.7876	9.928	10.3818	11.5951	10.144	1.4483	-0.9152	-9.6971	-8.0332	-11.256	-1.571	2.779
515.625	1.4122	3.8653	1.8038	5.5474	5.0544	3.4917	-5.7438	-3.784	-8.6003	-11.5731	-10.7872	-9.832	-0.1673	7.1636	3.1795	6.0405	6.3022	6.1843	9.1457	9.1673	9.7254	10.986	9.6578	1.016	-1.147	-9.929	-8.378	-11.4701	-1.6516	2.541
519.5312	0.9536	3.1544	1.5296	4.8679	4.4438	3.0051	-6.1957	-4.1445	-8.9941	-11.9813	-11.0916	-10.0353	-0.5756	6.6333	2.6593	5.2747	5.6589	5.7475	8.5495	8.4397	9.095	10.4271	9.2031	0.5962	-1.3857	-10.1589	-8.721	-11.6424	-1.677	2.3575
523.4375	0.5386	2.4978	1.2941	4.2213	3.8529	2.5641	-6.614	-4.4668	-9.329	-12.3193	-11.3146	-10.1861	-0.9879	6.104	2.1898	4.5414	5.0572	5.3581	7.9924	7.7561	8.4933	9.9114	8.7729	0.1852	-1.6319	-10.3865	-9.062	-11.7774	-1.6747	2.2218
527.3438	0.1677	1.9179	1.0863	3.6223	3.2879	2.1679	-6.9906	-4.724	-9.5732	-12.5725	-11.4389	-10.2798	-1.412	5.5758	1.7723	3.8551	4.5007	5.0253	7.4724	7.1294	7.9252	9.4327	8.3641	-0.2207	-1.8834	-10.615	-9.4053	-11.8907	-1.6698	2.1259
531.25	-0.1549	1.4363	0.9003	3.0913	2.7604	1.8171	-7.3285	-4.8992	-9.7123	-12.7484	-11.4668	-10.3255	-1.8555	5.0522	1.4114	3.2348	3.999	4.7582	6.9946	6.5745	7.3985	8.9888	7.9789	-0.6254	-2.1369	-10.8519	-9.7605	-12.0071	-1.6783	2.0632
535.1562	-0.4206	1.0708	0.7374	2.6505	2.2856	1.5157	-7.6399	-4.9877	-9.752	-12.8752	-11.421	-10.3453	-2.3249	4.5387	1.1145	2.7021	3.5665	4.5644	6.5712	6.1055	6.9224	8.5816	7.6249	-1.0332	-2.3898	-11.1093	-10.1402	-12.1569	-1.7047	2.0293
539.0625	-0.618	0.8324	0.6051	2.3198	1.8794	1.2726	-7.9437	-4.9973	-9.7159	-12.9947	-11.3392	-10.3698	-2.8234	4.0424	0.8899	2.2776	3.2198	4.4478	6.2192	5.7339	6.5061	8.2171	7.3117	-1.447	-2.6413	-11.4022	-10.5578	-12.3702	-1.7423	2.0216
542.9688	-0.7363	0.7231	0.5142	2.1108	1.5546	1.0988	-8.2599	-4.9454	-9.6403	-13.1517	-11.2656	-10.4311	-3.3491	3.5707	0.7437	1.9772	2.9732	4.4065	5.9551	5.4655	6.1559	7.9027	7.0487	-1.8682	-2.8937	-11.7454	-11.0239	-12.6704	-1.7769	2.0379
546.875	-0.7689	0.7345	0.4743	2.0227	1.3171	1.0044	-8.6039	-4.8565	-9.5663	-13.3834	-11.241	-10.5553	-3.8931	3.1306	0.6767	1.8078	2.8344	4.432	5.7902	5.2989	5.8741	7.6449	6.841	-2.2944	-3.1508	-12.1496	-11.5424	-13.0686	-1.7924	2.0751
550.7812	-0.7165	0.8484	0.4903	2.0402	1.1638	0.9936	-8.9824	-4.7571	-9.531	-13.7099	-11.2928	-10.7555	-4.4393	2.7288	0.6821	1.7648	2.8013	4.5089	5.7255	5.2244	5.6581	7.4462	6.6876	-2.7188	-3.4172	-12.6165	-12.1074	-13.5583	-1.7774	2.1274
554.6875	-0.5894	1.0381	0.5594	2.1343	1.0828	1.0618	-9.3897	-4.6719	-9.5597	-14.1289	-11.4289	-11.0273	-4.9649	2.3715	0.7454	1.8314	2.8604	4.6171	5.7497	5.225	5.5006	7.3035	6.5812	-3.1297	-3.6948	-13.1352	-12.7003	-14.1144	-1.7291	2.1867
558.5938	-0.4073	1.2715	0.6708	2.2674	1.0561	1.1945	-9.8074	-4.6199	-9.6601	-14.6143	-11.6354	-11.3487	-5.4426	2.0651	0.8459	1.98	2.9882	4.7347	5.8404	5.2783	5.3914	7.2083	6.5097	-3.5112	-3.9818	-13.6812	-13.2901	-14.6949	-1.6558	2.2432
562.5	-0.1972	1.5151	0.8066	2.4004	1.0631	1.3697	-10.2058	-4.6119	-9.8208	-15.1202	-11.8789	-11.6828	-5.8431	1.8166	0.9599	2.1763	3.1553	4.8416	5.968	5.3601	5.3197	7.1476	6.459	-3.8435	-4.2703	-14.2182	-13.8349	-15.2459	-1.5749	2.2875
566.4062	0.0109	1.738	0.9446	2.5014	1.0864	1.5618	-10.5475	-4.6488	-10.0136	-15.588	-12.1128	-11.9841	-6.1386	1.6337	1.0655	2.3847	3.3309	4.9229	6.101	5.4482	5.2763	7.1069	6.4162	-4.1059	-4.547	-14.7022	-14.2875	-15.71	-1.5081	2.3118
570.3125	0.1889	1.9167	1.0613	2.552	1.1144	1.7465	-10.7932	-4.7227	-10.1996	-15.9561	-12.286	-12.2061	-6.3066	1.5243	1.146	2.5747	3.4882	4.9703	6.2126	5.5257	5.2551	7.073	6.3723	-4.2788	-4.7944	-15.0893	-14.6021	-16.036	-1.4764	2.3119
574.2188	0.3162	2.038	1.1359	2.5507	1.1436	1.9048	-10.9083	-4.8189	-10.3372	-16.1693	-12.3522	-12.3094	-6.3324	1.4948	1.1932	2.7252	3.6086	4.9823	6.2848	5.5832	5.2539	7.0362	6.3234	-4.3479	-4.9941	-15.3428	-14.7425	-16.1874	-1.4936	2.2873
578.125	0.3837	2.1004	1.155	2.5107	1.1774	2.0259	-10.8689	-4.9194	-10.3905	-16.1877	-12.2786	-12.2682	-6.212	1.5489	1.2084	2.8277	3.6846	4.9627	6.3111	5.6199	5.2731	6.9927	6.2706	-4.3073	-5.1297	-15.4405	-14.6896	-16.1491	-1.5632	2.2419
582.0312	0.3952	2.1134	1.1158	2.4553	1.2236	2.1079	-10.6658	-5.0065	-10.3361	-15.9925	-12.0517	-12.0745	-5.9534	1.6854	1.2019	2.8872	3.7202	4.9186	6.2969	5.6419	5.3154	6.9445	6.2194	-4.1618	-5.1901	-15.378	-14.4456	-15.9298	-1.6765	2.184
585.9375	0.3675	2.0953	1.0282	2.4103	1.2914	2.1569	-10.3075	-5.0654	-10.1667	-15.5896	-11.6795	-11.7392	-5.5761	1.897	1.1903	2.9194	3.7295	4.8586	6.257	5.6607	5.3838	6.899	6.1785	-3.9271	-5.1714	-15.1697	-14.0352	-15.5599	-1.8148	2.1247
589.8438	0.3258	2.0692	0.9135	2.3991	1.3879	2.1843	-9.8186	-5.0864	-9.8921	-15.0084	-11.1909	-11.2902	-5.1103	2.1697	1.1934	2.9468	3.7327	4.7918	6.212	5.6891	5.4798	6.8674	6.1572	-3.6284	-5.0773	-14.8451	-13.5027	-15.0862	-1.9532	2.0772
593.75	0.2999	2.0583	0.8005	2.4378	1.5163	2.2032	-9.2384	-5.0653	-9.5365	-14.2996	-10.6302	-10.7684	-4.5945	2.4829	1.2301	2.9935	3.7518	4.7272	6.1836	5.7384	5.6022	6.8614	6.1644	-3.2973	-4.9186	-14.4433	-12.905	-14.5635	-2.0656	2.0541
597.6562	0.3174	2.082	0.7186	2.5335	1.674	2.2252	-8.6157	-5.0032	-9.1335	-13.5287	-10.0507	-10.2212	-4.0715	2.8108	1.3146	3.0794	3.8055	4.6739	6.1902	5.815	5.7458	6.8902	6.206	-2.9669	-4.7114	-14.0063	-12.3034	-14.0459	-2.1296	2.0657
601.5625	0.3993	2.1524	0.6917	2.6832	1.8521	2.2581	-8.004	-4.9062	-8.7206	-12.7683	-9.5061	-9.6966	-3.5843	3.1252	1.4539	3.2163	3.9061	4.6413	6.243	5.9191	5.9012	6.9578	6.2834	-2.668	-4.4747	-13.5725	-11.754	-13.5793	-2.1296	2.1176
605.4688	0.5559	2.272	0.7323	2.8735	2.0358	2.3049	-7.4554	-4.7842	-8.3339	-12.0894	-9.0429	-9.2365	-3.1707	3.3979	1.6458	3.405	4.056	4.6373	6.3437	6.0443	6.0552	7.0607	6.3922	-2.425	-4.2282	-13.1727	-11.2999	-13.1961	-2.0586	2.2096
609.375	0.7849	2.4328	0.8392	3.0818	2.2053	2.3644	-7.015	-4.6498	-8.0039	-11.5523	-8.6945	-8.8722	-2.8595	3.6049	1.8792	3.6352	4.2471	4.6667	6.4833	6.1785	6.1923	7.1874	6.5214	-2.2539	-3.9907	-12.828	-10.9661	-12.9132	-1.9187	2.3351
613.2812	1.0716	2.6176	0.9985	3.2783	2.3382	2.4318	-6.716	-4.5171	-7.7535	-11.1987	-8.477	-8.6207	-2.6674	3.7288	2.1355	3.8864	4.4612	4.7287	6.6432	6.3053	6.2968	7.3193	6.6547	-2.1619	-3.7788	-12.5501	-10.7572	-12.732	-1.72	2.482
617.1875	1.3916	2.8023	1.1872	3.4308	2.4125	2.4995	-6.5756	-4.3999	-7.5958	-11.0471	-8.3883	-8.484	-2.5973	3.7611	2.392	4.1327	4.6739	4.8154	6.7986	6.408	6.3549	7.434	6.7726	-2.1474	-3.6057	-12.3419	-10.6599	-12.6404	-1.4781	2.635
621.0938	1.7159	2.9613	1.3797	3.5119	2.4111	2.5588	-6.5935	-4.3105	-7.5345	-11.0902	-8.4092	-8.4495	-2.6399	3.7032	2.6262	4.3479	4.8594	4.9137	6.9237	6.4719	6.3584	7.5097	6.8564	-2.2013	-3.4801	-12.1995	-10.6476	-12.6167	-1.2121	2.7784
625	2.0166	3.0741	1.5535	3.5069	2.326	2.6015	-6.7523	-4.2568	-7.5631	-11.2975	-8.507	-8.4931	-2.7752	3.5664	2.8211	4.5111	4.9972	5.0084	6.9974	6.4888	6.3058	7.5305	6.8926	-2.3087	-3.4052	-12.113	-10.6865	-12.6334	-0.9408	2.9002
628.9062	2.2726	3.131	1.694	3.4187	2.1612	2.6215	-7.0196	-4.2418	-7.6661	-11.6205	-8.6414	-8.5834	-2.9762	3.3695	2.9683	4.6115	5.0766	5.0866	7.0086	6.4579	6.2039	7.4899	6.8767	-2.4511	-3.3785	-12.0689	-10.7431	-12.6616	-0.6803	2.9949
632.8125	2.4737	3.1358	1.7972	3.2688	1.9335	2.6169	-7.3527	-4.2624	-7.8204	-12.0008	-8.7715	-8.6865	-3.2126	3.1365	3.0694	4.6499	5.0993	5.1423	6.9582	6.3863	6.066	7.3926	6.8145	-2.608	-3.3927	-12.0522	-10.7892	-12.6748	-0.4412	3.0651
636.7188	2.6214	3.1046	1.869	3.0921	1.6697	2.5905	-7.7049	-4.3114	-7.9982	-12.3795	-8.8629	-8.7718	-3.4549	2.8919	3.1348	4.6372	5.0782	5.1776	6.859	6.287	5.9095	7.2532	6.7212	-2.7595	-3.4361	-12.0483	-10.8059	-12.6529	-0.2286	3.1212
640.625	2.7262	3.0614	1.9231	2.9284	1.4016	2.5493	-8.0312	-4.3797	-8.1709	-12.7054	-8.893	-8.8161	-3.677	2.6576	3.1803	4.5905	5.033	5.2023	6.732	6.1758	5.7529	7.0926	6.6175	-2.8883	-3.4954	-12.0455	-10.785	-12.5843	-0.0422	3.1786
644.5312	2.8038	3.0312	1.9764	2.813	1.1598	2.5032	-8.295	-4.4583	-8.3131	-12.9416	-8.8538	-8.8061	-3.859	2.4502	3.2229	4.529	4.9848	5.2308	6.6013	6.068	5.6124	6.9337	6.5246	-2.9811	-3.5574	-12.0356	-10.7285	-12.4678	0.1218	3.2544
648.4375	2.8697	3.0335	2.0446	2.7701	0.969	2.4632	-8.4717	-4.5401	-8.4065	-13.0692	-8.7512	-8.7403	-3.9877	2.2801	3.2774	4.4693	4.9516	5.2781	6.4894	5.9769	5.4999	6.7966	6.4599	-3.0302	-3.6103	-12.0155	-10.6472	-12.3124	0.2693	3.3634
652.3438	2.9354	3.0786	2.1372	2.8095	0.8443	2.4391	-8.5511	-4.6205	-8.4423	-13.0867	-8.6023	-8.627	-4.0569	2.1518	3.3526	4.4233	4.9447	5.356	6.413	5.9126	5.4232	6.6958	6.4339	-3.0334	-3.6454	-11.9867	-10.5578	-12.1365	0.407	3.5152
656.25	3.0059	3.1655	2.2558	2.9258	0.7902	2.4381	-8.5363	-4.6955	-8.4215	-13.0074	-8.4295	-8.482	-4.0667	2.0651	3.451	4.3965	4.9677	5.4709	6.3805	5.8811	5.3849	6.6386	6.4486	-2.9944	-3.6578	-11.9556	-10.4799	-11.965	0.5411	3.7121
660.1562	3.0797	3.2831	2.3944	3.1005	0.8008	2.4632	-8.4414	-4.7615	-8.3536	-12.8539	-8.2562	-8.3248	-4.022	2.0173	3.5676	4.3886	5.0165	5.6225	6.3922	5.8844	5.3842	6.625	6.4991	-2.9217	-3.6464	-11.9315	-10.4321	-11.8249	0.676	3.9481
664.0625	3.1494	3.4134	2.5412	3.3045	0.8614	2.5127	-8.2874	-4.8141	-8.2539	-12.6534	-8.1018	-8.1742	-3.9319	2.0039	3.6919	4.3944	5.0817	5.8042	6.4414	5.9195	5.4161	6.6492	6.5753	-2.8263	-3.6131	-11.9239	-10.4274	-11.7396	0.8128	4.2098
667.9688	3.2044	3.5345	2.6812	3.5017	0.9497	2.5785	-8.0987	-4.8493	-8.1403	-12.4324	-7.9798	-8.045	-3.8081	2.0191	3.8099	4.405	5.1503	6.0045	6.5161	5.9786	5.4721	6.7012	6.6648	-2.7197	-3.5616	-11.9382	-10.4692	-11.7221	0.9483	4.4779
671.875	3.2334	3.6234	2.7977	3.653	1.0382	2.6454	-7.8994	-4.8648	-8.0292	-12.2131	-7.8956	-7.9444	-3.6633	2.0558	3.9061	4.4095	5.2087	6.2088	6.6014	6.0479	5.5399	6.7686	6.7556	-2.6101	-3.4948	-11.9704	-10.547	-11.7694	1.0738	4.7309
675.7812	3.2268	3.6589	2.8733	3.7207	1.097	2.6919	-7.7105	-4.8622	-7.9326	-12.0108	-7.8468	-7.87	-3.5089	2.1055	3.9658	4.396	5.2436	6.4005	6.6812	6.1095	5.6034	6.8378	6.8371	-2.5004	-3.4126	-12.0035	-10.6349	-11.859	1.1752	4.9473
679.6875	3.1777	3.6231	2.8907	3.6745	1.0981	2.6926	-7.5469	-4.8466	-7.8547	-11.8318	-7.8231	-7.81	-3.3533	2.1588	3.9773	4.3523	5.244	6.5625	6.7394	6.1421	5.6446	6.8956	6.9004	-2.3869	-3.3108	-12.0063	-10.6938	-11.9501	1.2354	5.1087
683.5938	3.0827	3.5038	2.8344	3.4964	1.0207	2.6228	-7.4152	-4.8259	-7.7909	-11.6726	-7.8075	-7.7444	-3.2001	2.2063	3.9316	4.2676	5.2005	6.6775	6.761	6.1254	5.6461	6.9295	6.9379	-2.2601	-3.1819	-11.9376	-10.6767	-11.9891	1.2367	5.2015
687.5	2.9411	3.296	2.6929	3.1855	0.8555	2.4645	-7.3133	-4.807	-7.7276	-11.5205	-7.7778	-7.6496	-3.0475	2.2405	3.8241	4.1336	5.1064	6.7299	6.7338	6.0433	5.5945	6.93	6.9427	-2.1077	-3.0168	-11.7545	-10.5382	-11.9203	1.1657	5.2175
691.4062	2.7537	3.0034	2.4624	2.7587	0.6073	2.2117	-7.2312	-4.793	-7.6459	-11.3577	-7.7113	-7.5039	-2.8909	2.2567	3.6536	3.9463	4.9574	6.707	6.6492	5.8883	5.4837	6.8908	6.9084	-1.9193	-2.809	-11.4229	-10.2453	-11.6987	1.0161	5.1542
695.3125	2.523	2.6394	2.149	2.2495	0.2951	1.8735	-7.1549	-4.7818	-7.5277	-11.1666	-7.5891	-7.2947	-2.7257	2.2531	3.4234	3.7077	4.7525	6.6012	6.5038	5.664	5.3166	6.8099	6.8298	-1.6908	-2.5575	-10.9291	-9.7873	-11.3021	0.7915	5.0148
699.2188	2.2533	2.2259	1.7703	1.7036	-0.0512	1.474	-7.0705	-4.7671	-7.3617	-10.9361	-7.402	-7.0227	-2.5508	2.2308	3.1423	3.4268	4.4956	6.4118	6.3005	5.3855	5.1058	6.6902	6.7042	-1.4275	-2.2695	-10.2866	-9.1815	-10.7394	0.5055	4.8075
703.125	1.9527	1.7933	1.3552	1.1732	-0.3957	1.0489	-6.9687	-4.7405	-7.1492	-10.6662	-7.1536	-6.7037	-2.3702	2.1929	2.8253	3.121	4.1972	6.147	6.0495	5.0783	4.8712	6.5389	6.5337	-1.1446	-1.9597	-9.5372	-8.4728	-10.0513	0.1799	4.5462
707.0312	1.6361	1.3778	0.9405	0.7103	-0.7019	0.64	-6.8468	-4.6953	-6.9046	-10.3681	-6.8602	-6.3653	-2.192	2.1447	2.4945	2.8158	3.8761	5.8257	5.7698	4.7754	4.6383	6.368	6.3267	-0.8638	-1.6479	-8.7444	-7.7254	-9.303	-0.1576	4.2505
710.9375	1.3262	1.0189	0.5668	0.3605	-0.9381	0.2888	-6.7074	-4.6282	-6.6515	-10.0613	-6.547	-6.0412	-2.0261	2.0939	2.1784	2.5432	3.5595	5.4764	5.4878	4.5134	4.4347	6.1938	6.0994	-0.6085	-1.3551	-7.9817	-7.0115	-8.5718	-0.4763	3.9456
714.8438	1.0522	0.7556	0.2718	0.157	-1.0806	0.0306	-6.5561	-4.5402	-6.415	-9.7663	-6.241	-5.7625	-1.8806	2.051	1.9091	2.3383	3.281	5.1358	5.2355	4.3273	4.287	6.035	5.8745	-0.3987	-1.0992	-7.3189	-6.398	-7.9319	-0.7459	3.6604
718.75	0.8459	0.6209	0.0849	0.1171	-1.1164	-0.1096	-6.3985	-4.4346	-6.214	-9.4992	-5.9644	-5.5512	-1.7594	2.0285	1.7179	2.2332	3.0756	4.8433	5.0455	4.2455	4.2171	5.911	5.6785	-0.2469	-0.8928	-6.8101	-5.9351	-7.4406	-0.9395	3.4247
722.6562	0.7349	0.6361	0.0221	0.2396	-1.0435	-0.1204	-6.2369	-4.3166	-6.0552	-9.2664	-5.7297	-5.4153	-1.6614	2.0401	1.6296	2.2505	2.973	4.6351	4.9451	4.2846	4.2396	5.839	5.5374	-0.1555	-0.7423	-6.4856	-5.65	-7.1298	-1.0377	3.2651
726.5625	0.7353	0.8055	0.0824	0.5049	-0.871	-0.0047	-6.071	-4.1911	-5.9333	-9.0652	-5.5382	-5.3488	-1.5809	2.0975	1.6568	2.3975	2.9912	4.5376	4.9502	4.4461	4.3589	5.8307	5.4711	-0.1176	-0.6481	-6.349	-5.5444	-7.0025	-1.0312	3.2004
730.4688	0.8471	1.1129	0.2483	0.877	-0.6181	0.2204	-5.8987	-4.0635	-5.8341	-8.8864	-5.3832	-5.3341	-1.5095	2.2086	1.7968	2.6626	3.1317	4.5624	5.0616	4.7146	4.5682	5.8905	5.4902	-0.1183	-0.6061	-6.3795	-5.5972	-7.0352	-0.923	3.238
734.375	1.053	1.5237	0.4884	1.3085	-0.3117	0.5261	-5.7191	-3.9401	-5.7416	-8.7207	-5.2545	-5.3475	-1.4376	2.3754	2.031	3.0168	3.3785	4.7044	5.2645	5.0605	4.8507	6.0143	5.5928	-0.1378	-0.6091	-6.5379	-5.7688	-7.1847	-0.728	3.3727
738.2812	1.3216	1.989	0.7632	1.7478	0.0169	0.8758	-5.5349	-3.8281	-5.6449	-8.5644	-5.1438	-5.3645	-1.3554	2.5932	2.3284	3.4179	3.7006	4.9422	5.5306	5.4446	5.1819	6.1904	5.7656	-0.1548	-0.6477	-6.7744	-6.009	-7.398	-0.4715	3.5873
742.1875	1.6139	2.4551	1.033	2.1477	0.3362	1.2306	-5.3538	-3.7355	-5.5425	-8.4226	-5.0489	-5.3661	-1.2552	2.8508	2.6511	3.8184	4.0579	5.243	5.8246	5.8252	5.5336	6.4011	5.9856	-0.1508	-0.7118	-7.0381	-6.2643	-7.6224	-0.1844	3.855
746.0938	1.8911	2.8721	1.265	2.4728	0.6188	1.5543	-5.1879	-3.6702	-5.4431	-8.3091	-4.9752	-5.3422	-1.1321	3.1317	2.9615	4.1747	4.4091	5.5679	6.1101	6.165	5.8778	6.6251	6.2237	-0.1137	-0.7917	-7.2852	-6.4867	-7.8147	0.1018	4.1445
750	2.1216	3.2021	1.4394	2.7051	0.845	1.8185	-5.0511	-3.6374	-5.3633	-8.2425	-4.9338	-5.2929	-0.9863	3.4155	3.2286	4.4534	4.7184	5.8788	6.3559	6.4366	6.1896	6.84	6.4498	-0.0398	-0.8792	-7.484	-6.6399	-7.9473	0.3597	4.4241
753.9062	2.2853	3.4245	1.5509	2.8433	1.0042	2.0066	-4.9562	-3.6384	-5.321	-8.2391	-4.9366	-5.2267	-0.8231	3.6804	3.4317	4.6359	4.9605	6.1439	6.5406	6.6249	6.4496	7.0251	6.6367	0.0658	-0.9683	-7.6175	-6.7032	-8.0088	0.5699	4.6668
757.8125	2.3749	3.5364	1.6071	2.8995	1.0943	2.1147	-4.9105	-3.6691	-5.3288	-8.3058	-4.9906	-5.156	-0.6531	3.9056	3.5617	4.7183	5.1222	6.3414	6.6535	6.7274	6.645	7.1635	6.7641	0.1917	-1.0544	-7.6805	-6.6714	-8.0012	0.7225	4.8533
761.7188	2.3941	3.5499	1.6233	2.8925	1.121	2.1504	-4.9134	-3.7206	-5.3882	-8.4341	-5.0923	-5.0917	-0.4897	4.0747	3.6196	4.7095	5.2021	6.4613	6.6947	6.7515	6.7698	7.2439	6.8208	0.3239	-1.1339	-7.6755	-6.5519	-7.9338	0.8163	4.9734
765.625	2.3547	3.4874	1.6164	2.8412	1.095	2.1308	-4.9545	-3.7806	-5.4882	-8.599	-5.2249	-5.0387	-0.3462	4.178	3.6132	4.6271	5.2075	6.5044	6.6729	6.7115	6.8256	7.2629	6.8057	0.4501	-1.2019	-7.6072	-6.3593	-7.8168	0.8558	5.0262
769.5312	2.2737	3.3773	1.6012	2.7598	1.0314	2.0785	-5.015	-3.8357	-5.6064	-8.7616	-5.36	-4.9939	-0.2329	4.2147	3.5548	4.4933	5.1515	6.4801	6.6025	6.6252	6.8207	7.225	6.7272	0.5638	-1.2525	-7.4779	-6.1106	-7.6564	0.8491	5.0185
773.4375	2.1707	3.2497	1.5884	2.6568	0.9479	2.019	-5.0701	-3.873	-5.7147	-8.8761	-5.4626	-4.9464	-0.1541	4.1932	3.4587	4.3316	5.05	6.4039	6.5013	6.5116	6.7694	7.143	6.6016	0.6655	-1.2777	-7.2868	-5.8205	-7.453	0.8044	4.9629
777.3438	2.0655	3.133	1.5852	2.5353	0.8635	1.978	-5.0933	-3.8818	-5.7859	-8.8988	-5.4983	-4.8808	-0.1082	4.1288	3.3393	4.1639	4.9192	6.2938	6.3872	6.3883	6.6899	7.0347	6.4496	0.7616	-1.2695	-7.0305	-5.4998	-7.2025	0.7289	4.8746
781.25	1.9752	3.051	1.5965	2.3963	0.7957	1.9776	-5.062	-3.8548	-5.8003	-8.7975	-5.4411	-4.7821	-0.0883	4.0406	3.2096	4.0079	4.7735	6.1668	6.2754	6.2695	6.6011	6.9198	6.2917	0.8623	-1.2217	-6.7065	-5.1551	-6.8996	0.6283	4.769
785.1562	1.9116	3.019	1.6249	2.24	0.7574	2.0324	-4.9627	-3.7894	-5.7496	-8.5586	-5.2801	-4.6399	-0.0847	3.9467	3.0793	3.8747	4.6239	6.0372	6.1766	6.1647	6.5189	6.8149	6.1445	0.9768	-1.1324	-6.3165	-4.7904	-6.5415	0.5069	4.6591
789.0625	1.8788	3.0408	1.6705	2.068	0.7536	2.1461	-4.7947	-3.6884	-5.6378	-8.1907	-5.0213	-4.4519	-0.0882	3.8607	2.9543	3.768	4.4775	5.9141	6.0958	6.0776	6.4533	6.73	6.0176	1.1111	-1.0049	-5.868	-4.4086	-6.1316	0.3689	4.5534
792.9688	1.8729	3.1079	1.7298	1.8833	0.7802	2.3095	-4.5706	-3.5604	-5.4789	-7.7237	-4.6871	-4.2248	-0.0911	3.7891	2.8367	3.6839	4.3374	5.8017	6.0318	6.0064	6.4071	6.6671	5.9122	1.2655	-0.8488	-5.3758	-4.0132	-5.6804	0.2199	4.4564
796.875	1.8834	3.2016	1.7958	1.6905	0.8255	2.5023	-4.3138	-3.4186	-5.2934	-7.2027	-4.3114	-3.9732	-0.0891	3.7319	2.7255	3.6135	4.204	5.7001	5.9794	5.9453	6.3762	6.6209	5.8233	1.4348	-0.6783	-4.8606	-3.6099	-5.2052	0.067	4.3688
