time	FP1	F3	F7	FC3	C3	C5	P3	P7	PO7	PO3	O1	Oz	Pz	CPz	FP2	Fz	F4	F8	FC4	FCz	Cz	C4	C6	P4	P8	PO8	PO4	O2	HEOG_left	HEOG_right
-199.2188	-2.0849	-0.9436	-0.2362	-1.1698	-1.3745	-0.2898	-2.6652	-0.8922	-0.9386	-1.4373	-1.2787	-1.2394	-0.4753	-0.6628	0.7358	-1.8386	-0.7158	-0.7453	-0.2333	-1.6358	-0.9173	-0.6294	-0.4828	-0.9623	-0.8532	-1.2268	-1.7296	-1.261	-0.4169	-0.7305
-195.3125	-2.0201	-1.0077	-0.3953	-1.2258	-1.3722	-0.7337	-2.6027	-0.8116	-0.7919	-1.4328	-1.1116	-0.9873	-0.5431	-0.7249	0.2814	-1.7253	-1.0101	-0.9436	-0.2994	-1.5845	-0.8922	-0.6728	-0.6002	-0.9787	-0.7571	-1.0592	-1.5036	-1.0651	-0.5583	-0.9713
-191.4062	-1.9393	-1.0189	-0.5022	-1.2274	-1.3201	-1.1057	-2.5054	-0.7379	-0.6515	-1.4073	-0.9375	-0.7238	-0.5642	-0.7413	-0.1154	-1.5714	-1.2127	-1.0881	-0.3074	-1.4858	-0.8265	-0.6691	-0.6685	-0.9547	-0.6434	-0.8684	-1.2555	-0.8475	-0.6754	-1.1675
-187.5	-1.8056	-0.9417	-0.5192	-1.1344	-1.181	-1.3461	-2.3457	-0.6771	-0.5195	-1.339	-0.75	-0.4389	-0.4983	-0.6757	-0.4144	-1.3471	-1.2535	-1.1307	-0.2164	-1.3048	-0.6896	-0.5799	-0.6452	-0.8549	-0.4922	-0.6319	-0.9679	-0.5889	-0.7393	-1.2826
-183.5938	-1.5937	-0.763	-0.433	-0.9327	-0.9428	-1.4215	-2.1109	-0.6321	-0.3979	-1.2155	-0.5479	-0.1285	-0.3261	-0.5128	-0.6046	-1.0444	-1.1039	-1.051	-0.0152	-1.0297	-0.4705	-0.3909	-0.5125	-0.6614	-0.2949	-0.338	-0.6355	-0.2792	-0.7361	-1.3009
-179.6875	-1.2985	-0.4951	-0.2572	-0.637	-0.6202	-1.3298	-1.8049	-0.6021	-0.2877	-1.036	-0.3355	0.2034	-0.054	-0.2616	-0.7033	-0.6793	-0.7831	-0.862	0.2738	-0.6748	-0.1812	-0.1159	-0.2821	-0.3779	-0.0565	0.0104	-0.2686	0.08	-0.6691	-1.2299
-175.7812	-0.94	-0.1717	-0.0273	-0.2859	-0.2491	-1.0987	-1.4471	-0.5824	-0.1895	-0.8103	-0.1216	0.5443	0.2887	0.0475	-0.7459	-0.2878	-0.3516	-0.6063	0.5997	-0.2769	0.1464	0.2066	0.0076	-0.0293	0.2049	0.3958	0.1083	0.4738	-0.5574	-1.0963
-171.875	-0.561	0.16	0.209	0.0693	0.1229	-0.7784	-1.0668	-0.5658	-0.1021	-0.5556	0.0818	0.8747	0.6565	0.3708	-0.7707	0.0845	0.1057	-0.3444	0.8965	0.1147	0.4696	0.5237	0.3019	0.3447	0.4628	0.789	0.4611	0.8764	-0.429	-0.9368
-167.9688	-0.216	0.4507	0.405	0.3778	0.4497	-0.4308	-0.6962	-0.5438	-0.0229	-0.2921	0.2626	1.1709	0.9992	0.6626	-0.8048	0.3943	0.5027	-0.1361	1.1012	0.4509	0.7448	0.7826	0.5441	0.6981	0.688	1.1546	0.755	1.2547	-0.3122	-0.7866
-164.0625	0.045	0.6597	0.5267	0.6011	0.6963	-0.1164	-0.3637	-0.508	0.0525	-0.0383	0.4107	1.4093	1.2729	0.8857	-0.8543	0.6121	0.7741	-0.0231	1.1713	0.6948	0.9391	0.9448	0.6912	0.989	0.8563	1.4576	0.9631	1.5741	-0.2271	-0.6694
-160.1562	0.1911	0.7638	0.5614	0.7211	0.8456	0.117	-0.088	-0.4513	0.1299	0.1915	0.5204	1.5707	1.4493	1.0193	-0.9018	0.7286	0.8908	-0.0161	1.0962	0.8304	1.0366	0.9959	0.7249	1.1876	0.9535	1.6697	1.0733	1.8043	-0.1803	-0.5921
-156.25	0.2178	0.7615	0.52	0.742	0.8996	0.2419	0.1248	-0.3689	0.2149	0.3883	0.5906	1.6434	1.5193	1.0614	-0.9121	0.7561	0.863	-0.0932	0.8995	0.8649	1.0411	0.9469	0.6537	1.281	0.9774	1.773	1.0894	1.9238	-0.1659	-0.546
-152.3438	0.1459	0.6727	0.4325	0.6875	0.8757	0.2536	0.2797	-0.2591	0.3112	0.5472	0.6245	1.6248	1.4917	1.0258	-0.8424	0.7234	0.7328	-0.2082	0.632	0.8245	0.9725	0.8291	0.5083	1.2726	0.9363	1.7623	1.028	1.9227	-0.1701	-0.5125
-148.4375	0.0147	0.5336	0.339	0.593	0.8006	0.1682	0.3899	-0.1233	0.4186	0.6662	0.628	1.5218	1.3883	0.9366	-0.6579	0.6673	0.559	-0.3063	0.3586	0.7459	0.8605	0.6833	0.3312	1.18	0.8456	1.6443	0.9125	1.8037	-0.1786	-0.4709
-144.5312	-0.1275	0.3879	0.2784	0.4965	0.7035	0.0172	0.4714	0.0328	0.5319	0.7444	0.6083	1.3497	1.2375	0.821	-0.3464	0.6238	0.4002	-0.3398	0.1426	0.6666	0.7366	0.5493	0.1656	1.0293	0.7241	1.4365	0.7665	1.5824	-0.182	-0.405
-140.625	-0.2334	0.2771	0.2772	0.4297	0.6098	-0.1591	0.5377	0.1994	0.6411	0.7818	0.5717	1.1295	1.0677	0.7031	0.0712	0.6193	0.2999	-0.2816	0.0317	0.6155	0.6275	0.4562	0.0464	0.8509	0.591	1.1649	0.6087	1.2847	-0.1775	-0.3067
-136.7188	-0.2674	0.2302	0.3426	0.4111	0.5365	-0.32	0.5955	0.3622	0.7317	0.778	0.5214	0.8848	0.9023	0.5987	0.5381	0.6651	0.2774	-0.1314	0.0469	0.6062	0.549	0.4176	-0.0068	0.6738	0.4635	0.8609	0.4495	0.9438	-0.1671	-0.1773
-132.8125	-0.2147	0.2568	0.4591	0.4414	0.4898	-0.4313	0.6432	0.5033	0.7867	0.7321	0.4567	0.6375	0.7546	0.5135	0.9708	0.7547	0.3258	0.0849	0.1778	0.6348	0.5042	0.4289	0.0074	0.521	0.3546	0.5575	0.2904	0.5957	-0.1543	-0.0261
-128.9062	-0.0871	0.3446	0.5931	0.5034	0.4656	-0.4719	0.6723	0.6031	0.7894	0.6423	0.3731	0.4053	0.6269	0.4426	1.2781	0.8656	0.4172	0.3225	0.3856	0.6816	0.4836	0.4704	0.0735	0.4064	0.2714	0.285	0.1264	0.274	-0.1426	0.1325
-125	0.0782	0.4631	0.7009	0.5672	0.4531	-0.4359	0.672	0.6448	0.7278	0.5079	0.2646	0.1995	0.5121	0.3751	1.3864	0.9652	0.5134	0.53	0.6127	0.7175	0.4698	0.5142	0.1655	0.3334	0.214	0.0672	-0.0494	0.0055	-0.1351	0.2823
-121.0938	0.2273	0.5729	0.7414	0.5983	0.4397	-0.3323	0.6344	0.6191	0.5984	0.3319	0.1277	0.0256	0.3975	0.2986	1.2645	1.0208	0.5791	0.663	0.7985	0.7137	0.4437	0.5323	0.2552	0.2961	0.1755	-0.0822	-0.2403	-0.1928	-0.1357	0.4083
-117.1875	0.306	0.6376	0.6874	0.568	0.4157	-0.1818	0.5585	0.5276	0.4093	0.1227	-0.0359	-0.1157	0.2706	0.2053	0.9362	1.0095	0.5935	0.6952	0.8951	0.6504	0.3908	0.5052	0.3206	0.2822	0.1444	-0.1611	-0.4429	-0.3163	-0.1497	0.4994
-113.2812	0.2779	0.6355	0.5338	0.4623	0.3783	-0.0116	0.4519	0.3842	0.1798	-0.1045	-0.2178	-0.2269	0.1232	0.0954	0.478	0.9245	0.5546	0.6254	0.8786	0.5239	0.3064	0.4269	0.3507	0.2769	0.1079	-0.1793	-0.6461	-0.3728	-0.1815	0.5496
-109.375	0.1383	0.5658	0.3002	0.2873	0.3317	0.1503	0.3291	0.2129	-0.0634	-0.329	-0.4041	-0.3126	-0.0459	-0.0225	-0.0009	0.7778	0.4763	0.4764	0.753	0.3477	0.1964	0.3053	0.3455	0.2662	0.0562	-0.1559	-0.8338	-0.3797	-0.2308	0.5592
-105.4688	-0.0829	0.4479	0.0269	0.0686	0.2856	0.2813	0.2087	0.0427	-0.2907	-0.5272	-0.5774	-0.3775	-0.2304	-0.1334	-0.3878	0.5958	0.3799	0.2889	0.5455	0.1493	0.0756	0.1584	0.3127	0.2394	-0.0147	-0.115	-0.9893	-0.3605	-0.2888	0.5361
-101.5625	-0.3279	0.3137	-0.2359	-0.1549	0.2514	0.3668	0.109	-0.0981	-0.4757	-0.6764	-0.7202	-0.4262	-0.4187	-0.2204	-0.5962	0.4111	0.2843	0.1098	0.2957	-0.0374	-0.0381	0.0082	0.2625	0.1913	-0.1018	-0.08	-1.0987	-0.339	-0.3374	0.494
-97.6562	-0.5274	0.1951	-0.4414	-0.3417	0.2374	0.4012	0.0451	-0.1875	-0.5989	-0.7582	-0.8172	-0.4615	-0.5964	-0.2698	-0.5893	0.2529	0.1993	-0.0208	0.0429	-0.181	-0.1287	-0.1261	0.2027	0.1222	-0.1956	-0.0689	-1.1535	-0.333	-0.3532	0.4497
-93.75	-0.6209	0.1139	-0.5581	-0.4587	0.2456	0.3876	0.0269	-0.2136	-0.6494	-0.7612	-0.8567	-0.4833	-0.7491	-0.2745	-0.3881	0.1396	0.1243	-0.0801	-0.1837	-0.2609	-0.1869	-0.2327	0.1365	0.0375	-0.283	-0.0899	-1.1493	-0.3501	-0.3147	0.4189
-89.8438	-0.574	0.0771	-0.5747	-0.4879	0.2715	0.3371	0.0595	-0.1747	-0.6234	-0.681	-0.8297	-0.4871	-0.8631	-0.2347	-0.0629	0.0759	0.0524	-0.0666	-0.369	-0.2697	-0.2107	-0.3075	0.0639	-0.0524	-0.3497	-0.1389	-1.0839	-0.3841	-0.2112	0.4122
-85.9375	-0.3883	0.0802	-0.4984	-0.4276	0.3076	0.2697	0.1457	-0.0777	-0.5222	-0.5192	-0.7299	-0.4629	-0.9245	-0.1558	0.29	0.0557	-0.0224	0.002	-0.5089	-0.2127	-0.2026	-0.3514	-0.0141	-0.132	-0.3821	-0.1995	-0.9553	-0.4155	-0.0474	0.4339
-82.0312	-0.0989	0.1144	-0.3469	-0.2884	0.3476	0.2135	0.287	0.0653	-0.3509	-0.2819	-0.5534	-0.3966	-0.9195	-0.0453	0.5787	0.0687	-0.0986	0.097	-0.6041	-0.1025	-0.166	-0.3654	-0.0912	-0.1832	-0.3686	-0.2464	-0.7611	-0.4158	0.1575	0.4819
-78.125	0.2381	0.1723	-0.1418	-0.0888	0.3886	0.2	0.4823	0.2388	-0.119	0.0201	-0.3018	-0.2751	-0.8372	0.0892	0.7415	0.1048	-0.1661	0.1873	-0.6553	0.0441	-0.1031	-0.3491	-0.1549	-0.189	-0.3018	-0.2527	-0.5023	-0.3567	0.3747	0.5492
-74.2188	0.5635	0.2491	0.0946	0.1476	0.4296	0.2555	0.7248	0.4248	0.1567	0.3692	0.0136	-0.0934	-0.6752	0.238	0.7589	0.1564	-0.2106	0.2486	-0.6623	0.2085	-0.0167	-0.3014	-0.1906	-0.1401	-0.1812	-0.1993	-0.1884	-0.2215	0.5746	0.6254
-70.3125	0.8306	0.3388	0.3393	0.3926	0.4678	0.3909	0.9972	0.6023	0.4489	0.7379	0.368	0.1381	-0.4457	0.3873	0.6514	0.2154	-0.221	0.2693	-0.6276	0.3698	0.0863	-0.2256	-0.1887	-0.0402	-0.0163	-0.0835	0.1583	-0.0143	0.7339	0.6991
-66.4062	1.0122	0.4294	0.5664	0.614	0.4953	0.5952	1.2698	0.7476	0.7207	1.089	0.7232	0.3913	-0.1785	0.5169	0.4651	0.2717	-0.1962	0.2523	-0.5601	0.5049	0.1917	-0.1325	-0.1502	0.0909	0.1729	0.0775	0.5016	0.237	0.8402	0.7588
-62.5	1.1004	0.5015	0.7486	0.779	0.4999	0.8369	1.503	0.8375	0.9303	1.3787	1.0328	0.6238	0.0829	0.6031	0.2558	0.3121	-0.1461	0.2136	-0.4759	0.5916	0.2794	-0.0403	-0.0875	0.2214	0.3581	0.2486	0.7961	0.486	0.8929	0.7957
-58.5938	1.1007	0.5334	0.8614	0.8608	0.4689	1.0723	1.6553	0.8532	1.0398	1.5655	1.2515	0.788	0.2901	0.6239	0.0745	0.3235	-0.0872	0.1765	-0.3947	0.6132	0.3282	0.0295	-0.0198	0.3149	0.5088	0.386	0.9969	0.6786	0.9015	0.8052
-54.6875	1.0255	0.5087	0.8899	0.8465	0.3952	1.2581	1.693	0.7859	1.0249	1.6194	1.3464	0.8433	0.4025	0.5664	-0.0397	0.2973	-0.0357	0.1636	-0.3333	0.5646	0.3228	0.0598	0.0347	0.3413	0.598	0.4486	1.0706	0.7676	0.8802	0.788
-50.7812	0.8905	0.4239	0.8322	0.742	0.281	1.3615	1.5999	0.6406	0.8819	1.5305	1.3043	0.7659	0.398	0.4314	-0.0627	0.2332	-0.0004	0.1895	-0.3002	0.4544	0.2593	0.0431	0.0649	0.2845	0.6086	0.4086	1.0051	0.7237	0.8432	0.7499
-46.875	0.7149	0.2896	0.6999	0.5709	0.1382	1.3664	1.3825	0.436	0.6299	1.3122	1.135	0.5549	0.2787	0.2348	0.0138	0.1389	0.0187	0.256	-0.2929	0.3036	0.1469	-0.0154	0.0696	0.1465	0.5361	0.2581	0.8143	0.5422	0.7999	0.6993
-42.9688	0.5241	0.1266	0.5139	0.3675	-0.0156	1.2737	1.0697	0.202	0.3074	0.9987	0.8684	0.2322	0.0696	0.0037	0.1805	0.0279	0.03	0.351	-0.2995	0.1392	0.0046	-0.1002	0.0559	-0.0536	0.3888	0.0108	0.5366	0.2423	0.7532	0.6441
-39.0625	0.3514	-0.0423	0.2992	0.167	-0.162	1.0984	0.7068	-0.0267	-0.0363	0.6375	0.5474	-0.1624	-0.1879	-0.2303	0.4097	-0.0855	0.0455	0.4534	-0.3039	-0.0125	-0.1443	-0.1904	0.0353	-0.2851	0.1852	-0.3012	0.2272	-0.1373	0.7009	0.5896
-35.1562	0.2346	-0.1988	0.079	-0.0033	-0.2865	0.8658	0.3465	-0.2171	-0.35	0.2803	0.2192	-0.5789	-0.4456	-0.4379	0.6556	-0.19	0.0756	0.5392	-0.2919	-0.1333	-0.2791	-0.2662	0.019	-0.5125	-0.0494	-0.6344	-0.0536	-0.547	0.6392	0.5371
-31.25	0.2061	-0.3332	-0.1279	-0.1289	-0.3817	0.6071	0.0377	-0.3445	-0.591	-0.0268	-0.0735	-0.9653	-0.6584	-0.5982	0.8609	-0.2797	0.1236	0.5895	-0.2571	-0.2165	-0.3869	-0.3138	0.0141	-0.7024	-0.2872	-0.941	-0.2536	-0.9333	0.5652	0.4844
-27.3438	0.2799	-0.4432	-0.3087	-0.2087	-0.4474	0.355	-0.1835	-0.3965	-0.7318	-0.2507	-0.299	-1.2758	-0.794	-0.7026	0.9676	-0.3558	0.1825	0.5938	-0.2044	-0.2678	-0.4653	-0.3297	0.0221	-0.8298	-0.501	-1.178	-0.3395	-1.2479	0.4794	0.4261
-23.4375	0.44	-0.5315	-0.4566	-0.2526	-0.4896	0.139	-0.3008	-0.3752	-0.7642	-0.3764	-0.4409	-1.4778	-0.8375	-0.7555	0.9326	-0.4259	0.2339	0.551	-0.1507	-0.3035	-0.5224	-0.3212	0.0376	-0.8827	-0.6681	-1.314	-0.3033	-1.4545	0.3846	0.3553
-19.5312	0.6382	-0.6028	-0.5708	-0.2774	-0.5188	-0.0203	-0.32	-0.2956	-0.6995	-0.408	-0.4983	-1.5565	-0.7941	-0.7737	0.7401	-0.5027	0.2519	0.4649	-0.1213	-0.3458	-0.5751	-0.3052	0.0493	-0.8645	-0.7736	-1.3353	-0.1619	-1.5347	0.2849	0.2646
-15.625	0.804	-0.6623	-0.6565	-0.3023	-0.5473	-0.1138	-0.2669	-0.1821	-0.5647	-0.3664	-0.4844	-1.5164	-0.6857	-0.7814	0.4092	-0.6006	0.209	0.3396	-0.1444	-0.4172	-0.6443	-0.3044	0.0421	-0.7933	-0.8128	-1.2487	0.0483	-1.4904	0.1836	0.1466
-11.7188	0.8643	-0.7153	-0.7238	-0.3454	-0.5863	-0.1463	-0.1807	-0.0628	-0.3961	-0.2839	-0.4214	-1.3792	-0.5451	-0.8058	-0.0097	-0.7318	0.0838	0.176	-0.2438	-0.5349	-0.75	-0.3421	-0.0002	-0.6978	-0.7934	-1.0807	0.2806	-1.3435	0.0819	-0.0045
-7.8125	0.7673	-0.7685	-0.7864	-0.4208	-0.6445	-0.1352	-0.1049	0.0374	-0.2317	-0.1971	-0.335	-1.1792	-0.4086	-0.8705	-0.4466	-0.9033	-0.134	-0.0285	-0.4333	-0.7065	-0.9067	-0.4372	-0.0916	-0.6117	-0.7343	-0.8724	0.4879	-1.131	-0.0206	-0.1921
-3.9062	0.5018	-0.8309	-0.858	-0.5373	-0.7277	-0.1074	-0.0781	0.1006	-0.1034	-0.139	-0.249	-0.956	-0.3089	-0.9916	-0.8291	-1.1148	-0.4411	-0.2757	-0.7127	-0.929	-1.1203	-0.6007	-0.2406	-0.5671	-0.6622	-0.6717	0.631	-0.8983	-0.1248	-0.4159
0	0.104	-0.9148	-0.948	-0.6978	-0.8388	-0.0941	-0.1264	0.1193	-0.0322	-0.1332	-0.1809	-0.7483	-0.2701	-1.1753	-1.1001	-1.3591	-0.8219	-0.5608	-1.067	-1.19	-1.3871	-0.8328	-0.4483	-0.5886	-0.6065	-0.524	0.6833	-0.6911	-0.2308	-0.6697
3.9062	-0.3497	-1.0325	-1.0575	-0.8989	-0.9775	-0.1245	-0.2588	0.0952	-0.0253	-0.1902	-0.1395	-0.5874	-0.3049	-1.4163	-1.2299	-1.6223	-1.2496	-0.868	-1.4679	-1.4704	-1.6938	-1.1232	-0.7059	-0.6887	-0.5923	-0.4637	0.6327	-0.5478	-0.3364	-0.9409
7.8125	-0.764	-1.1904	-1.1769	-1.1301	-1.1392	-0.2185	-0.4659	0.0377	-0.0767	-0.3061	-0.125	-0.4936	-0.4135	-1.6992	-1.2211	-1.8853	-1.6874	-1.1703	-1.8751	-1.747	-2.0187	-1.4508	-0.9942	-0.8657	-0.635	-0.5087	0.4799	-0.4942	-0.4375	-1.2097
11.7188	-1.0512	-1.382	-1.2872	-1.372	-1.3126	-0.38	-0.7227	-0.0389	-0.1705	-0.4657	-0.1313	-0.4748	-0.5848	-1.9999	-1.1061	-2.1243	-2.089	-1.4332	-2.2405	-1.9948	-2.3338	-1.7849	-1.2836	-1.1033	-0.737	-0.6576	0.2347	-0.5403	-0.5285	-1.4509
15.625	-1.1565	-1.5826	-1.3648	-1.5974	-1.479	-0.5949	-0.9934	-0.1187	-0.2858	-0.6468	-0.15	-0.527	-0.7977	-2.2886	-0.9373	-2.3122	-2.4009	-1.6225	-2.5138	-2.1886	-2.6081	-2.0886	-1.5381	-1.3736	-0.8879	-0.8926	-0.0868	-0.6808	-0.6034	-1.6375
19.5312	-1.0712	-1.7512	-1.3893	-1.7734	-1.6138	-0.8326	-1.2395	-0.1861	-0.4024	-0.826	-0.1741	-0.6385	-1.0261	-2.5344	-0.7735	-2.4218	-2.5699	-1.711	-2.6505	-2.3061	-2.8112	-2.3235	-1.7214	-1.6424	-1.0679	-1.1841	-0.4657	-0.8978	-0.6563	-1.7452
23.4375	-0.8315	-1.8396	-1.3515	-1.8687	-1.691	-1.0524	-1.4279	-0.2281	-0.5053	-0.9847	-0.2022	-0.7931	-1.2431	-2.7105	-0.6641	-2.4314	-2.5536	-1.6846	-2.6221	-2.3309	-2.9195	-2.4569	-1.8048	-1.8766	-1.2532	-1.4985	-0.8817	-1.1662	-0.6817	-1.7584
27.3438	-0.5032	-1.8076	-1.2572	-1.8609	-1.6906	-1.2138	-1.5373	-0.2358	-0.5878	-1.1124	-0.2384	-0.9754	-1.4271	-2.8001	-0.6358	-2.33	-2.3335	-1.5436	-2.4241	-2.2568	-2.9211	-2.4698	-1.7747	-2.0513	-1.4217	-1.8057	-1.3143	-1.4592	-0.6741	-1.6745
31.25	-0.1613	-1.6386	-1.1275	-1.7445	-1.6053	-1.2864	-1.5622	-0.206	-0.651	-1.2087	-0.2916	-1.173	-1.5655	-2.7998	-0.684	-2.1234	-1.9245	-1.3012	-2.0805	-2.0909	-2.8196	-2.3619	-1.6374	-2.1552	-1.5572	-2.0839	-1.7427	-1.7536	-0.6294	-1.5048
35.1562	0.1311	-1.3492	-0.9922	-1.5347	-1.4455	-1.2575	-1.5119	-0.1412	-0.7008	-1.2807	-0.3703	-1.3767	-1.657	-2.7208	-0.7742	-1.8354	-1.3777	-0.9798	-1.6406	-1.8544	-2.6344	-2.1537	-1.4187	-2.1925	-1.6527	-2.3216	-2.1447	-2.0326	-0.5461	-1.2738
39.0625	0.3379	-0.989	-0.881	-1.2649	-1.2383	-1.1358	-1.4066	-0.0486	-0.743	-1.3385	-0.477	-1.579	-1.709	-2.5864	-0.851	-1.5053	-0.7734	-0.6074	-1.1704	-1.5799	-2.3971	-1.8819	-1.1581	-2.1794	-1.7096	-2.5149	-2.4958	-2.2852	-0.4286	-1.0142
42.9688	0.4551	-0.6303	-0.8142	-0.9801	-1.0228	-0.9494	-1.2709	0.0616	-0.778	-1.388	-0.6032	-1.77	-1.7337	-2.4268	-0.8547	-1.1803	-0.2057	-0.2147	-0.7386	-1.3056	-2.1453	-1.5921	-0.8997	-2.1384	-1.7355	-2.6627	-2.7696	-2.5033	-0.2891	-0.7614
46.875	0.5054	-0.3509	-0.7985	-0.7271	-0.8413	-0.7393	-1.1279	0.1788	-0.7979	-1.4269	-0.7267	-1.9353	-1.743	-2.2724	-0.7408	-0.9067	0.2377	0.1642	-0.4037	-1.0686	-1.9157	-1.3291	-0.6828	-2.0904	-1.7397	-2.7605	-2.9395	-2.6773	-0.1484	-0.548
50.7812	0.5215	-0.215	-0.8279	-0.545	-0.7299	-0.55	-0.9951	0.2936	-0.7858	-1.4422	-0.8136	-2.0552	-1.7448	-2.1491	-0.4973	-0.7217	0.4932	0.4921	-0.2033	-0.8994	-1.738	-1.1292	-0.5357	-2.0496	-1.7296	-2.7979	-2.9842	-2.7928	-0.0353	-0.3996
54.6875	0.5264	-0.26	-0.8907	-0.4595	-0.7122	-0.4199	-0.8825	0.3998	-0.7176	-1.4129	-0.8233	-2.1069	-1.7424	-2.0748	-0.1534	-0.6493	0.5327	0.7293	-0.151	-0.8185	-1.633	-1.0163	-0.4732	-2.0211	-1.7083	-2.7582	-2.8924	-2.8307	0.0175	-0.3326
58.5938	0.5181	-0.4903	-0.9778	-0.4807	-0.7955	-0.374	-0.7927	0.4958	-0.5664	-1.3146	-0.7163	-2.0684	-1.7353	-2.0595	0.2223	-0.699	0.3653	0.8379	-0.2371	-0.8364	-1.612	-1.0005	-0.4971	-2.002	-1.6745	-2.6231	-2.666	-2.7696	-0.0206	-0.3535
62.5	0.4659	-0.8802	-1.0885	-0.6058	-0.9718	-0.4214	-0.7224	0.5844	-0.3084	-1.1258	-0.4627	-1.9239	-1.7226	-2.106	0.5349	-0.868	0.0312	0.7891	-0.4356	-0.9552	-1.6784	-1.0799	-0.5995	-1.9851	-1.6245	-2.3782	-2.3211	-2.5915	-0.1717	-0.4598
66.4062	0.3202	-1.3832	-1.2326	-0.8233	-1.2209	-0.5543	-0.664	0.6728	0.0707	-0.8339	-0.0494	-1.6682	-1.7051	-2.2113	0.6843	-1.1438	-0.4114	0.5703	-0.7123	-1.1699	-1.8288	-1.2434	-0.7662	-1.9626	-1.5553	-2.0203	-1.8858	-2.2881	-0.4428	-0.642
70.3125	0.0337	-1.9426	-1.4248	-1.1167	-1.5137	-0.7517	-0.607	0.7703	0.5705	-0.4392	0.515	-1.3102	-1.685	-2.3667	0.5897	-1.5069	-0.8998	0.1919	-1.0326	-1.4689	-2.0532	-1.4727	-0.9795	-1.9291	-1.4671	-1.5621	-1.3959	-1.8665	-0.8231	-0.8848
74.2188	-0.4156	-2.5006	-1.6753	-1.4654	-1.815	-0.9819	-0.5396	0.8867	1.1716	0.0434	1.1997	-0.8728	-1.6643	-2.5567	0.2128	-1.9301	-1.3772	-0.3098	-1.3654	-1.8324	-2.3319	-1.7427	-1.2194	-1.8816	-1.3648	-1.0334	-0.8887	-1.3512	-1.2823	-1.1672
78.125	-1.006	-3.0032	-1.9782	-1.8435	-2.0857	-1.2068	-0.4494	1.0292	1.8361	0.5866	1.9544	-0.3896	-1.6403	-2.7564	-0.4279	-2.3776	-1.7975	-0.8731	-1.683	-2.2297	-2.6341	-2.0208	-1.4614	-1.817	-1.2562	-0.4767	-0.3968	-0.7814	-1.7724	-1.4612
82.0312	-1.6685	-3.4014	-2.3047	-2.2171	-2.2852	-1.3853	-0.3242	1.1994	2.5091	1.1542	2.7167	0.101	-1.6025	-2.9308	-1.2531	-2.8034	-2.1237	-1.4166	-1.9568	-2.6178	-2.9165	-2.2666	-1.6752	-1.7287	-1.1484	0.0608	0.059	-0.2038	-2.2325	-1.7303
85.9375	-2.296	-3.6513	-2.6037	-2.5432	-2.3758	-1.4782	-0.1542	1.391	3.1251	1.7062	3.4195	0.5632	-1.5309	-3.0361	-2.1315	-3.1525	-2.325	-1.8495	-2.1534	-2.9425	-3.1254	-2.4324	-1.824	-1.6033	-1.043	0.5376	0.4727	0.3368	-2.5964	-1.9305
89.8438	-2.7663	-3.7165	-2.8107	-2.7723	-2.3276	-1.4528	0.0666	1.5891	3.6148	2.2036	3.9997	0.9689	-1.3985	-3.0247	-2.8973	-3.3656	-2.3747	-2.0857	-2.2334	-3.1434	-3.2039	-2.4686	-1.8678	-1.4208	-0.9322	0.9268	0.8536	0.8061	-2.8028	-2.0145
93.75	-2.9693	-3.5717	-2.8622	-2.8554	-2.1239	-1.2891	0.3385	1.771	3.9147	2.6125	4.406	1.3017	-1.1772	-2.8535	-3.3769	-3.3886	-2.2522	-2.0581	-2.1564	-3.1633	-3.1006	-2.3302	-1.7686	-1.1576	-0.7982	1.2214	1.2222	1.1859	-2.8041	-1.9391
97.6562	-2.8315	-3.2092	-2.7108	-2.7536	-1.7661	-0.9843	0.6551	1.9102	3.9767	2.9071	4.605	1.5575	-0.8453	-2.4931	-3.4213	-3.1831	-1.9476	-1.7319	-1.8901	-2.9592	-2.7813	-1.9867	-1.4989	-0.7937	-0.6174	1.4325	1.6036	1.475	-2.5727	-1.6733
101.5625	-2.3313	-2.6448	-2.3365	-2.4476	-1.2749	-0.5562	1.0036	1.9817	3.7759	3.0715	4.5845	1.7427	-0.3949	-1.9371	-2.9397	-2.7377	-1.4688	-1.1126	-1.4218	-2.5136	-2.2381	-1.4314	-1.0497	-0.3202	-0.3669	1.5847	2.0197	1.6865	-2.1048	-1.2055
105.4688	-1.501	-1.9197	-1.7504	-1.9447	-0.6885	-0.0397	1.3663	1.9673	3.3161	3.1014	4.3559	1.8718	0.1629	-1.207	-1.927	-2.0738	-0.8455	-0.2479	-0.767	-1.8415	-1.4953	-0.6875	-0.4364	0.2543	-0.033	1.7068	2.4818	1.8432	-1.4206	-0.5478
109.375	-0.4194	-1.0958	-0.9913	-1.2796	-0.0565	0.5198	1.7238	1.86	2.6313	3.0036	3.9518	1.9643	0.7971	-0.3523	-0.4762	-1.2456	-0.1276	0.7783	0.0288	-0.9915	-0.608	0.1918	0.3004	0.9012	0.3825	1.8241	2.9879	1.9713	-0.5624	0.2645
113.2812	0.8026	-0.2457	-0.1175	-0.5093	0.5679	1.0765	2.0576	1.6656	1.7822	2.797	3.4227	2.0418	1.4614	0.5562	1.2307	-0.3317	0.6231	1.8606	0.8958	-0.0396	0.3452	1.1291	1.0997	1.5739	0.8582	1.9524	3.5209	2.0953	0.4097	1.1773
117.1875	2.0383	0.5596	0.8035	0.2963	1.1352	1.592	2.351	1.4025	0.8483	2.5106	2.8297	2.1249	2.1012	1.4371	2.9532	0.5776	1.3445	2.8913	1.7523	0.9227	1.2752	2.0352	1.8897	2.2153	1.3539	2.0945	4.0506	2.2339	1.4229	2.1242
121.0938	3.1603	1.2624	1.7042	1.0652	1.6052	2.0389	2.5885	1.0972	-0.0827	2.1805	2.2364	2.2306	2.6622	2.2109	4.439	1.3952	1.9854	3.7786	2.5185	1.8027	2.0961	2.8227	2.5986	2.766	1.8151	2.2415	4.5375	2.3972	2.4002	3.0332
125	4.0556	1.8236	2.5244	1.7325	1.9479	2.3997	2.7549	0.7798	-0.9275	1.8448	1.7	2.369	3.0988	2.8121	5.4734	2.0504	2.5124	4.4582	3.1302	2.52	2.7374	3.4198	3.1655	3.1745	2.1819	2.3766	4.9394	2.5864	3.2694	3.8334
128.9062	4.6392	2.2235	3.2157	2.2471	2.1444	2.6639	2.8343	0.4773	-1.6184	1.5375	1.2645	2.5411	3.3796	3.1974	5.922	2.4971	2.9102	4.8968	3.5462	3.0168	3.1534	3.7803	3.5478	3.4052	2.4006	2.4811	5.2195	2.7947	3.9721	4.4619
132.8125	4.8647	2.4578	3.7438	2.574	2.1848	2.8246	2.8118	0.2092	-2.1109	1.2814	0.9559	2.738	3.4909	3.35	5.7548	2.7165	3.1774	5.0882	3.7512	3.2638	3.3259	3.8882	3.7246	3.4439	2.4346	2.54	5.3549	3.0093	4.4711	4.8707
136.7188	4.7309	2.5315	4.0883	2.6957	2.068	2.8774	2.6765	-0.0141	-2.3867	1.0844	0.7821	2.9414	3.4357	3.2789	5.049	2.7153	3.3177	5.0469	3.7527	3.2604	3.2639	3.7569	3.6965	3.2991	2.2722	2.5477	5.3429	3.2138	4.7533	5.033
140.625	4.2815	2.4528	4.2415	2.6106	1.8006	2.8203	2.426	-0.1912	-2.4519	0.9398	0.7357	3.128	3.2328	3.0146	3.968	2.5189	3.3335	4.8012	3.575	3.0312	2.9985	3.4238	3.4826	3.0002	1.9301	2.5095	5.202	3.3924	4.8289	4.9486
144.5312	3.5979	2.2301	4.2073	2.3319	1.3977	2.6553	2.0708	-0.3244	-2.3309	0.8304	0.7997	3.2748	2.9124	2.6016	2.7253	2.1655	3.2223	4.3894	3.2518	2.6195	2.5765	2.943	3.1156	2.592	1.4517	2.4421	4.9691	3.5331	4.7257	4.6449
148.4375	2.786	1.8722	4.0017	1.8866	0.8835	2.3903	1.6371	-0.4162	-2.0588	0.7378	0.9541	3.3663	2.5135	2.0922	1.5403	1.6989	2.98	3.8569	2.8207	2.0803	2.053	2.3762	2.6381	2.1292	0.8998	2.3711	4.6932	3.6319	4.4829	4.1741
152.3438	1.9602	1.3924	3.6527	1.3139	0.2915	2.0405	1.1665	-0.4655	-1.6737	0.6498	1.1806	3.399	2.0793	1.5392	0.5971	1.1647	2.6081	3.2545	2.3203	1.4736	1.4858	1.7857	2.0987	1.6685	0.3468	2.326	4.4273	3.6947	4.1443	3.6044
156.25	1.2263	0.8134	3.1999	0.6641	-0.3361	1.6288	0.712	-0.4672	-1.2125	0.5671	1.4652	3.3823	1.6533	0.9923	0.012	0.6082	2.1227	2.6361	1.7893	0.8592	0.9298	1.2286	1.5488	1.2621	-0.1377	2.3348	4.2206	3.7372	3.7542	3.0087
160.1562	0.667	0.1714	2.694	-0.0049	-0.9506	1.1854	0.331	-0.4138	-0.7077	0.5039	1.7977	3.3371	1.2756	0.4943	-0.182	0.074	1.5615	2.0541	1.2684	0.2933	0.4339	0.7532	1.0394	0.9519	-0.4983	2.4172	4.1123	3.7817	3.3536	2.4535
164.0625	0.3324	-0.4828	2.1937	-0.6308	-1.4994	0.7466	0.077	-0.2994	-0.1861	0.4858	2.1711	3.2907	0.9801	0.0808	-0.0335	-0.3943	0.9831	1.5542	0.8002	-0.1739	0.0394	0.3967	0.6164	0.7661	-0.7016	2.5817	4.1258	3.8532	2.979	1.9897
167.9688	0.237	-1.0864	1.7614	-1.1521	-1.9316	0.3528	-0.0085	-0.1216	0.3312	0.5439	2.5805	3.2727	0.7929	-0.2203	0.3475	-0.7556	0.461	1.1694	0.4278	-0.5013	-0.2221	0.1846	0.3167	0.719	-0.7391	2.8239	4.2673	3.9748	2.66	1.648
171.875	0.3628	-1.5729	1.4556	-1.5143	-2.2028	0.0449	0.0984	0.1164	0.8294	0.7087	3.0228	3.3102	0.7317	-0.3885	0.8222	-0.9749	0.0695	0.9171	0.1898	-0.6589	-0.3295	0.1302	0.1652	0.8122	-0.6249	3.1299	4.5258	4.1642	2.4181	1.4387
175.7812	0.6669	-1.8829	1.3212	-1.6768	-2.282	-0.1406	0.4021	0.4062	1.3	1.0033	3.4961	3.4242	0.8055	-0.4123	1.2596	-1.0283	-0.132	0.7989	0.1137	-0.6324	-0.2746	0.2339	0.1713	1.0372	-0.3893	3.4794	4.8772	4.4308	2.2635	1.3535
179.6875	1.0886	-1.9781	1.3781	-1.6218	-2.1589	-0.1788	0.8866	0.7347	1.7396	1.438	3.9978	3.6265	1.0134	-0.2909	1.5668	-0.9104	-0.1145	0.8029	0.2081	-0.4277	-0.0659	0.4821	0.3273	1.3768	-0.0712	3.8508	5.2894	4.7742	2.1924	1.3691
183.5938	1.5565	-1.8512	1.6123	-1.3604	-1.8479	-0.0647	1.5177	1.0847	2.147	2.0058	4.522	3.9167	1.3424	-0.038	1.7048	-0.6401	0.1103	0.9057	0.4573	-0.0737	0.2693	0.845	0.6066	1.8054	0.2885	4.2241	5.7273	5.1828	2.1838	1.45
187.5	1.9951	-1.5314	1.9742	-0.9348	-1.39	0.1822	2.2458	1.4361	2.5212	2.6804	5.0566	4.2812	1.7664	0.3171	1.6843	-0.2619	0.489	1.0749	0.8195	0.3774	0.6847	1.2771	0.9643	2.2883	0.6524	4.5825	6.1572	5.6349	2.2004	1.5532
191.4062	2.3335	-1.0802	2.3855	-0.4129	-0.8477	0.5186	3.0114	1.7669	2.8587	3.4189	5.5822	4.6936	2.2472	0.7311	1.5486	0.1589	0.9368	1.2716	1.2317	0.856	1.1197	1.7205	1.3415	2.7837	0.9897	4.9129	6.5496	6.0997	2.1943	1.633
195.3125	2.5141	-0.5786	2.7559	0.124	-0.294	0.8849	3.7528	2.0569	3.1535	4.1665	6.0728	5.1182	2.7387	1.1523	1.3509	0.5478	1.3564	1.4544	1.6215	1.2862	1.5089	2.1132	1.6743	3.2458	1.2781	5.2055	6.8806	6.541	2.1176	1.6487
199.2188	2.5017	-0.1097	3.0026	0.5969	0.201	1.218	4.4132	2.2906	3.3984	4.8649	6.4996	5.5149	3.1943	1.5291	1.1341	0.8358	1.6615	1.584	1.9222	1.5993	1.7943	2.4001	1.9054	3.6315	1.5033	5.4531	7.1322	6.9218	1.9348	1.5715
203.125	2.2893	0.2586	3.0684	0.9447	0.5836	1.4651	4.9496	2.4604	3.5873	5.4607	6.8362	5.8459	3.5745	1.8192	0.9208	0.9733	1.7955	1.6291	2.0867	1.7479	1.9369	2.5431	1.9959	3.9071	1.659	5.6512	7.2922	7.2098	1.6331	1.3901
207.0312	1.8997	0.4861	2.9327	1.1343	0.8262	1.5946	5.337	2.5688	3.7186	5.9129	7.0643	6.0818	3.8551	1.9976	0.7126	0.9396	1.743	1.5713	2.0976	1.714	1.9246	2.5297	1.9333	4.0545	1.7444	5.7978	7.3543	7.3823	1.2255	1.1125
210.9375	1.3824	0.5656	2.6134	1.1642	0.9302	1.6013	5.5718	2.6278	3.7968	6.1991	7.1783	6.2065	4.0303	2.0603	0.4973	0.7456	1.5297	1.4089	1.9696	1.5124	1.7737	2.3745	1.7338	4.0754	1.7641	5.8938	7.3201	7.4303	0.7475	0.7631
214.8438	0.8053	0.5209	2.1607	1.0612	0.9231	1.5062	5.6703	2.6572	3.8337	6.3177	7.1874	6.2197	4.1137	2.0244	0.2581	0.43	1.2128	1.1576	1.7442	1.1861	1.5253	2.116	1.438	3.9907	1.7268	5.9426	7.2005	7.3597	0.2484	0.3765
218.75	0.2416	0.3976	1.6438	0.8723	0.8499	1.3499	5.6649	2.6802	3.8466	6.2887	7.1143	6.1361	4.1337	1.9233	-0.0169	0.0489	0.8635	0.8474	1.4783	0.7963	1.2347	1.8072	1.1009	3.8359	1.6442	5.9491	7.0161	7.1897	-0.2198	-0.0106
222.6562	-0.2436	0.2487	1.1341	0.6526	0.7605	1.1831	5.597	2.7192	3.8553	6.1496	6.9906	5.9813	4.1259	1.7993	-0.3267	-0.3372	0.5478	0.5149	1.2291	0.4085	0.9598	1.5025	0.7778	3.6534	1.5293	5.918	6.7942	6.9489	-0.6132	-0.3676
226.5625	-0.6045	0.1189	0.6908	0.4533	0.6979	1.0548	5.5096	2.7911	3.8787	5.9495	6.8515	5.7873	4.1253	1.6944	-0.6531	-0.6782	0.3092	0.195	1.0402	0.0785	0.7492	1.2459	0.5114	3.4829	1.3938	5.8524	6.5637	6.6686	-0.9029	-0.6744
230.4688	-0.8195	0.0321	0.3509	0.3108	0.6898	1.0034	5.4404	2.9053	3.9318	5.7414	6.7297	5.5861	4.1601	1.643	-0.9609	-0.9432	0.1588	-0.0874	0.9327	-0.1573	0.6344	1.0631	0.324	3.3549	1.2458	5.7542	6.3504	6.3788	-1.0781	-0.9229
234.375	-0.8902	-0.0125	0.1275	0.2424	0.7453	1.0515	5.418	3.0633	4.0245	5.5746	6.6517	5.4065	4.2483	1.6679	-1.2053	-1.1244	0.0768	-0.3208	0.9036	-0.2855	0.6273	0.9604	0.2164	3.2878	1.09	5.6259	6.1731	6.105	-1.1444	-1.115
238.2812	-0.8367	-0.0354	0.0147	0.2458	0.857	1.2041	5.4596	3.2609	4.1622	5.4879	6.6354	5.2704	4.398	1.7791	-1.3463	-1.2331	0.0225	-0.506	0.9308	-0.3133	0.723	0.929	0.1723	3.2887	0.9282	5.4728	6.042	5.8663	-1.1204	-1.2601
242.1875	-0.6935	-0.0643	-0.0045	0.3046	1.0067	1.4511	5.5711	3.49	4.3459	5.5044	6.6886	5.1918	4.6085	1.9754	-1.3644	-1.2913	-0.0489	-0.6507	0.9829	-0.2612	0.9048	0.9515	0.167	3.3565	0.7617	5.3046	5.9593	5.6755	-1.0325	-1.372
246.0938	-0.5051	-0.1199	0.0494	0.3957	1.1726	1.7706	5.7483	3.7405	4.572	5.6286	6.8089	5.175	4.8731	2.2463	-1.2727	-1.3215	-0.1686	-0.7624	1.031	-0.1544	1.1507	1.0108	0.1759	3.4854	0.5926	5.135	5.9214	5.539	-0.9112	-1.4665
250	-0.3212	-0.2049	0.1563	0.4982	1.3364	2.1335	5.9792	4.0003	4.8317	5.8469	6.984	5.2156	5.1808	2.5764	-1.1193	-1.3383	-0.3419	-0.8437	1.0589	-0.0143	1.4391	1.0961	0.1825	3.668	0.4256	4.9802	5.9222	5.458	-0.7874	-1.56
253.9062	-0.1889	-0.2999	0.2979	0.5993	1.488	2.5085	6.2473	4.256	5.1113	6.1313	7.194	5.3018	5.5186	2.9484	-0.979	-1.3436	-0.5432	-0.8911	1.0693	0.147	1.7532	1.2063	0.1832	3.8972	0.2692	4.8572	5.9573	5.4292	-0.6889	-1.6676
257.8125	-0.1428	-0.3688	0.4559	0.6968	1.6264	2.8659	6.5348	4.4929	5.3932	6.4455	7.4149	5.4179	5.8732	3.3457	-0.9353	-1.3272	-0.7224	-0.9001	1.0832	0.3279	2.0822	1.3496	0.1871	4.1663	0.1354	4.7799	6.0245	5.4466	-0.6382	-1.8017
261.7188	-0.1973	-0.3712	0.611	0.7966	1.758	3.1794	6.8244	4.6968	5.657	6.7515	7.6223	5.5475	6.2311	3.7537	-1.056	-1.2729	-0.8209	-0.8728	1.1326	0.5337	2.42	1.5382	0.2121	4.4686	0.0382	4.7569	6.1238	5.5019	-0.6517	-1.9712
265.625	-0.3439	-0.2779	0.7419	0.9066	1.8901	3.4281	7.1021	4.8544	5.8824	7.0156	7.7951	5.6762	6.5788	4.158	-1.3696	-1.1672	-0.792	-0.8238	1.248	0.7702	2.7616	1.7814	0.277	4.7949	-0.0095	4.7886	6.2535	5.585	-0.7397	-2.1819
269.5312	-0.5554	-0.0839	0.8278	1.0301	2.0263	3.5965	7.3565	4.9561	6.0519	7.2135	7.9185	5.7944	6.9022	4.5437	-1.8521	-1.0082	-0.6185	-0.78	1.4462	1.0364	3.0982	2.0783	0.3932	5.1321	0.0008	4.8668	6.4071	5.6849	-0.9077	-2.4359
273.4375	-0.7951	0.1877	0.8518	1.1624	2.1624	3.6767	7.5799	4.9976	6.1538	7.3333	7.9867	5.8979	7.1874	4.8945	-2.4275	-0.8096	-0.322	-0.7719	1.7216	1.3207	3.4163	2.4142	0.5593	5.4636	0.071	4.9764	6.5718	5.791	-1.1564	-2.7322
277.3438	-1.0276	0.4901	0.8059	1.2916	2.2873	3.6684	7.7682	4.9818	6.1857	7.3766	8.003	5.9879	7.4224	5.1946	-2.9864	-0.5985	0.041	-0.8226	2.0464	1.6016	3.6985	2.7621	0.7606	5.7714	0.1956	5.0987	6.7307	5.8948	-1.48	-3.0655
281.25	-1.2286	0.7669	0.6937	1.4031	2.3866	3.5806	7.9212	4.9198	6.1547	7.3576	7.9796	6.0695	7.5997	5.4316	-3.4144	-0.4083	0.3941	-0.9371	2.3775	1.8534	3.9277	3.0886	0.9725	6.0394	0.3629	5.2154	6.8664	5.9915	-1.8647	-3.4242
285.1562	-1.3898	0.9681	0.5302	1.4856	2.4482	3.4302	8.0427	4.83	6.0775	7.2997	7.9335	6.1479	7.7176	5.5995	-3.624	-0.2687	0.6624	-1.099	2.6688	2.0531	4.093	3.3619	1.1663	6.2565	0.5566	5.3113	6.9671	6.0784	-2.2875	-3.7908
289.0625	-1.5187	1.0648	0.3378	1.5364	2.4684	3.2412	8.1403	4.7353	5.9759	7.23	7.8821	6.2259	7.7809	5.7003	-3.5796	-0.1978	0.7922	-1.2748	2.8836	2.1868	4.1924	3.5584	1.316	6.4175	0.7584	5.3754	7.0294	6.1537	-2.7187	-4.1433
292.9688	-1.6337	1.0572	0.1408	1.5627	2.4543	3.0417	8.2241	4.6581	5.8729	7.1741	7.8383	6.3012	7.7995	5.7432	-3.3098	-0.1972	0.7634	-1.4252	3.0031	2.2536	4.2343	3.6678	1.403	6.5232	0.9502	5.4008	7.0603	6.2136	-3.1261	-4.46
296.875	-1.756	0.9741	-0.039	1.5811	2.425	2.8618	8.3048	4.6152	5.7873	7.1499	7.8081	6.3662	7.7869	5.7431	-2.9036	-0.2519	0.5926	-1.519	3.0305	2.2658	4.2352	3.6942	1.4198	6.5793	1.1162	5.384	7.0737	6.2511	-3.4819	-4.7259
300.7812	-1.9014	0.8659	-0.1834	1.6137	2.4078	2.7315	8.3915	4.6143	5.7315	7.1656	7.7902	6.4109	7.7571	5.7168	-2.4909	-0.3342	0.3266	-1.544	2.9876	2.2457	4.2163	3.6544	1.3707	6.5941	1.2445	5.3256	7.0851	6.2565	-3.7675	-4.9376
304.6875	-2.0759	0.7912	-0.2763	1.684	2.433	2.6776	8.4897	4.6523	5.7101	7.2197	7.7785	6.4259	7.7227	5.6808	-2.2118	-0.4103	0.0295	-1.5111	2.908	2.2214	4.1991	3.5737	1.2707	6.5769	1.3283	5.2294	7.1043	6.2202	-3.9769	-5.1064
308.5938	-2.2733	0.8027	-0.3034	1.8116	2.5266	2.7195	8.599	4.7174	5.7219	7.3036	7.7657	6.4065	7.694	5.6489	-2.1815	-0.4476	-0.233	-1.4493	2.8277	2.2203	4.2022	3.4803	1.1424	6.5375	1.3654	5.1029	7.1315	6.1359	-4.1173	-5.2554
312.5	-2.4773	0.9337	-0.254	2.0075	2.7041	2.8639	8.7125	4.7938	5.7621	7.4057	7.7458	6.3543	7.6787	5.6317	-2.4584	-0.4215	-0.409	-1.3936	2.7773	2.2647	4.2386	3.4006	1.0114	6.4851	1.3587	4.9567	7.1563	6.0042	-4.2076	-5.4122
316.4062	-2.6629	1.1898	-0.1248	2.2714	2.9665	3.1017	8.818	4.8662	5.8245	7.5143	7.7148	6.276	7.6829	5.6367	-3.0255	-0.321	-0.4714	-1.3725	2.7754	2.3672	4.3155	3.356	0.9027	6.4294	1.3156	4.803	7.1624	5.8332	-4.2737	-5.5996
320.3125	-2.8002	1.5464	0.0755	2.5909	3.3008	3.4085	8.9011	4.9248	5.9024	7.62	7.67	6.1809	7.7122	5.6695	-3.7908	-0.1498	-0.4228	-1.3997	2.828	2.5301	4.435	3.3611	0.8365	6.3806	1.2474	4.6537	7.1345	5.6372	-4.3422	-5.8285
324.2188	-2.8585	1.9542	0.3248	2.9437	3.6831	3.7499	8.9499	4.9672	5.9898	7.7156	7.6085	6.0768	7.7714	5.7351	-4.609	0.075	-0.2926	-1.471	2.93	2.7469	4.5959	3.4239	0.8261	6.3498	1.1685	4.5183	7.0646	5.4337	-4.4333	-6.0946
328.125	-2.8127	2.3507	0.5908	3.303	4.0856	4.0911	8.9596	4.9988	6.0805	7.7964	7.5262	5.9678	7.8643	5.8391	-5.3168	0.3286	-0.1256	-1.5682	3.0699	3.0051	4.7961	3.5474	0.8773	6.3485	1.0951	4.4023	6.9564	5.24	-4.5537	-6.38
332.0312	-2.6498	2.6754	0.8366	3.6431	4.482	4.4045	8.935	5.0307	6.168	7.8596	7.4187	5.8542	7.9917	5.9876	-5.7734	0.586	0.0326	-1.6641	3.2356	3.2909	5.0333	3.7301	0.9885	6.387	1.044	4.3075	6.826	5.0707	-4.6941	-6.6594
335.9375	-2.3736	2.8851	1.029	3.9449	4.8519	4.6749	8.8897	5.0761	6.2452	7.9031	7.2825	5.7339	8.1495	6.185	-5.8948	0.8283	0.1491	-1.73	3.4171	3.5919	5.3048	3.9663	1.1518	6.4723	1.03	4.2323	6.6973	4.9356	-4.8319	-6.9074
339.8438	-2.0069	2.9644	1.1452	4.1985	5.1815	4.899	8.8415	5.1453	6.3029	7.9248	7.1155	5.6033	8.3273	6.4308	-5.6721	1.0465	0.2123	-1.7432	3.6076	3.8981	5.6052	4.2458	1.3535	6.6053	1.0625	4.1716	6.5945	4.8383	-4.9393	-7.1051
343.75	-1.59	2.9291	1.1768	4.4039	5.4629	5.0818	8.8063	5.2419	6.3303	7.9204	6.9182	5.4593	8.5079	6.7167	-5.169	1.2421	0.232	-1.6938	3.8026	4.2016	5.9247	4.553	1.5754	6.7781	1.1422	4.1181	6.5338	4.7761	-4.9938	-7.2437
347.6562	-1.176	2.8216	1.1317	4.5695	5.6922	5.2315	8.7934	5.3602	6.3149	7.8839	6.6937	5.301	8.6705	7.0255	-4.4997	1.4239	0.2334	-1.5879	3.9976	4.4956	6.2484	4.8683	1.7973	6.9752	1.2608	4.0633	6.5181	4.7412	-4.9862	-7.3247
351.5625	-0.8227	2.6998	1.0311	4.7091	5.8681	5.3563	8.8034	5.4862	6.2457	7.8074	6.4483	5.1303	8.7947	7.3332	-3.7956	1.6036	0.2471	-1.447	4.1864	4.7731	6.5573	5.1706	1.9998	7.1759	1.4018	3.9995	6.5359	4.7229	-4.9238	-7.356
355.4688	-0.5842	2.6213	0.9055	4.8381	5.9919	5.4624	8.8294	5.6004	6.1153	7.6845	6.1922	4.9537	8.8656	7.6132	-3.1716	1.7908	0.2992	-1.3006	4.3613	5.0259	6.8304	5.4408	2.1681	7.3586	1.5451	3.9229	6.5648	4.7116	-4.8278	-7.3471
359.375	-0.4996	2.6285	0.7869	4.9694	6.0668	5.5535	8.861	5.6834	5.9237	7.5139	5.9399	4.7827	8.8785	7.8414	-2.7032	1.9889	0.4043	-1.177	4.5143	5.2447	7.0496	5.6644	2.2948	7.5059	1.6721	3.8356	6.5788	4.7006	-4.725	-7.3039
363.2812	-0.5847	2.7387	0.7015	5.1101	6.0988	5.6318	8.8882	5.7206	5.6793	7.3016	5.7091	4.6332	8.8412	8.0021	-2.4179	2.1941	0.5636	-1.0928	4.6392	5.4206	7.2026	5.835	2.3823	7.6084	1.77	3.7462	6.5566	4.6886	-4.6377	-7.2265
367.1875	-0.8265	2.9405	0.6643	5.2599	6.0971	5.6987	8.905	5.7054	5.3993	7.0633	5.5185	4.5226	8.7733	8.0907	-2.302	2.3963	0.7671	-1.0472	4.734	5.5464	7.2862	5.9547	2.4421	7.6669	1.8345	3.6689	6.4886	4.6789	-4.576	-7.1099
371.0938	-1.1838	3.1985	0.675	5.4119	6.0729	5.7555	8.9097	5.6394	5.1064	6.822	5.3835	4.4665	8.7024	8.1146	-2.316	2.5819	0.9973	-1.0226	4.801	5.619	7.3066	6.0326	2.492	7.6918	1.8696	3.6203	6.3805	4.6776	-4.5358	-6.9477
375	-1.5941	3.4625	0.7188	5.5539	6.0374	5.802	8.9046	5.5307	4.8253	6.6044	5.312	4.474	8.6576	8.0904	-2.411	2.7366	1.2334	-0.9913	4.8449	5.6395	7.278	6.0818	2.5504	7.6996	1.8853	3.6158	6.2535	4.6912	-4.5035	-6.7375
378.9062	-1.9854	3.6799	0.7705	5.6705	5.9982	5.8357	8.8928	5.3905	4.5779	6.4356	5.3012	4.5448	8.6633	8.0394	-2.5426	2.8482	1.4544	-0.9248	4.8711	5.6139	7.2182	6.1153	2.631	7.7086	1.8953	3.6652	6.139	4.724	-4.464	-6.4852
382.8125	-2.2897	3.8069	0.8022	5.7457	5.9573	5.85	8.8765	5.2304	4.3786	6.3336	5.3368	4.6683	8.7331	7.9823	-2.6775	2.9093	1.6416	-0.8048	4.8833	5.5517	7.1451	6.1429	2.7378	7.7341	1.9138	3.7707	6.0706	4.7775	-4.408	-6.2064
386.7188	-2.4563	3.8164	0.7917	5.7652	5.9103	5.8353	8.8549	5.06	4.2321	6.3048	5.3949	4.8254	8.8672	7.935	-2.7951	2.9179	1.7793	-0.6295	4.8838	5.4641	7.0729	6.1695	2.8649	7.7851	1.9536	3.9253	6.0747	4.8495	-4.3345	-5.9238
390.625	-2.4621	3.702	0.729	5.7187	5.8479	5.7807	8.8248	4.886	4.1326	6.343	5.4465	4.9917	9.0526	7.9058	-2.8845	2.8779	1.8564	-0.4157	4.873	5.3627	7.0097	6.1951	2.998	7.8621	2.0237	4.114	6.1621	4.9356	-4.2496	-5.6618
394.5312	-2.3161	3.4772	0.6192	5.6025	5.76	5.6786	8.7816	4.7119	4.0653	6.43	5.4627	5.1418	9.2658	7.8948	-2.9404	2.7982	1.8669	-0.1946	4.8505	5.2571	6.9572	6.2158	3.1189	7.9578	2.1273	4.3157	6.3241	5.0288	-4.162	-5.4393
398.4375	-2.0572	3.1719	0.4812	5.4218	5.639	5.5285	8.721	4.5391	4.01	6.5401	5.42	5.2534	9.4769	7.8948	-2.9585	2.6907	1.8107	-0.0034	4.8154	5.1541	6.9112	6.2253	3.2096	8.0579	2.2606	4.5061	6.5334	5.1203	-4.0796	-5.2646
402.3438	-1.7451	2.8257	0.3411	5.1907	5.4823	5.3385	8.6403	4.3671	3.9454	6.6451	5.3052	5.31	9.6547	7.8924	-2.9333	2.5682	1.6928	0.1242	4.7657	5.0558	6.8629	6.2156	3.2551	8.1437	2.4134	4.6606	6.7485	5.1985	-4.0061	-5.1341
406.25	-1.445	2.4799	0.2247	4.9298	5.2926	5.1243	8.5393	4.1951	3.854	6.719	5.117	5.3024	9.7705	7.871	-2.8581	2.441	1.5217	0.1653	4.6981	4.9595	6.7999	6.1776	3.2454	8.1945	2.5696	4.7574	6.922	5.2497	-3.9409	-5.0359
410.1562	-1.209	2.1685	0.1494	4.6613	5.0767	4.9047	8.4187	4.0232	3.7261	6.7427	4.8671	5.2293	9.8015	7.8122	-2.7288	2.3141	1.3062	0.111	4.6067	4.8576	6.709	6.1014	3.1761	8.1902	2.7101	4.78	7.0091	5.259	-3.8802	-4.956
414.0625	-1.0608	1.9116	0.1205	4.4026	4.8426	4.6967	8.2797	3.8528	3.562	6.7058	4.5778	5.0971	9.7339	7.6998	-2.5495	2.1857	1.0538	-0.0336	4.4842	4.7387	6.5779	5.9779	3.0475	8.1146	2.8151	4.7195	6.9769	5.2129	-3.8192	-4.8855
417.9688	-0.9897	1.7123	0.1319	4.1626	4.5981	4.5119	8.1229	3.6874	3.3725	6.6071	4.279	4.9187	9.5647	7.5226	-2.3359	2.0482	0.7703	-0.2529	4.3239	4.5907	6.3982	5.8004	2.8645	7.9585	2.8675	4.5767	6.8116	5.1029	-3.7549	-4.8243
421.875	-0.9595	1.5593	0.1708	3.9402	4.3497	4.356	7.9489	3.5322	3.1766	6.4537	4.0027	4.7119	9.3032	7.2782	-2.1166	1.8923	0.4633	-0.5257	4.1227	4.4043	6.1681	5.5673	2.6365	7.7227	2.8559	4.3626	6.5234	4.9279	-3.6879	-4.7809
425.7812	-0.9282	1.4329	0.2244	3.7271	4.1027	4.2303	7.7591	3.3928	2.9971	6.2593	3.7782	4.497	8.9707	6.9743	-1.929	1.7104	0.1457	-0.8301	3.8836	4.1759	5.8934	5.2841	2.3772	7.419	2.7776	4.0984	6.1457	4.6963	-3.6224	-4.7692
429.6875	-0.871	1.313	0.2849	3.5119	3.862	4.1349	7.5572	3.2742	2.8556	6.0418	3.6252	4.2929	8.5969	6.6286	-1.8144	1.5002	-0.1622	-1.1468	3.6161	3.9088	5.5867	4.9628	2.103	7.0688	2.6406	3.8122	5.7289	4.4248	-3.566	-4.804
433.5938	-0.7967	1.1856	0.3504	3.2847	3.6314	4.0691	7.3492	3.1798	2.7667	5.8203	3.5504	4.1136	8.2144	6.2648	-1.8108	1.2654	-0.4341	-1.461	3.3333	3.6118	5.2643	4.6201	1.8303	6.6994	2.4628	3.5343	5.3289	4.1354	-3.5274	-4.897
437.5	-0.7493	1.0467	0.4234	3.0397	3.4135	4.0316	7.1431	3.1108	2.7353	5.6125	3.545	3.9654	7.8521	5.9077	-1.9461	1.0141	-0.6445	-1.7627	3.0478	3.2962	4.9423	4.2734	1.5727	6.339	2.2684	3.2913	4.9947	3.8511	-3.514	-5.053
441.4062	-0.7947	0.9014	0.5063	2.7765	3.2085	4.0192	6.9473	3.0658	2.7552	5.4314	3.5867	3.8467	7.5292	5.5783	-2.2319	0.7557	-0.7768	-2.046	2.7676	2.972	4.633	3.9368	1.3383	6.0116	2.0832	3.1006	4.7578	3.5911	-3.5289	-5.2681
445.3125	-0.9951	0.7607	0.5986	2.4996	3.015	4.026	6.7703	3.0414	2.8112	5.284	3.6444	3.7488	7.2522	5.2902	-2.6591	0.4997	-0.8295	-2.3067	2.4942	2.6469	4.3433	3.6195	1.1295	5.7342	1.9294	2.9684	4.6277	3.3689	-3.5682	-5.5278
449.2188	-1.3803	0.6369	0.6955	2.2171	2.8308	4.0434	6.62	3.0332	2.8825	5.17	3.6855	3.6602	7.0165	5.049	-3.1959	0.2539	-0.8177	-2.541	2.2249	2.3262	4.076	3.3264	0.9456	5.5155	1.8223	2.8899	4.5933	3.1907	-3.6204	-5.8068
453.125	-1.9268	0.5397	0.7896	1.9395	2.6556	4.0617	6.5048	3.0367	2.9484	5.0836	3.6834	3.5711	6.8107	4.8544	-3.7884	0.026	-0.7689	-2.7436	1.9571	2.0149	3.8321	3.0609	0.7863	5.3572	1.7701	2.8522	4.6301	3.0575	-3.6674	-6.0707
457.0312	-2.5542	0.4745	0.8748	1.6786	2.4931	4.0734	6.4334	3.049	2.9933	5.016	3.6238	3.4774	6.6239	4.7042	-4.3646	-0.1759	-0.7149	-2.907	1.6938	1.7206	3.6146	2.8281	0.6549	5.2566	1.7739	2.8397	4.7087	2.9667	-3.6866	-6.2792
460.9375	-3.1404	0.442	0.9493	1.4461	2.3523	4.0748	6.4149	3.0688	3.0091	4.9583	3.5081	3.3831	6.4512	4.597	-4.8424	-0.3426	-0.6844	-3.0213	1.4458	1.4545	3.4296	2.6364	0.5593	5.2086	1.8296	2.838	4.8024	2.9146	-3.6552	-6.3912
464.8438	-3.553	0.4393	1.0192	1.2532	2.2463	4.0686	6.4564	3.0961	2.9966	4.9036	3.3526	3.299	6.2967	4.5339	-5.1418	-0.4637	-0.6967	-3.0749	1.2316	1.2307	3.2868	2.4972	0.5102	5.2071	1.9284	2.8365	4.8909	2.897	-3.5541	-6.372
468.75	-3.684	0.4626	1.0976	1.1097	2.1907	4.0639	6.5604	3.1316	2.9629	4.8489	3.184	3.24	6.1732	4.5185	-5.1992	-0.5295	-0.7575	-3.0546	1.0733	1.0634	3.1974	2.4221	0.5176	5.246	2.0571	2.8293	4.9623	2.9102	-3.3711	-6.1998
472.6562	-3.4775	0.5088	1.2024	1.0247	2.1999	4.0757	6.7228	3.1754	2.9183	4.7954	3.0324	3.2204	6.0987	4.5542	-4.9806	-0.5316	-0.8578	-2.9474	0.9917	0.9646	3.1721	2.4199	0.5877	5.3186	2.1991	2.8145	5.0124	2.9497	-3.103	-5.8698
476.5625	-2.9442	0.5773	1.3513	1.0053	2.2838	4.1227	6.9319	3.2261	2.8724	4.7485	2.9245	3.2491	6.0906	4.6418	-4.492	-0.465	-0.9747	-2.7441	1.001	0.9405	3.2173	2.4939	0.72	5.417	2.3353	2.7918	5.0431	3.0106	-2.7569	-5.396
480.4688	-2.1585	0.6692	1.5556	1.0544	2.4447	4.2216	7.1684	3.2803	2.8316	4.7162	2.8771	3.3268	6.1605	4.7771	-3.7832	-0.3306	-1.0763	-2.4452	1.1043	0.9895	3.3326	2.6387	0.9062	5.5318	2.4464	2.7612	5.06	3.0867	-2.3501	-4.8102
484.375	-1.2424	0.7853	1.8137	1.1679	2.6738	4.3813	7.4079	3.3325	2.7974	4.7067	2.8935	3.4447	6.3084	4.948	-2.9413	-0.1381	-1.1305	-2.0669	1.291	1.0997	3.5077	2.8394	1.1295	5.6514	2.515	2.7213	5.0702	3.1703	-1.9111	-4.1589
488.2812	-0.3395	0.9227	2.1086	1.3314	2.9495	4.5955	7.6233	3.3762	2.767	4.725	2.9636	3.5856	6.5207	5.1347	-2.0769	0.0918	-1.1155	-1.6445	1.5373	1.248	3.7216	3.0712	1.3658	5.7615	2.5287	2.668	5.0794	3.2522	-1.4783	-3.4986
492.1875	0.4138	1.0723	2.4087	1.5191	3.2377	4.8397	7.7884	3.4045	2.7346	4.7697	3.0664	3.7267	6.7699	5.3103	-1.3028	0.3272	-1.0293	-1.2308	1.8084	1.4019	3.9428	3.3016	1.5853	5.8455	2.4809	2.5951	5.09	3.3211	-1.0969	-2.8897
496.0938	0.9133	1.2171	2.6732	1.696	3.4952	5.0724	7.8808	3.4114	2.6935	4.8302	3.1763	3.8434	7.0177	5.4437	-0.7144	0.5273	-0.8937	-0.8876	2.0636	1.5222	4.1327	3.4939	1.7562	5.8854	2.3712	2.4941	5.0987	3.3637	-0.8136	-2.3886
500	1.1045	1.3322	2.8585	1.8216	3.6748	5.2411	7.8837	3.3924	2.6379	4.8859	3.2676	3.9137	7.2203	5.5035	-0.3741	0.6483	-0.7516	-0.673	2.2619	1.5688	4.2508	3.6128	1.8493	5.8631	2.2043	2.3561	5.0952	3.3656	-0.668	-2.0413
503.9062	0.9879	1.3861	2.9252	1.8562	3.7327	5.2914	7.7872	3.3444	2.5637	4.9079	3.3201	3.9213	7.3358	5.4632	-0.3055	0.6502	-0.6588	-0.6285	2.368	1.5068	4.2615	3.6302	1.8433	5.7639	1.9888	2.1742	5.063	3.3133	-0.6852	-1.876
507.8125	0.6126	1.3444	2.8436	1.7671	3.6363	5.1781	7.5887	3.2659	2.469	4.8651	3.3216	3.8587	7.3316	5.3057	-0.4941	0.5053	-0.6697	-0.7674	2.3586	1.3129	4.141	3.5311	1.7299	5.58	1.736	1.9464	4.9839	3.1978	-0.8705	-1.8996
511.7188	0.0612	1.1758	2.599	1.5349	3.3712	4.8762	7.2931	3.1561	2.3531	4.7306	3.269	3.7278	7.1911	5.0285	-0.894	0.2045	-0.8239	-1.0695	2.2266	0.9814	3.8834	3.3184	1.517	5.3142	1.4602	1.6781	4.8446	3.0177	-1.2079	-2.095
515.625	-0.5714	0.8606	2.1966	1.1592	2.9456	4.3884	6.9136	3.015	2.2158	4.4897	3.167	3.5396	6.9185	4.6464	-1.4362	-0.2389	-1.1332	-1.4819	1.9845	0.5277	3.5046	3.0141	1.2293	4.9821	1.1793	1.3842	4.6428	2.7823	-1.6624	-2.4219
519.5312	-1.1968	0.3993	1.6641	0.662	2.3918	3.7482	6.4716	2.8432	2.0572	4.1445	3.0254	3.3124	6.5395	4.1918	-2.0388	-0.7883	-1.5763	-1.9284	1.6642	-0.0118	3.0421	2.6579	0.9051	4.6125	0.9146	1.0878	4.3908	2.5113	-2.185	-2.8216
523.4375	-1.7467	-0.1813	1.0507	0.0875	1.7633	3.0169	5.9957	2.6424	1.8771	3.7148	2.856	3.0682	6.0973	3.7114	-2.6179	-1.3885	-2.1006	-2.3243	1.3126	-0.583	2.5494	2.3006	0.5902	4.2438	0.6901	0.8174	4.1136	2.2315	-2.7197	-3.2238
527.3438	-2.1788	-0.8275	0.421	-0.5039	1.1257	2.2723	5.5175	2.4156	1.6752	3.2336	2.669	2.8278	5.6446	3.2577	-3.0985	-1.9741	-2.6328	-2.5958	0.9835	-1.1234	2.0867	1.9948	0.3291	3.9171	0.528	0.6016	3.8422	1.9716	-3.2109	-3.5588
531.25	-2.4763	-1.4667	-0.156	-1.0461	0.5449	1.5935	5.066	2.1667	1.4509	2.7401	2.4704	2.607	5.2319	2.8785	-3.4251	-2.4817	-3.0956	-2.6969	0.7264	-1.5738	1.7083	1.7839	0.1556	3.6681	0.4443	0.4624	3.6044	1.7543	-3.613	-3.7701
535.1562	-2.643	-2.0201	-0.6196	-1.4804	0.0751	1.0452	4.6623	1.9012	1.2044	2.2711	2.2619	2.4131	4.8972	2.6069	-3.5686	-2.8602	-3.4237	-2.6194	0.5774	-1.8893	1.4518	1.693	0.0867	3.5191	0.443	0.4096	3.4179	1.5917	-3.8957	-3.8262
539.0625	-2.6958	-2.4175	-0.9276	-1.7659	-0.2505	0.6662	4.3161	1.6274	0.9384	1.8549	2.0429	2.2452	4.6588	2.4547	-3.5295	-3.0793	-3.5758	-2.3925	0.5536	-2.047	1.3311	1.7258	0.1209	3.4752	0.5139	0.4386	3.2866	1.4824	-4.0476	-3.7259
542.9688	-2.6592	-2.6089	-1.0604	-1.8854	-0.4231	0.4657	4.0263	1.3577	0.6611	1.5087	1.8145	2.0968	4.5138	2.4134	-3.3363	-3.1314	-3.5379	-2.0716	0.6533	-2.0474	1.3376	1.8664	0.242	3.5252	0.634	0.5318	3.2031	1.4147	-4.0729	-3.496
546.875	-2.5609	-2.5706	-1.0197	-1.844	-0.455	0.4268	3.7849	1.1091	0.387	1.2398	1.5827	1.9605	4.4426	2.4587	-3.0383	-3.0289	-3.3208	-1.7204	0.861	-1.9108	1.4444	2.0866	0.4259	3.6458	0.7737	0.6638	3.152	1.3705	-3.9856	-3.1815
550.7812	-2.4275	-2.3066	-0.8233	-1.6645	-0.3739	0.5142	3.5815	0.9012	0.1361	1.0479	1.359	1.8312	4.4151	2.5582	-2.6935	-2.7984	-2.9521	-1.392	1.1535	-1.6701	1.6156	2.3529	0.6475	3.8076	0.9032	0.8068	3.1145	1.3319	-3.8038	-2.8327
554.6875	-2.2817	-1.8457	-0.4988	-1.3805	-0.214	0.6844	3.4069	0.7527	-0.0699	0.9283	1.1585	1.7087	4.3991	2.6788	-2.3544	-2.4741	-2.4702	-1.1154	1.5042	-1.3642	1.8131	2.6333	0.884	3.9803	0.9998	0.9356	3.0695	1.2845	-3.5462	-2.4922
558.5938	-2.1378	-1.2364	-0.0793	-1.03	-0.0097	0.8944	3.254	0.6758	-0.2138	0.8729	0.9951	1.5957	4.3661	2.7917	-2.0554	-2.093	-1.9184	-0.89	1.8857	-1.0317	2.0039	2.8997	1.1156	4.1356	1.0502	1.0302	2.9951	1.2199	-3.2309	-2.1864
562.5	-1.9975	-0.5404	0.4001	-0.6505	0.2095	1.1086	3.1188	0.6722	-0.2881	0.8711	0.8771	1.496	4.2959	2.875	-1.805	-1.6907	-1.3434	-0.6903	2.2699	-0.7067	2.1631	3.1297	1.3245	4.2498	1.0512	1.0761	2.8702	1.1343	-2.8759	-1.9224
566.4062	-1.8482	0.175	0.9066	-0.2748	0.422	1.3032	2.9986	0.7319	-0.2984	0.9091	0.8035	1.4108	4.1787	2.9158	-1.5868	-1.2985	-0.7921	-0.477	2.6285	-0.4161	2.2765	3.3064	1.4942	4.3046	1.0065	1.0635	2.6763	1.0261	-2.4975	-1.6892
570.3125	-1.6644	0.8459	1.4122	0.0718	0.6145	1.4684	2.8921	0.8346	-0.2634	0.97	0.7632	1.3361	4.0144	2.9089	-1.3683	-0.9406	-0.308	-0.2115	2.9353	-0.1772	2.3401	3.4193	1.6115	4.2886	0.9233	0.9867	2.4022	0.8937	-2.1085	-1.4634
574.2188	-1.4151	1.4203	1.8964	0.3736	0.7805	1.6056	2.7971	0.9544	-0.2114	1.0348	0.7371	1.2619	3.8102	2.8565	-1.115	-0.6326	0.076	0.1296	3.1697	0.0028	2.3592	3.4656	1.6687	4.1981	0.8091	0.8435	2.0475	0.7327	-1.717	-1.2178
578.125	-1.0761	1.865	2.3455	0.6234	0.9179	1.7227	2.7095	1.0646	-0.1749	1.0822	0.7004	1.1733	3.5765	2.7649	-0.8023	-0.3801	0.3432	0.5442	3.32	0.1263	2.3443	3.4497	1.6659	4.0366	0.6703	0.635	1.6246	0.5364	-1.3275	-0.9307
582.0312	-0.6435	2.1673	2.749	0.8199	1.0254	1.8275	2.6215	1.1415	-0.1851	1.0908	0.6272	1.0528	3.3229	2.6413	-0.4236	-0.1801	0.4957	1.0017	3.3854	0.202	2.3072	3.3822	1.6116	3.8135	0.5118	0.3667	1.1569	0.2964	-0.9458	-0.5936
585.9375	-0.1436	2.3331	3.0953	0.9642	1.0996	1.9216	2.5214	1.1669	-0.267	1.0391	0.494	0.8834	3.0544	2.4905	0.0104	-0.0251	0.5508	1.4484	3.3749	0.2402	2.2555	3.2758	1.5192	3.5404	0.3382	0.0488	0.6738	0.0055	-0.5842	-0.215
589.8438	0.3659	2.3807	3.3698	1.0566	1.1345	1.9974	2.3944	1.1291	-0.4356	0.9087	0.2833	0.6527	2.7701	2.3123	0.4753	0.0929	0.5341	1.8211	3.3033	0.2488	2.1897	3.142	1.404	3.2287	0.1538	-0.304	0.2039	-0.3392	-0.2646	0.1798
593.75	0.8064	2.335	3.5561	1.0961	1.1218	2.0404	2.2269	1.0228	-0.6936	0.6867	-0.0128	0.3559	2.464	2.1019	0.9385	0.1791	0.4713	2.0651	3.1874	0.2305	2.1027	2.9875	1.2784	2.8879	-0.0359	-0.6729	-0.2312	-0.7336	-0.0154	0.5547
597.6562	1.0985	2.2223	3.6412	1.0814	1.0548	2.0327	2.0106	0.8498	-1.0302	0.3703	-0.3893	-0.0008	2.1294	1.8531	1.3629	0.2349	0.3836	2.1494	3.0424	0.1836	1.9828	2.8144	1.151	2.526	-0.225	-1.0363	-0.6206	-1.1643	0.1365	0.8712
601.5625	1.1844	2.0673	3.6211	1.0135	0.9319	1.9588	1.7462	0.6194	-1.4217	-0.03	-0.827	-0.3994	1.7628	1.5619	1.709	0.2593	0.2864	2.0755	2.8805	0.1047	1.8187	2.6221	1.0258	2.1518	-0.4066	-1.3721	-0.9626	-1.6086	0.1753	1.0968
605.4688	1.0463	1.8908	3.5033	0.8959	0.7574	1.8094	1.4449	0.3479	-1.8344	-0.4899	-1.2934	-0.8116	1.3688	1.2307	1.9381	0.2517	0.1904	1.8767	2.7111	-0.0077	1.6045	2.411	0.9046	1.7772	-0.5736	-1.6599	-1.2605	-2.0368	0.1029	1.2116
609.375	0.7131	1.7076	3.3054	0.7343	0.5421	1.5842	1.1265	0.0571	-2.2292	-0.9732	-1.7466	-1.2023	0.9615	0.8703	2.018	0.2127	0.1041	1.6087	2.5407	-0.1519	1.3424	2.185	0.7881	1.4181	-0.7182	-1.8837	-1.5171	-2.4164	-0.0597	1.2106
613.2812	0.2554	1.5249	3.0519	0.5354	0.3	1.2927	0.8155	-0.2283	-2.5677	-1.4366	-2.1418	-1.5352	0.5647	0.4995	1.9319	0.1459	0.0334	1.3358	2.3742	-0.3221	1.044	1.9527	0.6772	1.0935	-0.8332	-2.0345	-1.7297	-2.7173	-0.2769	1.1034
617.1875	-0.2317	1.3431	2.7697	0.306	0.0468	0.9549	0.5369	-0.4831	-2.818	-1.8371	-2.4379	-1.7794	0.2075	0.1427	1.6871	0.0568	-0.0181	1.1159	2.2151	-0.5087	0.7288	1.7273	0.5743	0.8237	-0.9122	-2.1113	-1.8898	-2.9176	-0.5065	0.9116
621.0938	-0.6507	1.1583	2.4851	0.0538	-0.2022	0.6002	0.3119	-0.6854	-2.959	-2.139	-2.6051	-1.9137	-0.0806	-0.1742	1.3187	-0.047	-0.0503	0.9887	2.0668	-0.7001	0.421	1.5237	0.4826	0.6264	-0.9515	-2.1213	-1.9851	-3.0069	-0.7085	0.6661
625	-0.9256	0.966	2.222	-0.2112	-0.4335	0.2634	0.1548	-0.8189	-2.9834	-2.3213	-2.6305	-1.9311	-0.2768	-0.4287	0.8853	-0.1573	-0.0668	0.9685	1.933	-0.8839	0.145	1.3558	0.4054	0.5132	-0.9516	-2.078	-2.0042	-2.9875	-0.8534	0.404
628.9062	-1.0185	0.7631	1.9987	-0.4778	-0.6375	-0.0211	0.0698	-0.8763	-2.899	-2.3824	-2.5211	-1.8398	-0.3709	-0.6074	0.4579	-0.2666	-0.0753	1.0422	1.8172	-1.05	-0.0799	1.2319	0.3442	0.4856	-0.9186	-1.9996	-1.9412	-2.8747	-0.9262	0.1638
632.8125	-0.9372	0.5473	1.8247	-0.7359	-0.8104	-0.2282	0.0498	-0.8623	-2.7278	-2.3411	-2.3047	-1.6631	-0.3699	-0.7103	0.1041	-0.371	-0.0879	1.1747	1.7208	-1.1933	-0.2441	1.1516	0.296	0.5329	-0.8651	-1.906	-1.8	-2.6939	-0.9288	-0.0196
636.7188	-0.7303	0.3149	1.6983	-0.9804	-0.9565	-0.3496	0.0755	-0.7946	-2.5053	-2.234	-2.0268	-1.4359	-0.2984	-0.7514	-0.1265	-0.4721	-0.1209	1.3185	1.6404	-1.3155	-0.351	1.1042	0.2522	0.632	-0.809	-1.8163	-1.5964	-2.4766	-0.8774	-0.122
640.625	-0.4729	0.0593	1.6055	-1.2135	-1.0878	-0.3975	0.118	-0.7023	-2.2757	-2.1073	-1.7437	-1.1992	-0.194	-0.7565	-0.2125	-0.5769	-0.192	1.4263	1.5682	-1.425	-0.4157	1.0712	0.2008	0.7504	-0.7705	-1.7466	-1.3571	-2.2557	-0.7986	-0.1348
644.5312	-0.2458	-0.2273	1.5229	-1.4432	-1.2209	-0.4028	0.1445	-0.621	-2.0862	-2.0068	-1.5118	-0.9927	-0.0992	-0.7561	-0.1639	-0.6955	-0.3155	1.4634	1.4938	-1.5342	-0.4604	1.0316	0.1302	0.8529	-0.7669	-1.708	-1.1158	-2.0596	-0.7229	-0.0684
648.4375	-0.1141	-0.5509	1.4218	-1.6795	-1.3705	-0.4059	0.1259	-0.5852	-1.9786	-1.9662	-1.3772	-0.8474	-0.0498	-0.7764	-0.018	-0.837	-0.4962	1.4156	1.4089	-1.6544	-0.5069	0.9687	0.0345	0.9091	-0.8083	-1.7047	-0.9054	-1.9077	-0.6784	0.0491
652.3438	-0.112	-0.9097	1.2736	-1.9286	-1.5444	-0.4452	0.0449	-0.6201	-1.9804	-2.0001	-1.3659	-0.7796	-0.0658	-0.8323	0.1711	-1.0048	-0.7238	1.2917	1.3119	-1.7918	-0.5695	0.8754	-0.083	0.9001	-0.8938	-1.7347	-0.7518	-1.8086	-0.686	0.1771
656.25	-0.2382	-1.2924	1.056	-2.1886	-1.7395	-0.5466	-0.099	-0.7353	-2.0991	-2.1009	-1.4783	-0.7893	-0.1469	-0.923	0.3458	-1.1949	-0.9735	1.1182	1.2089	-1.9441	-0.6513	0.7564	-0.2105	0.8216	-1.0127	-1.7917	-0.6683	-1.7604	-0.7574	0.271
660.1562	-0.4612	-1.6773	0.7568	-2.4491	-1.9435	-0.7169	-0.2884	-0.9223	-2.3189	-2.243	-1.6899	-0.8613	-0.2737	-1.0338	0.4574	-1.3959	-1.211	0.9308	1.1119	-2.102	-0.7444	0.625	-0.332	0.6832	-1.1477	-1.8682	-0.6562	-1.7548	-0.8946	0.2923
664.0625	-0.7343	-2.037	0.378	-2.6934	-2.139	-0.9439	-0.4922	-1.1556	-2.603	-2.3904	-1.9564	-0.9705	-0.4145	-1.1422	0.4751	-1.5925	-1.4028	0.7625	1.0331	-2.2523	-0.8349	0.4978	-0.4331	0.5035	-1.2813	-1.9588	-0.7082	-1.7818	-1.0911	0.217
667.9688	-1.0114	-2.3433	-0.0638	-2.9035	-2.3102	-1.2013	-0.6735	-1.3985	-2.9007	-2.5066	-2.2236	-1.0881	-0.5357	-1.2259	0.3896	-1.7696	-1.5273	0.6348	0.9795	-2.3823	-0.9091	0.3883	-0.5068	0.3044	-1.4007	-2.0618	-0.8134	-1.8331	-1.3338	0.042
671.875	-1.259	-2.5734	-0.5378	-3.0645	-2.4467	-1.4576	-0.7993	-1.6115	-3.1575	-2.5641	-2.4382	-1.188	-0.6104	-1.2697	0.2116	-1.9161	-1.5815	0.5534	0.9495	-2.4837	-0.9581	0.3031	-0.5547	0.1049	-1.501	-2.1793	-0.961	-1.9043	-1.6042	-0.2145
675.7812	-1.4594	-2.7128	-1.0015	-3.1672	-2.5456	-1.6825	-0.8483	-1.7612	-3.3268	-2.5511	-2.5589	-1.2522	-0.6253	-1.2695	-0.0321	-2.0258	-1.5801	0.5105	0.9336	-2.5542	-0.9806	0.2412	-0.5857	-0.0811	-1.5843	-2.3146	-1.1406	-1.9947	-1.8798	-0.5163
679.6875	-1.6061	-2.7555	-1.4051	-3.2089	-2.6086	-1.8524	-0.816	-1.8276	-3.3803	-2.474	-2.5652	-1.2733	-0.5821	-1.2312	-0.3035	-2.0963	-1.5484	0.4921	0.9194	-2.5958	-0.9811	0.1971	-0.6106	-0.2469	-1.6562	-2.4696	-1.3412	-2.1059	-2.136	-0.8166
683.5938	-1.6946	-2.7018	-1.6977	-3.1908	-2.6379	-1.951	-0.715	-1.8079	-3.3149	-2.3567	-2.4614	-1.2558	-0.4955	-1.1681	-0.5584	-2.1266	-1.5106	0.4868	0.8976	-2.6115	-0.9661	0.165	-0.6369	-0.3911	-1.7217	-2.6425	-1.5503	-2.2396	-2.3479	-1.0663
687.5	-1.7173	-2.5554	-1.8355	-3.1165	-2.6339	-1.9694	-0.5726	-1.7174	-3.154	-2.2372	-2.2762	-1.2148	-0.3894	-1.0959	-0.7507	-2.1143	-1.4795	0.4904	0.8678	-2.6024	-0.9409	0.1425	-0.6653	-0.5164	-1.7818	-2.8272	-1.7538	-2.3975	-2.4924	-1.2217
691.4062	-1.6641	-2.3222	-1.7908	-2.9901	-2.5942	-1.9066	-0.4249	-1.5864	-2.9442	-2.1611	-2.0584	-1.1738	-0.2911	-1.0289	-0.8379	-2.0547	-1.4508	0.5058	0.8396	-2.5658	-0.9073	0.1321	-0.6891	-0.6282	-1.833	-3.0144	-1.9388	-2.5803	-2.5512	-1.2519
695.3125	-1.5292	-2.0103	-1.5599	-2.8163	-2.5173	-1.7701	-0.3111	-1.4542	-2.7458	-2.1738	-1.8678	-1.1611	-0.2266	-0.9778	-0.7882	-1.9428	-1.4051	0.539	0.8306	-2.4963	-0.8637	0.1395	-0.6979	-0.7336	-1.8696	-3.1939	-2.0968	-2.7891	-2.5131	-1.1443
699.2188	-1.3175	-1.633	-1.1661	-2.6022	-2.4061	-1.5775	-0.2661	-1.3622	-2.6214	-2.3113	-1.7643	-1.2053	-0.2162	-0.9495	-0.5872	-1.7768	-1.3175	0.5939	0.8596	-2.3889	-0.8074	0.1704	-0.6818	-0.8406	-1.8885	-3.3583	-2.2274	-3.0244	-2.3764	-0.9087
703.125	-1.047	-1.2112	-0.6579	-2.3593	-2.2707	-1.3559	-0.3142	-1.3453	-2.6222	-2.5913	-1.7959	-1.3289	-0.271	-0.9466	-0.2449	-1.5616	-1.1687	0.6696	0.9395	-2.2423	-0.7373	0.2267	-0.6364	-0.9566	-1.8934	-3.5047	-2.3401	-3.2858	-2.1499	-0.5772
707.0312	-0.7458	-0.7747	-0.1008	-2.1047	-2.1288	-1.1374	-0.4637	-1.4248	-2.7769	-3.0068	-1.9886	-1.5435	-0.3905	-0.9684	0.2024	-1.3121	-0.9559	0.7592	1.0711	-2.0626	-0.6555	0.3035	-0.5656	-1.0865	-1.8956	-3.6351	-2.453	-3.5695	-1.8527	-0.2003
710.9375	-0.4467	-0.3598	0.4358	-1.8599	-2.0028	-0.9542	-0.7045	-1.6036	-3.085	-3.5241	-2.3404	-1.8446	-0.5626	-1.0116	0.6929	-1.0524	-0.6958	0.8506	1.2413	-1.8631	-0.5682	0.3897	-0.4813	-1.2307	-1.9126	-3.7558	-2.5879	-3.8663	-1.5136	0.1604
714.8438	-0.1828	-0.0029	0.8903	-1.6486	-1.9147	-0.8318	-1.01	-1.8652	-3.5152	-4.0877	-2.8202	-2.211	-0.7652	-1.07	1.1466	-0.8126	-0.4212	0.929	1.426	-1.6633	-0.4846	0.4698	-0.4009	-1.3843	-1.9625	-3.8732	-2.7633	-4.1603	-1.1684	0.4439
718.75	0.015	0.2664	1.219	-1.4921	-1.8822	-0.7846	-1.3417	-2.1768	-4.0118	-4.6294	-3.3738	-2.607	-0.9706	-1.1366	1.4776	-0.6226	-0.1719	0.9791	1.5952	-1.485	-0.4155	0.5274	-0.3438	-1.5373	-2.0581	-3.9915	-2.987	-4.43	-0.8565	0.6014
722.6562	0.1221	0.4315	1.4008	-1.4061	-1.915	-0.8147	-1.6577	-2.496	-4.5055	-5.0821	-3.9338	-2.9894	-1.1518	-1.2042	1.6121	-0.5063	0.0147	0.9881	1.7197	-1.3483	-0.3713	0.5486	-0.3277	-1.6767	-2.2012	-4.1093	-3.2527	-4.6518	-0.6157	0.6048
726.5625	0.1256	0.4912	1.4371	-1.3974	-2.0129	-0.9126	-1.9199	-2.7795	-4.9277	-5.3924	-4.4326	-3.3158	-1.2875	-1.2668	1.5063	-0.4769	0.1107	0.9484	1.7763	-1.2684	-0.3594	0.5255	-0.3647	-1.79	-2.3798	-4.2188	-3.5399	-4.8048	-0.4753	0.4518
730.4688	0.0307	0.4582	1.3492	-1.4616	-2.165	-1.0593	-2.1	-2.9912	-5.2226	-5.5301	-4.8142	-3.5521	-1.3648	-1.3197	1.1611	-0.5342	0.1017	0.8594	1.7534	-1.2512	-0.3825	0.4582	-0.4585	-1.8664	-2.5675	-4.3062	-3.819	-4.8751	-0.4494	0.1658
734.375	-0.138	0.3567	1.1727	-1.5824	-2.3493	-1.2272	-2.1813	-3.108	-5.3568	-5.4914	-5.0422	-3.6777	-1.3791	-1.358	0.6275	-0.6637	-0.0111	0.7282	1.6542	-1.2918	-0.4362	0.3562	-0.6015	-1.8986	-2.7285	-4.3543	-4.057	-4.8577	-0.5312	-0.2076
738.2812	-0.3432	0.2175	0.951	-1.7334	-2.5356	-1.3841	-2.1591	-3.1216	-5.3219	-5.2964	-5.1032	-3.6866	-1.3322	-1.3755	-0.0019	-0.8386	-0.2117	0.5688	1.4983	-1.3737	-0.5083	0.238	-0.7747	-1.8819	-2.8253	-4.3458	-4.2241	-4.7567	-0.6922	-0.6079
742.1875	-0.5487	0.0728	0.727	-1.8827	-2.6901	-1.498	-2.0387	-3.0374	-5.1334	-4.9827	-5.0046	-3.5857	-1.2297	-1.3645	-0.612	-1.0249	-0.4713	0.3988	1.3183	-1.4715	-0.5812	0.1269	-0.951	-1.8148	-2.8285	-4.269	-4.2983	-4.5836	-0.8873	-0.9701
746.0938	-0.7326	-0.0495	0.5352	-2	-2.7841	-1.5451	-1.8348	-2.872	-4.8251	-4.5962	-4.7709	-3.3912	-1.0795	-1.3178	-1.0912	-1.1879	-0.7536	0.2353	1.1533	-1.5571	-0.6354	0.0463	-1.1011	-1.699	-2.7263	-4.1211	-4.2679	-4.355	-1.0651	-1.2355
750	-0.8936	-0.1307	0.3956	-2.0636	-2.8006	-1.5162	-1.5697	-2.6495	-4.4424	-4.183	-4.4367	-3.1253	-0.8918	-1.2307	-1.3564	-1.2994	-1.0198	0.0913	1.0397	-1.6056	-0.6546	0.0139	-1.2006	-1.5402	-2.5288	-3.9108	-4.1317	-4.0906	-1.181	-1.3629
753.9062	-1.0453	-0.1641	0.312	-2.0646	-2.7401	-1.4196	-1.2716	-2.3975	-4.0351	-3.7832	-4.0414	-2.8126	-0.6786	-1.1044	-1.3695	-1.343	-1.2342	-0.0242	1.0047	-1.6009	-0.6295	0.0383	-1.2346	-1.3482	-2.2673	-3.6573	-3.8984	-3.8109	-1.2076	-1.3355
757.8125	-1.202	-0.1542	0.2749	-2.0077	-2.6189	-1.2785	-0.9715	-2.1437	-3.6495	-3.4271	-3.6234	-2.4771	-0.4526	-0.9455	-1.1425	-1.3153	-1.3673	-0.1052	1.0609	-1.5384	-0.5597	0.119	-1.1989	-1.1352	-1.9859	-3.3867	-3.5845	-3.5354	-1.14	-1.1633
761.7188	-1.3634	-0.1126	0.2683	-1.9075	-2.4645	-1.1233	-0.6972	-1.9116	-3.3228	-3.1334	-3.2167	-2.1404	-0.2252	-0.7652	-0.7299	-1.2238	-1.3981	-0.1445	1.2065	-1.4238	-0.4518	0.2487	-1.0985	-0.9144	-1.7302	-3.1269	-3.2128	-3.2802	-0.994	-0.8793
765.625	-1.5059	-0.0526	0.278	-1.7826	-2.306	-0.9815	-0.4681	-1.7165	-3.0773	-2.9101	-2.8483	-1.8202	-0.004	-0.5754	-0.2144	-1.0829	-1.3158	-0.1302	1.4277	-1.2695	-0.3165	0.4179	-0.9439	-0.6968	-1.5351	-2.9012	-2.8086	-3.0562	-0.7977	-0.5322
769.5312	-1.5827	0.0175	0.3001	-1.6486	-2.1644	-0.8677	-0.2895	-1.5629	-2.9185	-2.7562	-2.5367	-1.5302	0.2095	-0.3842	0.3133	-0.9079	-1.12	-0.0433	1.7027	-1.0896	-0.1633	0.6186	-0.7466	-0.4893	-1.4159	-2.7248	-2.3973	-2.8673	-0.5806	-0.176
773.4375	-1.5335	0.0992	0.3453	-1.5122	-2.0459	-0.7781	-0.1503	-1.4436	-2.8351	-2.6636	-2.2908	-1.2786	0.4216	-0.1923	0.773	-0.7101	-0.8196	0.1438	2.0082	-0.8949	0.0032	0.8475	-0.516	-0.2927	-1.3656	-2.6014	-2.0005	-2.709	-0.3631	0.1389
777.3438	-1.2995	0.205	0.4384	-1.369	-1.9395	-0.6903	-0.0253	-1.3412	-2.8021	-2.6194	-2.1102	-1.0683	0.6448	0.0087	1.1086	-0.4936	-0.4293	0.464	2.3237	-0.6896	0.1855	1.1071	-0.2566	-0.1016	-1.3578	-2.5234	-1.6339	-2.5695	-0.1518	0.3744
781.25	-0.8384	0.3549	0.6106	-1.2059	-1.8221	-0.5704	0.1177	-1.2332	-2.7885	-2.6082	-1.9862	-0.896	0.8953	0.2331	1.2955	-0.2557	0.0334	0.9488	2.6354	-0.4708	0.3919	1.4036	0.0307	0.0939	-1.3559	-2.4751	-1.3058	-2.4323	0.06	0.5088
785.1562	-0.136	0.5685	0.8881	-1.0077	-1.6679	-0.3863	0.3085	-1.0984	-2.7641	-2.6144	-1.9041	-0.7537	1.1878	0.4962	1.3382	0.0095	0.5508	1.6172	2.9367	-0.2321	0.6319	1.7432	0.347	0.3051	-1.3245	-2.4371	-1.0166	-2.2808	0.2856	0.5392
789.0625	0.7877	0.8549	1.2794	-0.765	-1.4595	-0.1195	0.5642	-0.9237	-2.7082	-2.6251	-1.8462	-0.6302	1.5297	0.8067	1.2641	0.3061	1.1061	2.4637	3.2272	0.0314	0.9106	2.1275	0.692	0.5399	-1.2399	-2.3925	-0.7602	-2.1032	0.5371	0.4802
792.9688	1.8803	1.2066	1.7686	-0.4802	-1.1961	0.2259	0.8837	-0.7076	-2.613	-2.6306	-1.7959	-0.5137	1.9171	1.1617	1.114	0.6313	1.6829	3.4526	3.5099	0.3189	1.2247	2.5501	1.0611	0.7996	-1.0972	-2.3315	-0.5247	-1.8964	0.8175	0.3591
796.875	3.0648	1.5979	2.3159	-0.1683	-0.8949	0.6232	1.2477	-0.4613	-2.4847	-2.6258	-1.7399	-0.3942	2.3349	1.5458	0.9319	0.9743	2.2652	4.5195	3.7886	0.6219	1.5606	2.9959	1.4443	1.0781	-0.9099	-2.253	-0.2955	-1.6668	1.1182	0.2095
