time	FP1	F3	F7	FC3	C3	C5	P3	P7	PO7	PO3	O1	Oz	Pz	CPz	FP2	Fz	F4	F8	FC4	FCz	Cz	C4	C6	P4	P8	PO8	PO4	O2	HEOG_left	HEOG_right
-199.2188	0.2286	-0.1889	0.6402	-0.0445	0.0218	0.5607	0.6927	0.4606	-0.104	0.2239	-0.5263	-0.4657	0.6536	-0.0334	-0.36	-0.1335	-0.9412	-0.4385	-0.2589	-0.1115	0.156	0.1758	0.1362	-0.2404	-0.4249	-0.158	-0.6785	0.2206	-0.4692	-0.7435
-195.3125	-0.1423	-0.2493	0.4435	-0.0845	-0.1152	0.3256	0.3263	0.2555	-0.3057	-0.1274	-0.5695	-0.7003	0.1308	-0.4332	-0.4987	-0.1553	-0.798	-0.5049	-0.3253	-0.1667	-0.1107	-0.0286	-0.0501	-0.6066	-0.478	-0.2573	-0.8235	-0.0162	-0.6612	-0.7188
-191.4062	-0.4907	-0.3233	0.2294	-0.1411	-0.2582	0.0867	-0.0165	0.0537	-0.4878	-0.4489	-0.605	-0.9216	-0.3573	-0.8121	-0.6358	-0.1995	-0.6846	-0.5726	-0.3998	-0.2373	-0.3719	-0.2154	-0.2214	-0.934	-0.5241	-0.3443	-0.9496	-0.236	-0.8424	-0.6899
-187.5	-0.7944	-0.4157	-0.0042	-0.2225	-0.407	-0.1529	-0.3177	-0.1397	-0.6308	-0.7144	-0.6219	-1.1166	-0.7755	-1.1447	-0.7658	-0.2795	-0.62	-0.6384	-0.4829	-0.3305	-0.6157	-0.3667	-0.3606	-1.1854	-0.5541	-0.4056	-1.0367	-0.4207	-1.0029	-0.6525
-183.5938	-1.0338	-0.5218	-0.246	-0.3265	-0.5542	-0.3824	-0.5608	-0.3169	-0.7201	-0.9022	-0.6109	-1.2708	-1.0922	-1.4053	-0.8788	-0.395	-0.6074	-0.6948	-0.5656	-0.4429	-0.8261	-0.4665	-0.4555	-1.331	-0.5588	-0.4254	-1.0674	-0.554	-1.1332	-0.6047
-179.6875	-1.1939	-0.6272	-0.4727	-0.4406	-0.686	-0.5834	-0.7329	-0.4676	-0.748	-0.9981	-0.5654	-1.3699	-1.2826	-1.5704	-0.9606	-0.5316	-0.6333	-0.7301	-0.6295	-0.5591	-0.9836	-0.5027	-0.4999	-1.3531	-0.53	-0.3885	-1.0293	-0.6229	-1.2242	-0.5472
-175.7812	-1.2656	-0.7109	-0.655	-0.5443	-0.7842	-0.7348	-0.8269	-0.581	-0.7153	-0.9972	-0.4823	-1.4024	-1.3319	-1.6216	-0.9957	-0.6635	-0.6716	-0.7315	-0.6524	-0.6553	-1.0684	-0.4688	-0.4937	-1.2484	-0.4613	-0.2828	-0.9181	-0.6192	-1.2672	-0.4826
-171.875	-1.2473	-0.7515	-0.7669	-0.6148	-0.8306	-0.8177	-0.8425	-0.6479	-0.6313	-0.9058	-0.3627	-1.3627	-1.2379	-1.549	-0.971	-0.7608	-0.6913	-0.6879	-0.6146	-0.7055	-1.0645	-0.3659	-0.4424	-1.0287	-0.3509	-0.1043	-0.7392	-0.5417	-1.2551	-0.4136
-167.9688	-1.1463	-0.732	-0.7933	-0.6324	-0.8114	-0.8209	-0.7875	-0.663	-0.5116	-0.74	-0.211	-1.2536	-1.0124	-1.3531	-0.8798	-0.7968	-0.6651	-0.5933	-0.5055	-0.6874	-0.9638	-0.2027	-0.355	-0.719	-0.2019	0.1391	-0.5075	-0.3973	-1.1841	-0.3423
-164.0625	-0.9776	-0.6441	-0.7345	-0.5844	-0.7192	-0.7432	-0.6753	-0.6258	-0.3748	-0.5224	-0.0348	-1.0882	-0.6794	-1.0453	-0.7238	-0.7544	-0.5761	-0.4485	-0.327	-0.5885	-0.7679	0.0057	-0.2404	-0.3533	-0.0239	0.426	-0.2442	-0.2017	-1.0555	-0.2689
-160.1562	-0.7625	-0.4893	-0.6052	-0.4669	-0.5544	-0.5927	-0.5225	-0.5403	-0.2385	-0.2781	0.1557	-0.8878	-0.2721	-0.6468	-0.5133	-0.6295	-0.4219	-0.261	-0.0927	-0.4086	-0.4892	0.2404	-0.1061	0.0313	0.1677	0.7218	0.0264	0.0218	-0.8772	-0.1929
-156.25	-0.525	-0.2783	-0.429	-0.2843	-0.3251	-0.3848	-0.3451	-0.4142	-0.1164	-0.0304	0.3489	-0.6787	0.172	-0.186	-0.2658	-0.4303	-0.2144	-0.0441	0.1752	-0.1592	-0.1488	0.4822	0.043	0.4	0.3528	0.9843	0.2822	0.2455	-0.6641	-0.1138
-152.3438	-0.2892	-0.0284	-0.2324	-0.0488	-0.0457	-0.1395	-0.1553	-0.2573	-0.0158	0.2026	0.5324	-0.486	0.6159	0.3042	-0.0028	-0.1752	0.0239	0.1854	0.4516	0.1389	0.2267	0.7135	0.2036	0.7244	0.5101	1.1715	0.5056	0.4416	-0.4359	-0.0325
-148.4375	-0.0759	0.2389	-0.039	0.2219	0.264	0.1213	0.0396	-0.0809	0.063	0.409	0.6956	-0.3278	1.0271	0.7899	0.2531	0.1117	0.2651	0.409	0.7118	0.4595	0.6082	0.9204	0.371	0.9853	0.62	1.2513	0.6852	0.588	-0.2144	0.0482
-144.5312	0.0991	0.5012	0.1335	0.5063	0.581	0.3754	0.2367	0.1036	0.1254	0.584	0.8304	-0.2117	1.3802	1.2385	0.4817	0.4047	0.4815	0.6091	0.9355	0.775	0.9678	1.0927	0.5381	1.1732	0.6691	1.2089	0.8155	0.6717	-0.0193	0.1238
-140.625	0.2265	0.7382	0.275	0.7817	0.8809	0.6028	0.4356	0.2847	0.18	0.7277	0.9321	-0.1341	1.6577	1.6218	0.6672	0.6803	0.6503	0.7712	1.1079	1.0601	1.2817	1.2239	0.6952	1.288	0.6529	1.0504	0.896	0.6907	0.1352	0.1899
-136.7188	0.3047	0.9336	0.3822	1.0264	1.1405	0.7876	0.6348	0.4513	0.2346	0.8428	0.999	-0.0829	1.8498	1.918	0.8003	0.9193	0.7577	0.8859	1.2209	1.2944	1.5312	1.3108	0.8323	1.3373	0.5771	0.8017	0.9291	0.6528	0.2432	0.2443
-132.8125	0.3402	1.0765	0.4578	1.2225	1.3404	0.9193	0.8284	0.5928	0.2922	0.9314	1.0314	-0.0417	1.9525	2.1125	0.8791	1.1084	0.8012	0.9504	1.2733	1.4633	1.704	1.3529	0.9413	1.3331	0.4567	0.503	0.9189	0.5732	0.308	0.2885
-128.9062	0.346	1.162	0.5093	1.3569	1.4664	0.9932	1.0047	0.699	0.3494	0.9928	1.0296	0.0046	1.9658	2.1983	0.9088	1.24	0.7908	0.9685	1.2707	1.5593	1.7936	1.3514	1.0175	1.2886	0.3136	0.2009	0.8691	0.4703	0.3405	0.3288
-125	0.3396	1.1902	0.5467	1.4228	1.5106	1.0107	1.1459	0.7612	0.3957	1.0222	0.9927	0.0654	1.8928	2.1759	0.9006	1.3122	0.7471	0.9504	1.2252	1.5813	1.799	1.3096	1.0602	1.215	0.172	-0.0612	0.7828	0.3625	0.3568	0.3751
-121.0938	0.3382	1.1665	0.5803	1.419	1.4723	0.9775	1.232	0.7727	0.4165	1.0123	0.9177	0.1425	1.7401	2.0529	0.869	1.3274	0.6975	0.91	1.1532	1.5345	1.7245	1.2317	1.0723	1.12	0.054	-0.2514	0.6633	0.2641	0.3743	0.438
-117.1875	0.3553	1.0994	0.6172	1.3506	1.358	0.9025	1.2455	0.7299	0.3966	0.9561	0.8007	0.2303	1.5184	1.8436	0.8285	1.2919	0.669	0.8622	1.0729	1.4287	1.5793	1.1243	1.0586	1.0081	-0.0235	-0.3559	0.5164	0.1835	0.4076	0.5257
-113.2812	0.3963	0.9999	0.6589	1.2273	1.181	0.797	1.1771	0.6332	0.3256	0.8509	0.6392	0.3192	1.2449	1.5691	0.7909	1.2138	0.6808	0.8194	1	1.2777	1.3776	0.9954	1.0251	0.8829	-0.0515	-0.3795	0.3521	0.1231	0.4662	0.6401
-109.375	0.4577	0.8797	0.6998	1.0627	0.9602	0.6723	1.0295	0.4875	0.2019	0.702	0.4355	0.3996	0.9432	1.2557	0.7627	1.1025	0.7385	0.7893	0.9442	1.0961	1.1372	0.8542	0.978	0.7488	-0.029	-0.3416	0.1858	0.081	0.552	0.7748
-105.4688	0.5288	0.7486	0.7286	0.8716	0.7173	0.5387	0.8193	0.3026	0.0353	0.5248	0.1991	0.4668	0.6427	0.9331	0.7439	0.9668	0.8306	0.7731	0.906	0.8981	0.8781	0.7098	0.9227	0.6126	0.0374	-0.2678	0.0373	0.0538	0.6591	0.9148
-101.5625	0.5948	0.6133	0.731	0.6683	0.4742	0.4039	0.5744	0.0935	-0.1532	0.3433	-0.0517	0.5223	0.3745	0.6302	0.729	0.8134	0.9312	0.7653	0.8769	0.6948	0.6203	0.5691	0.8625	0.483	0.1358	-0.1816	-0.0718	0.0391	0.7751	1.0382
-97.6562	0.6416	0.4762	0.6945	0.4645	0.2494	0.272	0.3287	-0.121	-0.3349	0.186	-0.2915	0.5742	0.1666	0.3717	0.7089	0.6476	1.006	0.7555	0.8409	0.4938	0.3812	0.4362	0.798	0.3701	0.2512	-0.0987	-0.1227	0.0362	0.8832	1.1208
-93.75	0.6593	0.3357	0.6116	0.2682	0.0552	0.1434	0.1158	-0.3194	-0.4788	0.0789	-0.493	0.6336	0.0378	0.1738	0.6735	0.4729	1.0209	0.731	0.7797	0.2991	0.1734	0.3119	0.7268	0.2824	0.368	-0.0253	-0.1036	0.0467	0.9661	1.1411
-89.8438	0.6447	0.1887	0.4827	0.0835	-0.1028	0.0165	-0.0384	-0.4805	-0.5591	0.0396	-0.632	0.7107	-0.0061	0.0423	0.6152	0.2928	0.9512	0.6802	0.6779	0.1123	0.0038	0.1943	0.6451	0.225	0.4723	0.0398	-0.0135	0.0729	1.0096	1.0866
-85.9375	0.6009	0.0323	0.3166	-0.0886	-0.2258	-0.1115	-0.1205	-0.5868	-0.5615	0.0717	-0.694	0.8104	0.0257	-0.0277	0.5301	0.1116	0.7885	0.5959	0.5273	-0.0659	-0.127	0.0807	0.5494	0.1973	0.5528	0.1011	0.1364	0.1165	1.0053	0.956
-82.0312	0.5346	-0.1338	0.1278	-0.2491	-0.3199	-0.242	-0.1323	-0.628	-0.4874	0.1639	-0.6775	0.9298	0.1098	-0.0507	0.4194	-0.0651	0.5427	0.4769	0.3298	-0.2343	-0.2241	-0.0325	0.4376	0.1921	0.6011	0.1622	0.3228	0.177	0.9518	0.7599
-78.125	0.4533	-0.3064	-0.0667	-0.399	-0.3942	-0.374	-0.09	-0.6038	-0.3535	0.2906	-0.5948	1.0574	0.2133	-0.0476	0.2879	-0.2314	0.2405	0.3277	0.0963	-0.3917	-0.2975	-0.1484	0.3084	0.1959	0.6109	0.2221	0.5131	0.2505	0.8542	0.518
-74.2188	0.3622	-0.4783	-0.2523	-0.5389	-0.4584	-0.5035	-0.0205	-0.524	-0.188	0.4178	-0.4687	1.1748	0.2992	-0.0418	0.1427	-0.3818	-0.0818	0.1564	-0.156	-0.5361	-0.3598	-0.2702	0.1612	0.1908	0.5777	0.2735	0.6699	0.3279	0.7224	0.2545
-70.3125	0.2637	-0.6399	-0.4192	-0.6672	-0.5201	-0.6234	0.0448	-0.407	-0.0227	0.5097	-0.3278	1.2605	0.3348	-0.0539	-0.0085	-0.5129	-0.3859	-0.0268	-0.4075	-0.6651	-0.4233	-0.3996	-0.005	0.1597	0.4992	0.3029	0.7589	0.3958	0.5694	-0.0059
-66.4062	0.1588	-0.7803	-0.5629	-0.7808	-0.5836	-0.724	0.0772	-0.2757	0.1149	0.5364	-0.2003	1.2944	0.298	-0.0973	-0.1581	-0.6229	-0.6398	-0.2118	-0.6399	-0.7758	-0.4963	-0.5366	-0.1899	0.09	0.3764	0.295	0.756	0.4381	0.4099	-0.2416
-62.5	0.0501	-0.889	-0.6814	-0.875	-0.648	-0.795	0.0572	-0.1527	0.2091	0.4801	-0.1083	1.2623	0.1819	-0.1758	-0.2989	-0.7115	-0.8227	-0.3892	-0.8387	-0.8645	-0.5813	-0.6772	-0.3906	-0.0215	0.2152	0.2376	0.6534	0.4402	0.2579	-0.4364
-58.5938	-0.0562	-0.9574	-0.7717	-0.9446	-0.7086	-0.8275	-0.0223	-0.0558	0.2587	0.3378	-0.0644	1.1589	-0.0049	-0.2833	-0.424	-0.7792	-0.9272	-0.5508	-0.9942	-0.9274	-0.6735	-0.8142	-0.5998	-0.168	0.0269	0.1269	0.4622	0.3919	0.1253	-0.5811
-54.6875	-0.1501	-0.9807	-0.8282	-0.9849	-0.7576	-0.8166	-0.1555	0.0047	0.2751	0.121	-0.0709	0.9886	-0.2415	-0.4071	-0.5272	-0.8265	-0.958	-0.6897	-1.102	-0.9613	-0.7632	-0.9373	-0.8053	-0.3339	-0.1716	-0.0295	0.2104	0.2912	0.0197	-0.6738
-50.7812	-0.2197	-0.9581	-0.8433	-0.993	-0.7863	-0.763	-0.3263	0.0272	0.277	-0.1468	-0.12	0.7648	-0.5007	-0.5317	-0.6033	-0.8532	-0.9288	-0.7999	-1.163	-0.9653	-0.8382	-1.0366	-0.9912	-0.4984	-0.3603	-0.2132	-0.0634	0.1449	-0.0563	-0.7188
-46.875	-0.2543	-0.8926	-0.8097	-0.968	-0.7874	-0.6724	-0.5118	0.0187	0.2829	-0.434	-0.1963	0.5079	-0.7543	-0.643	-0.6487	-0.8584	-0.8577	-0.8768	-1.1819	-0.9404	-0.8877	-1.1037	-1.14	-0.6409	-0.5188	-0.3988	-0.3185	-0.032	-0.1046	-0.7244
-42.9688	-0.2474	-0.7901	-0.7245	-0.9104	-0.7558	-0.5535	-0.6859	-0.0078	0.305	-0.7058	-0.2798	0.2426	-0.9787	-0.731	-0.6613	-0.8398	-0.7617	-0.9166	-1.1654	-0.8898	-0.9037	-1.1341	-1.2352	-0.7442	-0.6301	-0.56	-0.5206	-0.2188	-0.1295	-0.6996
-39.0625	-0.1992	-0.6575	-0.5921	-0.8214	-0.6891	-0.4161	-0.8237	-0.0362	0.3458	-0.9285	-0.3494	-0.0054	-1.157	-0.7907	-0.6404	-0.7945	-0.6536	-0.9162	-1.1198	-0.8173	-0.8831	-1.1267	-1.2648	-0.7985	-0.6841	-0.6759	-0.648	-0.3934	-0.1354	-0.6516
-35.1562	-0.1163	-0.502	-0.4259	-0.7031	-0.5886	-0.2701	-0.9046	-0.0519	0.3991	-1.0751	-0.3876	-0.2132	-1.2801	-0.8215	-0.5868	-0.7197	-0.5401	-0.8743	-1.0496	-0.7271	-0.8271	-1.0839	-1.2242	-0.8018	-0.6792	-0.7357	-0.6949	-0.5366	-0.1251	-0.584
-31.25	-0.0111	-0.331	-0.2477	-0.5593	-0.46	-0.1251	-0.9157	-0.0454	0.4532	-1.129	-0.3832	-0.3638	-1.3461	-0.8261	-0.5035	-0.6146	-0.4234	-0.7925	-0.9578	-0.6238	-0.7414	-1.0111	-1.1187	-0.7608	-0.6231	-0.7398	-0.6708	-0.6351	-0.099	-0.4977
-27.3438	0.1006	-0.1529	-0.084	-0.3975	-0.3137	0.0086	-0.8539	-0.0155	0.4953	-1.0876	-0.3343	-0.4482	-1.3588	-0.8102	-0.3963	-0.4827	-0.3045	-0.6768	-0.8477	-0.513	-0.6357	-0.9163	-0.9637	-0.689	-0.5304	-0.6987	-0.5973	-0.684	-0.0561	-0.3918
-23.4375	0.2034	0.0214	0.0403	-0.2297	-0.1657	0.1199	-0.7271	0.0302	0.5148	-0.9636	-0.2483	-0.466	-1.3269	-0.7814	-0.2749	-0.3328	-0.1869	-0.5387	-0.7246	-0.4024	-0.523	-0.8099	-0.7817	-0.6042	-0.4191	-0.6286	-0.5016	-0.6857	0.003	-0.2663
-19.5312	0.2841	0.1787	0.1076	-0.0731	-0.0355	0.1968	-0.5534	0.0768	0.5048	-0.7827	-0.14	-0.4254	-1.2616	-0.7483	-0.1523	-0.1792	-0.0777	-0.3937	-0.5972	-0.3026	-0.4182	-0.7029	-0.5981	-0.5243	-0.3069	-0.5469	-0.4101	-0.6484	0.0737	-0.1242
-15.625	0.3343	0.304	0.1125	0.0528	0.0568	0.2287	-0.3586	0.1053	0.4615	-0.5795	-0.028	-0.3413	-1.1759	-0.7196	-0.0431	-0.0397	0.0126	-0.2593	-0.4772	-0.2252	-0.3361	-0.6062	-0.4354	-0.4637	-0.2072	-0.4677	-0.3421	-0.5835	0.1458	0.0275
-11.7188	0.3502	0.3832	0.062	0.1291	0.094	0.2078	-0.1724	0.097	0.3843	-0.3908	0.0688	-0.2321	-1.0825	-0.7021	0.039	0.0674	0.0735	-0.151	-0.3771	-0.1817	-0.2884	-0.5283	-0.3087	-0.4298	-0.127	-0.3991	-0.3066	-0.5026	0.2036	0.1774
-7.8125	0.3316	0.4054	-0.0274	0.1418	0.0662	0.1316	-0.0226	0.0381	0.2745	-0.2481	0.1355	-0.1168	-0.9922	-0.6996	0.0835	0.1265	0.0971	-0.0792	-0.3077	-0.1808	-0.2821	-0.4739	-0.2238	-0.422	-0.0668	-0.3425	-0.3015	-0.4151	0.2294	0.311
-3.9062	0.2812	0.3662	-0.135	0.085	-0.027	0.0038	0.0697	-0.0757	0.1367	-0.172	0.163	-0.0117	-0.9129	-0.7119	0.0854	0.1282	0.0815	-0.0481	-0.2752	-0.226	-0.3181	-0.4437	-0.1782	-0.4326	-0.0218	-0.2932	-0.3158	-0.3273	0.2072	0.4131
0	0.2032	0.2681	-0.2422	-0.0371	-0.1758	-0.1656	0.0949	-0.2382	-0.0206	-0.1679	0.1493	0.0728	-0.8484	-0.7354	0.0458	0.0702	0.0309	-0.0548	-0.2801	-0.3151	-0.3911	-0.4349	-0.1645	-0.4495	0.0167	-0.2434	-0.3343	-0.2419	0.1273	0.4712
3.9062	0.1033	0.121	-0.3364	-0.2105	-0.362	-0.3622	0.0563	-0.4332	-0.1843	-0.2269	0.0982	0.1326	-0.7995	-0.7644	-0.0284	-0.0421	-0.0452	-0.0919	-0.3176	-0.4404	-0.4915	-0.4423	-0.1753	-0.4599	0.0582	-0.1843	-0.3418	-0.1593	-0.0102	0.4789
7.8125	-0.011	-0.0598	-0.4132	-0.4144	-0.5633	-0.5697	-0.0315	-0.6384	-0.3375	-0.3288	0.0178	0.1691	-0.7648	-0.7944	-0.1268	-0.1969	-0.1358	-0.1501	-0.3798	-0.5903	-0.6079	-0.4608	-0.2065	-0.4542	0.1107	-0.1093	-0.3285	-0.0796	-0.1944	0.438
11.7188	-0.1303	-0.2559	-0.4755	-0.6247	-0.7572	-0.7721	-0.1471	-0.8308	-0.4621	-0.4484	-0.082	0.1875	-0.7427	-0.8233	-0.2376	-0.3783	-0.2323	-0.2213	-0.4585	-0.7517	-0.73	-0.4876	-0.2582	-0.4293	0.1792	-0.0158	-0.2922	-0.0044	-0.4051	0.3587
15.625	-0.2437	-0.4486	-0.5304	-0.8186	-0.9258	-0.9551	-0.2674	-0.9905	-0.542	-0.5611	-0.1912	0.1937	-0.7332	-0.8532	-0.3502	-0.5683	-0.3303	-0.3005	-0.5481	-0.9118	-0.8498	-0.5234	-0.3332	-0.3892	0.2638	0.0942	-0.2392	0.0621	-0.6166	0.2577
19.5312	-0.3401	-0.6212	-0.5864	-0.9777	-1.0577	-1.1075	-0.3727	-1.1025	-0.5671	-0.6473	-0.302	0.1925	-0.7377	-0.8892	-0.4568	-0.7498	-0.4306	-0.3855	-0.6462	-1.0599	-0.9622	-0.5715	-0.434	-0.3438	0.3594	0.2143	-0.1828	0.113	-0.8028	0.1542
23.4375	-0.4096	-0.7612	-0.6498	-1.091	-1.1494	-1.2218	-0.4495	-1.1576	-0.5352	-0.6945	-0.4093	0.1859	-0.759	-0.937	-0.5527	-0.9077	-0.5377	-0.4766	-0.7533	-1.1883	-1.0647	-0.6372	-0.5598	-0.307	0.4565	0.3348	-0.1401	0.1398	-0.9427	0.0655
27.3438	-0.4464	-0.8619	-0.7234	-1.1551	-1.2043	-1.2944	-0.4923	-1.1515	-0.4537	-0.6983	-0.5116	0.1722	-0.7994	-1.0008	-0.6365	-1.0316	-0.6563	-0.5747	-0.8704	-1.2926	-1.1562	-0.7245	-0.7051	-0.2928	0.5426	0.4445	-0.1285	0.1353	-1.0246	0.0034
31.25	-0.4501	-0.9226	-0.8056	-1.1742	-1.2305	-1.3259	-0.5033	-1.085	-0.3386	-0.662	-0.6106	0.146	-0.8602	-1.0815	-0.7094	-1.1165	-0.7885	-0.6801	-0.9968	-1.372	-1.2364	-0.8347	-0.8609	-0.3125	0.604	0.5315	-0.1621	0.0944	-1.0478	-0.0279
35.1562	-0.426	-0.9476	-0.8902	-1.1577	-1.2382	-1.3203	-0.4905	-0.9657	-0.2121	-0.5958	-0.7108	0.099	-0.9403	-1.1754	-0.7734	-1.1622	-0.9312	-0.7911	-1.1279	-1.4279	-1.3045	-0.9643	-1.0162	-0.3713	0.6296	0.5855	-0.2484	0.0167	-1.0215	-0.031
39.0625	-0.3833	-0.9433	-0.9667	-1.1164	-1.236	-1.2839	-0.4654	-0.8082	-0.0991	-0.5144	-0.8176	0.0216	-1.0354	-1.2744	-0.8297	-1.1722	-1.075	-0.9025	-1.254	-1.4622	-1.3584	-1.1039	-1.1593	-0.465	0.6135	0.5999	-0.3839	-0.0937	-0.9612	-0.0123
42.9688	-0.3319	-0.9157	-1.0212	-1.0591	-1.2289	-1.2238	-0.439	-0.634	-0.0218	-0.4343	-0.9353	-0.0935	-1.137	-1.3667	-0.8762	-1.1508	-1.2047	-1.0053	-1.3606	-1.4748	-1.3937	-1.2382	-1.2786	-0.5783	0.5584	0.5748	-0.552	-0.2271	-0.8835	0.0215
46.875	-0.2795	-0.8682	-1.0386	-0.9915	-1.2165	-1.1478	-0.4199	-0.4689	0.0055	-0.3703	-1.0654	-0.248	-1.2327	-1.4378	-0.9069	-1.1009	-1.3012	-1.0863	-1.4302	-1.4627	-1.4036	-1.3472	-1.362	-0.6848	0.4769	0.5205	-0.722	-0.369	-0.8012	0.0662
50.7812	-0.2306	-0.8025	-1.0066	-0.9153	-1.1943	-1.0633	-0.4112	-0.3387	-0.0204	-0.3315	-1.2042	-0.436	-1.3067	-1.4732	-0.9126	-1.0234	-1.3459	-1.1301	-1.446	-1.4199	-1.3799	-1.4092	-1.3974	-0.7504	0.3911	0.4584	-0.8518	-0.5	-0.7214	0.1206
54.6875	-0.1872	-0.7194	-0.9203	-0.8305	-1.1559	-0.9779	-0.4101	-0.2639	-0.09	-0.3194	-1.3425	-0.6433	-1.3425	-1.4614	-0.8839	-0.9181	-1.3252	-1.1217	-1.3963	-1.3398	-1.3158	-1.4046	-1.3731	-0.7403	0.3288	0.4188	-0.895	-0.5983	-0.6463	0.1844
58.5938	-0.1512	-0.6213	-0.7862	-0.7372	-1.0953	-0.8985	-0.4087	-0.2544	-0.1831	-0.3265	-1.4646	-0.8485	-1.3261	-1.3976	-0.8146	-0.7866	-1.2352	-1.0513	-1.279	-1.2192	-1.2088	-1.3219	-1.2812	-0.6263	0.3178	0.4354	-0.8097	-0.6423	-0.5762	0.2562
62.5	-0.1266	-0.5137	-0.6224	-0.6377	-1.0102	-0.8314	-0.3962	-0.3069	-0.2726	-0.3375	-1.5492	-1.0257	-1.2498	-1.2858	-0.706	-0.6345	-1.0851	-0.918	-1.1031	-1.0616	-1.0646	-1.161	-1.1223	-0.3955	0.3792	0.5368	-0.5695	-0.6143	-0.5124	0.3308
66.4062	-0.1194	-0.4062	-0.4558	-0.5374	-0.9035	-0.7812	-0.3617	-0.4041	-0.3297	-0.3318	-1.5715	-1.1483	-1.1153	-1.1402	-0.5684	-0.4741	-0.8975	-0.7331	-0.8893	-0.8797	-0.8977	-0.9368	-0.9095	-0.0553	0.5219	0.7384	-0.1714	-0.5043	-0.4605	0.3982
70.3125	-0.1379	-0.3117	-0.3162	-0.4454	-0.7848	-0.7509	-0.2974	-0.5187	-0.3288	-0.2882	-1.5071	-1.1921	-0.936	-0.9847	-0.4216	-0.3242	-0.7057	-0.5206	-0.6673	-0.696	-0.732	-0.6791	-0.6704	0.364	0.7389	1.0367	0.3592	-0.3119	-0.4305	0.4445
74.2188	-0.191	-0.2452	-0.2303	-0.3739	-0.6694	-0.7426	-0.2014	-0.6198	-0.2513	-0.1892	-1.3368	-1.1399	-0.7361	-0.8495	-0.2922	-0.2088	-0.5484	-0.3141	-0.4723	-0.5404	-0.5977	-0.4292	-0.4441	0.8122	1.0063	1.4076	0.9686	-0.0477	-0.4355	0.4536
78.125	-0.286	-0.2217	-0.217	-0.3364	-0.5768	-0.7577	-0.0789	-0.6804	-0.0885	-0.0262	-1.0519	-0.9844	-0.5475	-0.7666	-0.2092	-0.1534	-0.4634	-0.1517	-0.3406	-0.4458	-0.5266	-0.2336	-0.2742	1.2257	1.2866	1.8096	1.5824	0.2677	-0.4884	0.4109
82.0312	-0.4272	-0.2524	-0.2845	-0.3454	-0.5267	-0.7968	0.058	-0.6844	0.1575	0.1975	-0.6582	-0.731	-0.4042	-0.7633	-0.1984	-0.1795	-0.4803	-0.0683	-0.3032	-0.4408	-0.5451	-0.1346	-0.199	1.5388	1.5351	2.1898	2.1165	0.6057	-0.598	0.3071
85.9375	-0.6131	-0.3422	-0.4298	-0.4087	-0.5345	-0.8594	0.1926	-0.6292	0.4739	0.467	-0.1775	-0.3977	-0.3347	-0.8551	-0.2762	-0.2991	-0.6133	-0.0878	-0.3797	-0.5425	-0.667	-0.1606	-0.2423	1.6966	1.7088	2.4939	2.4926	0.9336	-0.7646	0.1413
89.8438	-0.8342	-0.4868	-0.639	-0.5268	-0.6063	-0.942	0.3083	-0.5257	0.8386	0.7593	0.3549	-0.013	-0.3538	-1.0403	-0.4436	-0.509	-0.8567	-0.2164	-0.5718	-0.7502	-0.8882	-0.3175	-0.4066	1.6671	1.7759	2.6755	2.6526	1.2192	-0.9772	-0.0766
93.75	-1.0717	-0.672	-0.8888	-0.69	-0.7356	-1.037	0.3934	-0.3931	1.2225	1.0494	0.8947	0.3898	-0.457	-1.2964	-0.683	-0.7888	-1.1819	-0.4388	-0.8593	-1.042	-1.1835	-0.5847	-0.6714	1.4497	1.723	2.7045	2.5704	1.4359	-1.2134	-0.3259
97.6562	-1.298	-0.8727	-1.1484	-0.8775	-0.9015	-1.1313	0.4454	-0.2532	1.5938	1.3167	1.3961	0.7784	-0.6184	-1.5815	-0.9588	-1.0998	-1.5397	-0.719	-1.1998	-1.3753	-1.5084	-0.916	-0.9956	1.0772	1.558	2.5712	2.2572	1.5666	-1.441	-0.5766
101.5625	-1.4791	-1.0549	-1.3808	-1.0572	-1.0706	-1.2062	0.4729	-0.1233	1.9211	1.549	1.8202	1.1281	-0.7935	-1.8396	-1.2207	-1.3894	-1.8667	-1.0049	-1.5329	-1.6919	-1.8043	-1.2477	-1.3245	0.6107	1.3082	2.2854	1.7592	1.6054	-1.6229	-0.7924
105.4688	-1.5782	-1.1777	-1.546	-1.1888	-1.2002	-1.2383	0.4944	-0.0128	2.1782	1.7437	2.1404	1.425	-0.927	-2.0095	-1.4126	-1.597	-2.0954	-1.2373	-1.7906	-1.9254	-2.0074	-1.5096	-1.5984	0.1272	1.0137	1.8724	1.147	1.5572	-1.7228	-0.9349
109.375	-1.5608	-1.1983	-1.6054	-1.2285	-1.2445	-1.2021	0.5344	0.078	2.3468	1.9058	2.3459	1.6662	-0.9626	-2.0354	-1.4813	-1.6638	-2.1667	-1.3606	-1.9089	-2.0123	-2.0585	-1.6389	-1.7615	-0.2954	0.7183	1.3657	0.5005	1.4354	-1.7101	-0.9677
113.2812	-1.3984	-1.0781	-1.5258	-1.1356	-1.1624	-1.0744	0.6179	0.1551	2.4181	2.0443	2.4402	1.8566	-0.8541	-1.8764	-1.3857	-1.5417	-2.0398	-1.3318	-1.8397	-1.9015	-1.9123	-1.5911	-1.7699	-0.5935	0.4607	0.7999	-0.1064	1.2576	-1.5645	-0.861
117.1875	-1.073	-0.7899	-1.2839	-0.8804	-0.9239	-0.8383	0.765	0.2269	2.3943	2.1685	2.4366	2.0031	-0.5736	-1.5138	-1.1031	-1.2016	-1.6984	-1.1273	-1.5588	-1.5625	-1.5448	-1.3472	-1.5976	-0.729	0.2673	0.2051	-0.6192	1.0402	-1.2774	-0.596
121.0938	-0.5791	-0.3245	-0.8704	-0.4502	-0.5168	-0.487	0.9862	0.3004	2.2864	2.2844	2.3512	2.1099	-0.1169	-0.9533	-0.6321	-0.6392	-1.1512	-0.746	-1.0684	-0.9914	-0.9562	-0.9148	-1.2393	-0.6939	0.1481	-0.3971	-1.0094	0.7952	-0.8533	-0.1683
125	0.0731	0.3057	-0.2911	0.1463	0.0504	-0.0256	1.2806	0.3777	2.1127	2.3935	2.1972	2.175	0.4965	-0.2239	0.0075	0.124	-0.4278	-0.2075	-0.3944	-0.2112	-0.1716	-0.3248	-0.7117	-0.5087	0.0974	-0.9934	-1.2758	0.5283	-0.3083	0.4106
128.9062	0.8572	1.0679	0.432	0.88	0.7496	0.5293	1.6367	0.4554	1.8953	2.4923	1.9818	2.1927	1.2274	0.6276	0.7788	1.0441	0.4288	0.4522	0.4198	0.7315	0.7638	0.3766	-0.0496	-0.2144	0.0976	-1.5757	-1.4394	0.2417	0.3316	1.1135
132.8125	1.7322	1.9144	1.2637	1.7065	1.5378	1.1522	2.0348	0.526	1.6569	2.5752	1.7072	2.1578	2.0254	1.5454	1.6342	2.0619	1.3698	1.1889	1.3222	1.7747	1.7916	1.1373	0.7005	0.1391	0.1268	-2.1348	-1.5313	-0.0602	1.0332	1.9023
136.7188	2.6473	2.7926	2.1597	2.5751	2.3657	1.8131	2.4524	0.5808	1.418	2.638	1.3753	2.0726	2.8391	2.4746	2.5239	3.1142	2.3494	1.9588	2.2617	2.8516	2.8507	1.9094	1.49	0.5072	0.1668	-2.6539	-1.5791	-0.3657	1.7612	2.7341
140.625	3.55	3.6556	3.0726	3.4387	3.1869	2.4823	2.8696	0.6143	1.1955	2.682	0.9942	1.9512	3.6266	3.3705	3.4043	4.1445	3.3304	2.7271	3.1961	3.9024	3.8871	2.6573	2.2783	0.8623	0.2101	-3.1058	-1.594	-0.6516	2.482	3.5695
144.5312	4.3943	4.4704	3.9571	4.2625	3.9664	3.1358	3.2734	0.6272	1.0011	2.7168	0.5844	1.8201	4.3628	4.2051	4.245	5.1115	4.2874	3.4727	4.0964	4.8834	4.8615	3.3622	3.0391	1.2007	0.2628	-3.4534	-1.5631	-0.8842	3.1686	4.3781
148.4375	5.1478	5.2215	4.7741	5.0271	4.6842	3.7567	3.6596	0.6282	0.8418	2.7604	0.1798	1.7147	5.0415	4.9685	5.031	5.993	5.2058	4.1893	4.9482	5.7709	5.7529	4.021	3.7623	1.5424	0.3427	-3.6571	-1.4517	-1.0246	3.8023	5.1409
152.3438	5.7944	5.908	5.4925	5.7275	5.3354	4.3361	4.033	0.6329	0.7204	2.8363	-0.1748	1.6707	5.6722	5.6659	5.7605	6.7839	6.0777	4.8804	5.7473	6.56	6.5568	4.6421	4.4502	1.9232	0.4731	-3.6828	-1.2118	-1.0366	4.3731	5.8484
156.25	6.3332	6.5375	6.09	6.3675	5.9253	4.8703	4.4032	0.6605	0.6365	2.9688	-0.4316	1.7163	6.2729	6.3103	6.4395	7.4898	6.8966	5.5528	6.4945	7.2585	7.2801	5.2375	5.1093	2.3823	0.675	-3.5113	-0.7972	-0.8955	4.8771	6.4964
160.1562	6.7731	7.1174	6.5539	6.9521	6.463	5.3574	4.7805	0.7295	0.5886	3.1779	-0.5495	1.8649	6.8609	6.9148	7.074	8.1184	7.6519	6.2082	7.1885	7.8783	7.9328	5.8154	5.7416	2.9491	0.96	-3.1431	-0.1783	-0.5943	5.3131	7.0806
164.0625	7.1261	7.6477	6.8798	7.4809	6.9541	5.7935	5.1707	0.8525	0.5764	3.4744	-0.5028	2.1125	7.4454	7.4848	7.6633	8.6721	8.3266	6.8383	7.8221	8.4274	8.5212	6.3741	6.338	3.6324	1.3262	-2.5995	0.6466	-0.1455	5.6788	7.5911
167.9688	7.3995	8.1168	7.0701	7.9436	7.396	6.1707	5.5717	1.0319	0.6027	3.8568	-0.287	2.439	8.0232	8.0147	8.1964	9.1432	8.8976	7.423	8.3802	8.9047	9.043	6.9005	6.8759	4.4156	1.7575	-1.9178	1.6479	0.4207	5.968	8.0109
171.875	7.5925	8.5023	7.1324	8.3203	7.7767	6.477	5.9723	1.258	0.6736	4.3106	0.0811	2.8136	8.579	8.4881	8.6527	9.5147	9.3394	7.9334	8.8423	9.2987	9.4867	7.3715	7.3235	5.2587	2.2269	-1.1453	2.7677	1.0625	6.1702	8.3162
175.7812	7.696	8.7751	7.0771	8.5852	8.0767	6.6979	6.3547	1.5096	0.7969	4.8102	0.5667	3.2014	9.0895	8.8823	9.006	9.7643	9.6296	8.3379	9.187	9.5906	9.8347	7.76	7.6465	6.1066	2.7014	-0.3315	3.9313	1.7332	6.2727	8.4817
179.6875	7.6975	8.9068	6.9185	8.7137	8.275	6.8212	6.6983	1.7589	0.9779	5.3234	1.1233	3.57	9.5295	9.1749	9.2321	9.8714	9.7548	8.6104	9.3978	9.761	10.0688	8.0412	7.8185	6.9005	3.1486	0.4777	5.0601	2.3878	6.2643	8.4882
183.5938	7.5879	8.8782	6.6745	8.6897	8.3551	6.8404	6.9855	1.9778	1.2155	5.8164	1.701	3.8945	9.8771	9.3501	9.3153	9.8248	9.714	8.7365	9.4676	9.7961	10.1762	8.1992	7.8294	7.5895	3.5425	1.2444	6.0851	2.9896	6.1404	8.33
187.5	7.3679	8.6846	6.3671	8.5115	8.3106	6.7579	7.205	2.1441	1.4976	6.2588	2.252	4.1603	10.1175	9.4024	9.2531	9.6271	9.5197	8.7171	9.4003	9.6933	10.1533	8.2307	7.6894	8.1388	3.8673	1.9407	6.9569	3.5139	5.9051	8.0197
191.4062	7.0517	8.3395	6.0205	8.1941	8.1469	6.5854	7.353	2.2458	1.8015	6.6273	2.7359	4.3622	10.244	9.3375	9.058	9.2964	9.1953	8.5681	9.2103	9.4627	10.0072	8.1454	7.4289	8.5333	4.1184	2.5495	7.65	3.9493	5.573	7.5883
195.3125	6.6653	7.8733	5.6571	7.768	7.8809	6.3408	7.4321	2.2808	2.0959	6.9063	3.1219	4.5029	10.257	9.1703	8.7546	8.8633	8.771	8.3168	8.9191	9.1259	9.7541	7.9637	7.0922	8.7766	4.3015	3.0635	8.1619	4.297	5.167	7.0796
199.2188	6.2419	7.3285	5.2935	7.2741	7.5374	6.0452	7.4482	2.2547	2.3475	7.0884	3.3909	4.5883	10.1626	8.9211	8.3757	8.3665	8.2802	7.9974	8.5531	8.7134	9.4166	7.7123	6.7293	8.8869	4.4299	3.4831	8.5086	4.5663	4.7151	6.5418
203.125	5.8155	6.7535	4.9389	6.7572	7.1449	5.7182	7.4075	2.1763	2.5279	7.1732	3.5361	4.6253	9.9716	8.6125	7.9573	7.847	7.7566	7.6452	8.1402	8.2595	9.0204	7.4203	6.385	8.8921	4.5211	3.8143	8.7181	4.7709	4.2465	6.0182
207.0312	5.4148	6.1953	4.5963	6.2584	6.7316	5.3763	7.3156	2.055	2.6191	7.1665	3.5637	4.6198	9.699	8.2673	7.5338	7.3427	7.2329	7.2919	7.709	7.7988	8.5921	7.1151	6.0905	8.8244	4.5943	4.0672	8.8247	4.9242	3.7876	5.5399
210.9375	5.0605	5.6926	4.267	5.8098	6.3219	5.032	7.1775	1.9008	2.616	7.0806	3.4924	4.5776	9.3643	7.907	7.1342	6.8849	6.7386	6.9629	7.2868	7.3622	8.1571	6.8203	5.8596	8.7166	4.6673	4.2554	8.8637	5.0378	3.3601	5.1237
214.8438	4.7636	5.2715	3.9539	5.4306	5.9348	4.695	6.9997	1.7245	2.5252	6.934	3.3507	4.5056	8.9906	7.5508	6.7804	6.4958	6.2986	6.6749	6.8974	6.9742	7.7387	6.5534	5.6883	8.5988	4.7553	4.3956	8.8676	5.121	2.979	4.7734
218.75	4.5272	4.943	3.6644	5.126	5.5827	4.3735	6.7903	1.538	2.3616	6.7496	3.1718	4.4134	8.6033	7.2148	6.4852	6.1866	5.9304	6.4359	6.5591	6.65	7.3558	6.3252	5.5608	8.4953	4.8681	4.506	8.8633	5.1811	2.6529	4.4841
222.6562	4.3481	4.7025	3.4089	4.8884	5.2709	4.0739	6.5581	1.3528	2.1444	6.5509	2.9879	4.3123	8.2258	6.9104	6.2521	5.9572	5.642	6.2457	6.2824	6.3942	7.0213	6.14	5.4564	8.4222	5.0095	4.6044	8.8691	5.2244	2.3834	4.2475
226.5625	4.2189	4.533	3.1977	4.7009	4.9981	3.799	6.311	1.176	1.894	6.3575	2.8238	4.2141	7.8764	6.6425	6.0763	5.7965	5.4305	6.0982	6.0688	6.2006	6.7408	5.9963	5.3571	8.3858	5.1757	4.705	8.8931	5.2557	2.166	4.0553
230.4688	4.1304	4.4087	3.0368	4.5409	4.7573	3.5471	6.0531	1.0072	1.6304	6.1799	2.6931	4.1282	7.5644	6.4096	5.9466	5.6852	5.2847	5.9835	5.9125	6.0541	6.5122	5.889	5.2526	8.3823	5.3568	4.8159	8.9334	5.2783	1.992	3.9002
234.375	4.0724	4.3009	2.9244	4.3856	4.5379	3.3115	5.7843	0.8379	1.3717	6.0177	2.5969	4.0601	7.2898	6.2045	5.849	5.5989	5.1882	5.8913	5.8032	5.9345	6.3267	5.8111	5.1414	8.3995	5.5384	4.938	8.9797	5.2935	1.8507	3.7761
238.2812	4.0358	4.1846	2.8497	4.2168	4.3292	3.0838	5.5022	0.6551	1.1338	5.861	2.5256	4.0102	7.0455	6.0167	5.7697	5.5141	5.1252	5.8134	5.7294	5.8216	6.1718	5.7551	5.0296	8.4202	5.7045	5.0654	9.0172	5.301	1.7332	3.6774
242.1875	4.0128	4.0441	2.7956	4.0258	4.1246	2.8581	5.2058	0.4478	0.9291	5.6958	2.4636	3.9753	6.8223	5.8369	5.699	5.4129	5.0839	5.7455	5.6811	5.701	6.0353	5.715	4.928	8.4271	5.8412	5.1885	9.0322	5.2994	1.6347	3.599
246.0938	3.9979	3.877	2.7437	3.817	3.9253	2.6361	4.9003	0.2138	0.7664	5.5112	2.3945	3.95	6.6147	5.6613	5.6333	5.2884	5.0586	5.6884	5.6524	5.5676	5.9098	5.6873	4.8489	8.4089	5.939	5.2968	9.0173	5.2879	1.5553	3.5378
250	3.9881	3.6955	2.681	3.6081	3.7428	2.4301	4.6005	-0.0352	0.651	5.3061	2.3073	3.9298	6.4269	5.4952	5.5752	5.1465	5.0501	5.6473	5.6415	5.4284	5.7956	5.6723	4.8043	8.3637	5.9953	5.3826	8.9748	5.2682	1.4986	3.4936
253.9062	3.9827	3.5243	2.6048	3.4275	3.5985	2.2623	4.3323	-0.274	0.5865	5.0944	2.2018	3.9128	6.2749	5.3546	5.5329	5.0051	5.0632	5.6304	5.6505	5.3012	5.7024	5.6742	4.8031	8.3011	6.0143	5.4435	8.917	5.2451	1.4688	3.4683
257.8125	3.9829	3.3946	2.5244	3.308	3.5195	2.1603	4.1301	-0.4677	0.5768	4.9039	2.0917	3.9017	6.1859	5.2642	5.5173	4.8902	5.1036	5.6462	5.6838	5.2101	5.6473	5.7004	4.8486	8.2398	6.0061	5.4817	8.8638	5.2264	1.4676	3.465
261.7188	3.9902	3.3361	2.4593	3.2785	3.5326	2.1503	4.0308	-0.5787	0.6271	4.773	2.0043	3.9033	6.192	5.2525	5.5383	4.828	5.1749	5.7	5.7452	5.1794	5.6509	5.7585	4.9372	8.2027	5.9833	5.5022	8.8369	5.2215	1.4914	3.4834
265.625	4.0049	3.3683	2.4328	3.3557	3.6556	2.2483	4.0666	-0.5757	0.7432	4.7418	1.9767	3.9283	6.3226	5.3442	5.6009	4.8369	5.2751	5.7916	5.8352	5.225	5.7302	5.8529	5.0566	8.2096	5.9569	5.5095	8.8532	5.2395	1.5305	3.5176
269.5312	4.0238	3.4932	2.4631	3.5365	3.8903	2.453	4.2558	-0.4405	0.9296	4.8431	2.047	3.9888	6.5936	5.5508	5.7011	4.9194	5.3947	5.9119	5.9468	5.3477	5.891	5.9802	5.1868	8.2707	5.9326	5.5054	8.9187	5.287	1.5702	3.5534
273.4375	4.0384	3.6911	2.5553	3.7955	4.2171	2.7425	4.596	-0.1741	1.1866	5.093	2.244	4.0959	6.9992	5.8641	5.8241	5.0576	5.5149	6.043	6.0641	5.5289	6.1222	6.1264	5.3018	8.3819	5.9087	5.4887	9.0259	5.3664	1.593	3.57
277.3438	4.0337	3.9223	2.696	4.0874	4.5953	3.0747	5.0602	0.2023	1.5081	5.4852	2.5778	4.2572	7.5079	6.2523	5.9436	5.2139	5.6082	6.1585	6.1615	5.7312	6.3934	6.2665	5.3731	8.5231	5.877	5.4564	9.1535	5.4753	1.5814	3.5432
281.25	3.9899	4.133	2.8535	4.3534	4.9678	3.3944	5.5979	0.6491	1.8824	5.9902	3.0348	4.4738	8.0635	6.6623	6.0254	5.337	5.6416	6.2275	6.2066	5.9032	6.6572	6.3669	5.3739	8.6614	5.8261	5.407	9.2714	5.6067	1.5203	3.4525
285.1562	3.8846	4.2666	2.9848	4.5333	5.2709	3.6436	6.1428	1.1153	2.2935	6.5589	3.5791	4.7385	8.5936	7.0279	6.033	5.3719	5.583	6.2197	6.1665	5.9899	6.8574	6.392	5.2845	8.7575	5.7459	5.3427	9.3478	5.7505	1.3995	3.2855
289.0625	3.6981	4.2759	3.0462	4.5778	5.4471	3.7733	6.6241	1.5479	2.7237	7.1319	4.1591	5.0351	9.0221	7.2822	5.9353	5.2724	5.4082	6.1128	6.016	5.9442	6.9403	6.3128	5.0962	8.7756	5.6324	5.2703	9.357	5.8945	1.2141	3.0418
292.9688	3.418	4.1344	3.0045	4.4595	5.4571	3.7549	6.9799	1.9023	3.1553	7.6499	4.7176	5.3392	9.2846	7.3717	5.7142	5.0123	5.1081	5.8974	5.7444	5.7377	6.8667	6.1145	4.8139	8.6917	5.4898	5.2001	9.2859	6.0258	0.9648	2.7328
296.875	3.043	3.8422	2.8451	4.1791	5.2881	3.5859	7.1689	2.1512	3.5701	8.0651	5.2014	5.6207	9.3409	7.2668	5.3687	4.5914	4.6915	5.5795	5.3599	5.3673	6.6207	5.8016	4.4553	8.4998	5.3301	5.1424	9.1362	6.1309	0.6574	2.3783
300.7812	2.5831	3.4252	2.5742	3.7649	4.9568	3.2906	7.1776	2.2887	3.9492	8.3486	5.5687	5.8476	9.1822	6.968	4.9153	4.0355	4.1837	5.1794	4.888	4.8561	6.2135	5.3978	4.047	8.2128	5.1688	5.1037	8.9221	6.1952	0.3011	2.0012
304.6875	2.059	2.929	2.2169	3.2656	4.5048	2.9134	7.0206	2.3286	4.2728	8.4939	5.792	5.9905	8.8313	6.5051	4.385	3.3912	3.6218	4.7269	4.3668	4.2481	5.6813	4.9407	3.6193	7.8585	5.0195	5.0822	8.6641	6.2034	-0.0919	1.6227
308.5938	1.4995	2.4077	1.8108	2.7398	3.9897	2.509	6.7355	2.2986	4.5219	8.5158	5.8607	6.0282	8.3371	5.9304	3.8172	2.716	3.0474	4.2555	3.8385	3.5996	5.0775	4.4748	3.2006	7.4721	4.8899	5.0664	8.3818	6.1404	-0.5068	1.2591
312.5	0.9379	1.9136	1.3999	2.2437	3.4738	2.1303	6.3733	2.2324	4.6823	8.4443	5.7799	5.9521	7.7635	5.3086	3.2533	2.0686	2.4995	3.7971	3.3428	2.9692	4.4632	4.0428	2.8148	7.0883	4.7789	5.0364	8.0878	5.9948	-0.9262	0.9214
316.4062	0.4093	1.4893	1.0273	1.8229	3.0136	1.819	5.9889	2.1612	4.7478	8.3171	5.5703	5.7692	7.1779	4.7054	2.7314	1.5005	2.01	3.378	2.9106	2.4094	3.8972	3.6792	2.4793	6.7345	4.6784	4.9686	7.7855	5.7624	-1.3304	0.6174
320.3125	-0.0539	1.1635	0.7291	1.5074	2.6516	1.6003	5.6313	2.1085	4.7237	8.1718	5.2658	5.501	6.6406	4.1776	2.2821	1.0504	1.6013	3.0177	2.562	1.9608	3.4277	3.4069	2.2059	6.4274	4.5768	4.8429	7.4709	5.4492	-1.6979	0.3546
324.2188	-0.4265	0.9505	0.5296	1.3112	2.4134	1.4818	5.3375	2.088	4.6266	8.0389	4.9093	5.1809	6.1968	3.7666	1.9271	0.7418	1.2885	2.7297	2.3075	1.6495	3.087	3.237	2.0025	6.1737	4.4644	4.648	7.1378	5.0728	-2.0082	0.1413
328.125	-0.6938	0.8518	0.438	1.2345	2.3071	1.4577	5.1308	2.1047	4.4816	7.9393	4.5482	4.8471	5.8735	3.4947	1.6794	0.5838	1.0823	2.5235	2.1509	1.4867	2.8903	3.1703	1.8738	5.9726	4.3371	4.3857	6.7842	4.6606	-2.2447	-0.0135
332.0312	-0.8549	0.8594	0.4477	1.2678	2.3259	1.514	5.0203	2.1574	4.3187	7.883	4.228	4.5366	5.6799	3.3661	1.5434	0.5716	0.9904	2.4053	2.0917	1.47	2.8359	3.2003	1.8214	5.8198	4.1983	4.0717	6.4169	4.2461	-2.3973	-0.1028
335.9375	-0.922	0.9572	0.5381	1.3942	2.4514	1.6336	5.0043	2.2405	4.1681	7.8718	3.9873	4.2783	5.6102	3.3692	1.5152	0.6892	1.0164	2.3775	2.1258	1.5846	2.9075	3.3141	1.8422	5.7106	4.0589	3.7322	6.0531	3.8645	-2.4651	-0.1249
339.8438	-0.9183	1.1235	0.6784	1.5918	2.6575	1.7998	5.0726	2.3454	4.0562	7.9012	3.8534	4.09	5.6482	3.4815	1.582	0.9111	1.1551	2.4361	2.2441	1.8057	3.0786	3.4934	1.9274	5.642	3.9337	3.3987	5.7181	3.547	-2.457	-0.0864
343.75	-0.8737	1.3331	0.8336	1.8353	2.9141	1.9976	5.2099	2.4618	4.0019	7.9629	3.8394	3.977	5.7721	3.6745	1.723	1.2048	1.3886	2.5693	2.4309	2.1011	3.3162	3.7156	2.0622	5.613	3.8379	3.1017	5.4409	3.3167	-2.3903	-0.0029
347.6562	-0.818	1.5601	0.9716	2.099	3.1909	2.2133	5.3986	2.5794	4.0148	8.0477	3.9442	3.9332	5.9593	3.9194	1.9115	1.5355	1.6856	2.7573	2.6649	2.4353	3.5868	3.9549	2.2274	5.6247	3.7831	2.8653	5.2484	3.1848	-2.2885	0.1025
351.5625	-0.7756	1.7819	1.0699	2.3594	3.4613	2.4345	5.6213	2.6892	4.0946	8.1459	4.1525	3.9456	6.1899	4.1913	2.1188	1.8702	2.006	2.9748	2.9213	2.7748	3.8616	4.1863	2.4015	5.6786	3.7744	2.7049	5.1611	3.1505	-2.1775	0.2035
355.4688	-0.7613	1.9825	1.1196	2.5991	3.7061	2.6494	5.8629	2.7859	4.2325	8.2486	4.4385	3.9979	6.4496	4.4729	2.3195	2.1825	2.309	3.1956	3.1767	3.0932	4.1208	4.3888	2.5637	5.7756	3.8096	2.6269	5.1892	3.2023	-2.0814	0.2748
359.375	-0.7789	2.1545	1.1263	2.8088	3.9154	2.8483	6.1112	2.8682	4.413	8.3479	4.7694	4.0754	6.7293	4.7544	2.4949	2.4559	2.5614	3.3972	3.413	3.3742	4.3554	4.5483	2.6964	5.9137	3.8798	2.6301	5.3309	3.3224	-2.0191	0.2972
363.2812	-0.823	2.2984	1.1065	2.9871	4.0882	3.0239	6.3568	2.9388	4.6171	8.4362	5.1101	4.1677	7.0236	5.0317	2.6353	2.6827	2.7442	3.5634	3.6187	3.6118	4.5655	4.6589	2.7866	6.0865	3.9717	2.7061	5.5713	3.4904	-2.0018	0.2606
367.1875	-0.8822	2.4195	1.082	3.1383	4.2297	3.1726	6.5912	3.003	4.8248	8.5064	5.4275	4.2693	7.3274	5.3023	2.7384	2.8628	2.8536	3.6859	3.7884	3.8075	4.7562	4.7212	2.8273	6.2828	4.0703	2.8392	5.8838	3.6861	-2.0321	0.1654
371.0938	-0.9438	2.5241	1.0734	3.2677	4.3476	3.2948	6.8057	3.0674	5.0169	8.5518	5.6937	4.3775	7.6319	5.5609	2.8069	2.9987	2.8978	3.7626	3.92	3.966	4.9326	4.7403	2.8181	6.4864	4.1618	3.007	6.2326	3.8911	-2.1044	0.0218
375	-0.9977	2.6157	1.0943	3.3777	4.4471	3.3932	6.9886	3.1371	5.1781	8.5663	5.8884	4.4895	7.922	5.796	2.8444	3.0923	2.8924	3.7957	4.0122	4.09	5.0945	4.7222	2.7635	6.6783	4.2356	3.181	6.5758	4.0896	-2.2077	-0.1542
378.9062	-1.0399	2.6918	1.147	3.4641	4.5277	3.4709	7.1253	3.2136	5.2978	8.5449	6.0002	4.5998	8.1757	5.9892	2.8527	3.1423	2.854	3.7888	4.0626	4.1773	5.2345	4.6716	2.672	6.8377	4.2851	3.3311	6.8716	4.2679	-2.3292	-0.344
382.8125	-1.0749	2.7437	1.2206	3.5165	4.5825	3.5285	7.1992	3.2938	5.3719	8.4842	6.0273	4.6985	8.3664	6.1173	2.83	3.1434	2.7953	3.7451	4.0671	4.2199	5.3385	4.5904	2.5537	6.9454	4.3077	3.4299	7.0838	4.4148	-2.4581	-0.5314
386.7188	-1.1151	2.7578	1.2923	3.5196	4.5995	3.5623	7.1941	3.3693	5.4017	8.3828	5.9774	4.7721	8.4666	6.1572	2.7709	3.0883	2.7221	3.6667	4.0205	4.2059	5.3885	4.4779	2.4188	6.9862	4.3034	3.4582	7.1881	4.5206	-2.5882	-0.7055
390.625	-1.1777	2.7195	1.3319	3.4583	4.5652	3.5641	7.0981	3.4284	5.3931	8.2416	5.8658	4.8056	8.4541	6.0906	2.6681	2.9699	2.6322	3.5544	3.9178	4.1231	5.3675	4.331	2.2763	6.9514	4.2745	3.409	7.1755	4.5775	-2.7191	-0.8614
394.5312	-1.2804	2.6165	1.3089	3.3219	4.4682	3.5226	6.9072	3.4582	5.3544	8.0644	5.712	4.7861	8.3159	5.9092	2.5148	2.7848	2.5169	3.4081	3.7562	3.9626	5.2633	4.1462	2.1334	6.84	4.2245	3.2892	7.053	4.58	-2.8542	-0.9996
398.4375	-1.4352	2.4433	1.2001	3.108	4.303	3.4264	6.6273	3.4473	5.2938	7.8575	5.5348	4.7059	8.0517	5.6171	2.3081	2.5359	2.3648	3.2286	3.5367	3.723	5.0721	3.9212	1.994	6.6584	4.1585	3.1185	6.8413	4.526	-2.9975	-1.1242
402.3438	-1.6436	2.203	0.9977	2.8246	4.0722	3.2682	6.2752	3.3883	5.2167	7.6293	5.3479	4.5638	7.6742	5.2304	2.0513	2.2339	2.1674	3.0188	3.266	3.4119	4.7992	3.6573	1.8593	6.4193	4.083	2.926	6.5686	4.4181	-3.1503	-1.2401
406.25	-1.8944	1.9087	0.7129	2.4898	3.7866	3.0481	5.8763	3.2792	5.1244	7.3893	5.1568	4.3648	7.2066	4.7744	1.7562	1.8971	1.9247	2.7854	2.9584	3.0465	4.4587	3.3614	1.7282	6.1389	4.0062	2.7437	6.2644	4.2631	-3.3081	-1.3502
410.1562	-2.1637	1.5822	0.3761	2.1294	3.4645	2.7761	5.4615	3.1242	5.0135	7.1458	4.9591	4.1182	6.6798	4.2803	1.442	1.5494	1.648	2.5395	2.6349	2.6515	4.0714	3.0474	1.6001	5.8357	3.937	2.5995	5.9549	4.0707	-3.4591	-1.4538
414.0625	-2.4193	1.2508	0.0311	1.7736	3.1293	2.4717	5.0617	2.9336	4.8782	6.9051	4.7469	3.835	6.1273	3.7803	1.1338	1.2175	1.3601	2.2971	2.3215	2.2561	3.6625	2.7362	1.478	5.5285	3.8851	2.5112	5.6588	3.8526	-3.5856	-1.5444
417.9688	-2.6273	0.9425	-0.2748	1.4519	2.806	2.1606	4.7037	2.7223	4.7128	6.6699	4.5116	3.5265	5.5819	3.3038	0.8578	0.9256	1.0906	2.0769	2.0448	1.8891	3.258	2.4532	1.371	5.2351	3.8588	2.4825	5.3867	3.6204	-3.6669	-1.6103
421.875	-2.759	0.6812	-0.5004	1.188	2.5175	1.8701	4.4061	2.5073	4.5161	6.4398	4.2476	3.2042	5.0719	2.8747	0.6365	0.6917	0.8687	1.8968	1.8274	1.5745	2.8818	2.2238	1.2935	4.971	3.8635	2.5039	5.1414	3.3855	-3.6841	-1.6368
425.7812	-2.7974	0.4821	-0.6203	0.996	2.281	1.624	4.1776	2.3055	4.2931	6.2118	3.9548	2.8794	4.6189	2.5095	0.4841	0.5241	0.7165	1.7707	1.6832	1.3277	2.5529	2.0674	1.2616	4.7467	3.9002	2.5563	4.9197	3.1582	-3.6258	-1.6088
429.6875	-2.7403	0.35	-0.6283	0.8783	2.106	1.438	4.0172	2.1297	4.0567	5.9823	3.6396	2.564	4.2377	2.2173	0.4045	0.4208	0.6446	1.7051	1.6153	1.1537	2.2836	1.9936	1.2877	4.5677	3.9643	2.6171	4.7157	2.9472	-3.4914	-1.5148
433.5938	-2.6007	0.2795	-0.5378	0.827	1.9937	1.3175	3.9167	1.988	3.8253	5.7486	3.314	2.2704	3.9368	2.0009	0.3915	0.3708	0.6514	1.6984	1.6167	1.0481	2.0797	1.9994	1.3757	4.4343	4.0463	2.6662	4.5241	2.759	-3.2924	-1.3508
437.5	-2.4047	0.258	-0.3769	0.8261	1.9385	1.258	3.8633	1.8819	3.6202	5.5106	2.9936	2.0099	3.7203	1.8579	0.4315	0.3583	0.7256	1.7419	1.6733	0.9994	1.9403	2.0704	1.5184	4.3437	4.1333	2.6903	4.3439	2.597	-3.0511	-1.123
441.4062	-2.1881	0.2688	-0.1824	0.8557	1.9296	1.2467	3.8431	1.8077	3.4606	5.2713	2.6957	1.7911	3.5887	1.7824	0.5058	0.3654	0.8498	1.822	1.7665	0.9914	1.8594	2.1841	1.6993	4.2915	4.2111	2.6862	4.1803	2.462	-2.796	-0.848
445.3125	-1.9919	0.2939	0.007	0.8952	1.9533	1.2652	3.8427	1.7567	3.3599	5.036	2.4374	1.6195	3.5394	1.7656	0.5931	0.3751	1.0028	1.9225	1.8759	1.006	1.8265	2.314	1.8956	4.2732	4.2675	2.6614	4.0436	2.3534	-2.5568	-0.5519
449.2188	-1.8561	0.3165	0.1567	0.9266	1.9947	1.2938	3.85	1.7182	3.3225	4.8108	2.2339	1.4972	3.5655	1.7957	0.6724	0.3727	1.1623	2.0265	1.9817	1.0251	1.8277	2.4341	2.0836	4.2839	4.2942	2.632	3.9464	2.2717	-2.359	-0.2657
453.125	-1.813	0.322	0.2428	0.9362	2.0394	1.3143	3.8555	1.6818	3.342	4.6014	2.0966	1.4234	3.6557	1.8589	0.7242	0.3469	1.3064	2.1181	2.0663	1.0323	1.8475	2.5238	2.2422	4.3193	4.2895	2.6174	3.9001	2.2193	-2.2197	-0.0201
457.0312	-1.8808	0.3006	0.2556	0.9167	2.076	1.3144	3.8524	1.6405	3.4012	4.4115	2.0294	1.395	3.7936	1.9404	0.734	0.2911	1.4165	2.1839	2.1173	1.0156	1.871	2.57	2.3546	4.3758	4.2591	2.6344	3.9116	2.1998	-2.145	0.1609
460.9375	-2.0598	0.2487	0.2008	0.8682	2.0974	1.2897	3.8371	1.5929	3.4738	4.2421	2.0265	1.4063	3.959	2.026	0.6939	0.2037	1.4788	2.2141	2.1278	0.969	1.8868	2.5685	2.4097	4.4501	4.2147	2.6911	3.9818	2.2164	-2.129	0.2645
464.8438	-2.3311	0.1689	0.0971	0.7973	2.1012	1.2444	3.8092	1.5428	3.5281	4.091	2.0698	1.4485	4.1299	2.1037	0.6039	0.089	1.4858	2.2034	2.0971	0.8935	1.8881	2.5224	2.404	4.5385	4.1711	2.7852	4.1044	2.2681	-2.1559	0.291
468.75	-2.6595	0.0701	-0.0296	0.7153	2.0896	1.1891	3.7704	1.4974	3.5324	3.9522	2.1303	1.5088	4.2846	2.1642	0.4718	-0.0435	1.4367	2.1519	2.0297	0.7966	1.8735	2.4399	2.3416	4.6349	4.1417	2.904	4.2663	2.348	-2.2026	0.2528
472.6562	-3.0001	-0.0351	-0.1515	0.6361	2.0681	1.1381	3.7241	1.4631	3.4619	3.8166	2.1713	1.5712	4.4044	2.2017	0.3121	-0.1803	1.3369	2.0644	1.934	0.6904	1.846	2.3316	2.2344	4.7294	4.1343	3.0283	4.4481	2.443	-2.2441	0.1711
476.5625	-3.306	-0.1322	-0.2444	0.5725	2.0433	1.1048	3.6735	1.4425	3.3037	3.6728	2.156	1.6176	4.4763	2.2144	0.1434	-0.3058	1.1989	1.9507	1.822	0.5894	1.8124	2.209	2.0994	4.8087	4.1488	3.1367	4.627	2.536	-2.2581	0.0702
480.4688	-3.5374	-0.2077	-0.2906	0.5348	2.0219	1.0986	3.6212	1.4327	3.0604	3.5092	2.0552	1.6308	4.4951	2.2047	-0.014	-0.4039	1.0417	1.8242	1.7087	0.5082	1.781	2.0834	1.9559	4.8582	4.1772	3.2099	4.7796	2.6092	-2.2298	-0.0272
484.375	-3.6684	-0.2507	-0.281	0.529	2.0096	1.122	3.5684	1.426	2.75	3.3157	1.8541	1.5975	4.4642	2.1786	-0.1408	-0.4607	0.8894	1.7003	1.6102	0.4595	1.7607	1.9667	1.8225	4.8661	4.2062	3.234	4.8873	2.6479	-2.1545	-0.1045
488.2812	-3.6906	-0.2539	-0.2157	0.5566	2.0105	1.1704	3.5144	1.413	2.402	3.0867	1.5562	1.5114	4.3955	2.1453	-0.222	-0.4663	0.7675	1.5953	1.5419	0.4524	1.7593	1.8709	1.7151	4.8282	4.2217	3.2024	4.9401	2.6434	-2.0378	-0.1519
492.1875	-3.6135	-0.2147	-0.1045	0.6151	2.0271	1.2331	3.4575	1.385	2.0512	2.8228	1.183	1.3747	4.3065	2.1152	-0.2484	-0.4168	0.6984	1.5232	1.5157	0.4914	1.782	1.808	1.6466	4.7506	4.2131	3.1169	4.9395	2.5942	-1.8939	-0.1661
496.0938	-3.4617	-0.1353	0.0349	0.6981	2.0599	1.296	3.3949	1.3378	1.7315	2.5323	0.771	1.198	4.2164	2.0976	-0.219	-0.3153	0.6961	1.4942	1.5375	0.5754	1.8303	1.7883	1.6257	4.6491	4.1766	2.9876	4.8976	2.5053	-1.7417	-0.1487
500	-3.2693	-0.0223	0.1789	0.7967	2.1066	1.3449	3.323	1.2715	1.4697	2.2299	0.3646	0.9972	4.141	2.0984	-0.141	-0.1718	0.7626	1.5117	1.606	0.6974	1.9007	1.8183	1.6555	4.5458	4.1164	2.8316	4.8329	2.3873	-1.6016	-0.1045
503.9062	-3.0733	0.1133	0.3034	0.8996	2.1628	1.3687	3.2374	1.1904	1.2813	1.9354	0.0086	0.7899	4.0881	2.1173	-0.0292	-0.0024	0.8867	1.5713	1.7116	0.8446	1.9845	1.8976	1.7322	4.4615	4.0425	2.67	4.7634	2.2526	-1.4914	-0.0409
507.8125	-2.906	0.2567	0.3883	0.9942	2.2212	1.3619	3.134	1.1007	1.169	1.6697	-0.2603	0.5902	4.055	2.148	0.0959	0.1729	1.0463	1.6606	1.8385	1.0003	2.069	2.0176	1.8446	4.41	3.9682	2.5243	4.6997	2.1135	-1.4231	0.0326
511.7188	-2.7894	0.3909	0.423	1.0679	2.2731	1.3256	3.0098	1.0081	1.1236	1.452	-0.4207	0.405	4.0293	2.1786	0.2125	0.3332	1.2123	1.7614	1.9674	1.1454	2.1391	2.1617	1.9751	4.3938	3.906	2.4112	4.6422	1.979	-1.4006	0.1059
515.625	-2.7318	0.4983	0.408	1.1093	2.309	1.2659	2.8642	0.9167	1.1279	1.2959	-0.4697	0.2339	3.993	2.1945	0.3004	0.4604	1.3545	1.8526	2.0784	1.2621	2.1806	2.3082	2.1022	4.4036	3.8647	2.3399	4.5813	1.8536	-1.4189	0.169
519.5312	-2.7287	0.5636	0.3547	1.1102	2.3208	1.1925	2.7007	0.8282	1.162	1.2078	-0.4227	0.0708	3.928	2.1821	0.3454	0.5413	1.4473	1.9149	2.1559	1.3363	2.1834	2.4338	2.2051	4.4225	3.8482	2.3109	4.5025	1.738	-1.465	0.2138
523.4375	-2.766	0.5766	0.2809	1.0681	2.3037	1.1165	2.5269	0.7434	1.2078	1.1855	-0.3082	-0.0908	3.8223	2.1324	0.341	0.5703	1.4754	1.935	2.1908	1.361	2.1441	2.5196	2.2672	4.4313	3.8547	2.3173	4.3921	1.6312	-1.521	0.2348
527.3438	-2.826	0.5348	0.2056	0.9868	2.2573	1.0488	2.3541	0.6635	1.2515	1.2193	-0.1607	-0.2534	3.6746	2.0439	0.2893	0.5492	1.4358	1.9079	2.1827	1.3365	2.0665	2.5545	2.2801	4.4148	3.8786	2.3477	4.2434	1.5333	-1.5682	0.2286
531.25	-2.892	0.4437	0.1435	0.8764	2.186	0.9985	2.1961	0.5915	1.2838	1.294	-0.0123	-0.4116	3.4949	1.9228	0.1997	0.4871	1.3374	1.8379	2.1389	1.2704	1.9612	2.5378	2.2451	4.3661	3.9112	2.3889	4.0594	1.4476	-1.5913	0.1948
535.1562	-2.9522	0.316	0.1012	0.7515	2.0986	0.9714	2.0665	0.5332	1.2982	1.3909	0.1123	-0.5531	3.3024	1.7823	0.0864	0.3975	1.1976	1.7366	2.0717	1.1754	1.8432	2.4786	2.1725	4.2876	3.9428	2.4279	3.8525	1.3807	-1.5818	0.1348
539.0625	-3.0007	0.1681	0.0756	0.6281	2.0056	0.9688	1.9756	0.4951	1.2885	1.491	0.199	-0.6612	3.1204	1.6391	-0.0349	0.2955	1.0377	1.6198	1.9945	1.0658	1.7277	2.3928	2.0784	4.1899	3.9639	2.4526	3.641	1.3412	-1.5382	0.0524
542.9688	-3.0367	0.0175	0.0549	0.5206	1.9171	0.9871	1.9279	0.4824	1.2472	1.5769	0.2435	-0.7205	2.9707	1.5092	-0.1493	0.1953	0.8791	1.5039	1.9192	0.9553	1.6275	2.2987	1.9805	4.0874	3.9663	2.4518	3.4445	1.3361	-1.4656	-0.0465
546.875	-3.0622	-0.1208	0.0236	0.4389	1.841	1.0182	1.9208	0.4964	1.166	1.6345	0.2499	-0.7208	2.8682	1.4046	-0.2448	0.1078	0.7407	1.4029	1.8545	0.855	1.5505	2.213	1.8933	3.9937	3.9439	2.4159	3.2787	1.3679	-1.3729	-0.1545
550.7812	-3.0799	-0.2351	-0.031	0.3881	1.7815	1.0516	1.9449	0.5334	1.0378	1.6545	0.2275	-0.6597	2.8188	1.3315	-0.313	0.0405	0.6371	1.3266	1.8054	0.7726	1.4992	2.1476	1.8261	3.9182	3.893	2.3378	3.1521	1.4322	-1.2702	-0.2633
554.6875	-3.0912	-0.3171	-0.1127	0.3685	1.7402	1.0772	1.987	0.5851	0.8599	1.6338	0.1881	-0.5434	2.8191	1.2899	-0.3495	-0.0026	0.578	1.2798	1.7737	0.7128	1.4717	2.1088	1.7821	3.8628	3.8128	2.2147	3.0648	1.5176	-1.1667	-0.3642
558.5938	-3.0955	-0.3616	-0.2122	0.3775	1.7162	1.0891	2.0327	0.6408	0.6366	1.5755	0.1433	-0.3849	2.8593	1.2753	-0.3547	-0.0202	0.5662	1.2619	1.7583	0.6781	1.4643	2.0968	1.7597	3.8228	3.7063	2.0496	3.0099	1.6076	-1.0683	-0.4485
562.5	-3.0907	-0.3659	-0.3092	0.4112	1.7083	1.0871	2.0693	0.6892	0.3795	1.4871	0.1022	-0.2017	2.9259	1.2806	-0.333	-0.0131	0.5974	1.2678	1.7557	0.6691	1.4723	2.1074	1.7536	3.7882	3.5801	1.852	2.9756	1.6838	-0.9773	-0.5086
566.4062	-3.0751	-0.3305	-0.3779	0.4646	1.714	1.0768	2.0869	0.7196	0.1058	1.3779	0.0688	-0.0139	3.0047	1.2979	-0.2925	0.0154	0.6611	1.2887	1.7609	0.684	1.492	2.1328	1.7564	3.7465	3.4433	1.6374	2.948	1.7297	-0.8917	-0.539
570.3125	-3.0494	-0.2601	-0.3955	0.5313	1.7299	1.0671	2.0775	0.7228	-0.1659	1.2552	0.0418	0.1583	3.0827	1.3191	-0.2447	0.0589	0.7422	1.3135	1.7677	0.7181	1.5195	2.1637	1.7598	3.6857	3.3068	1.4252	2.914	1.7337	-0.8067	-0.537
574.2188	-3.0182	-0.1651	-0.3501	0.6024	1.7503	1.0667	2.0342	0.6911	-0.4205	1.122	0.0142	0.296	3.1477	1.3364	-0.2025	0.1075	0.8237	1.3309	1.7698	0.7635	1.5502	2.1898	1.7558	3.5968	3.1801	1.2353	2.8627	1.6906	-0.7173	-0.5044
578.125	-2.9895	-0.0608	-0.2442	0.6668	1.7673	1.0802	1.9497	0.6188	-0.6499	0.9752	-0.0249	0.3835	3.1887	1.3426	-0.1788	0.1485	0.8894	1.3305	1.7618	0.8094	1.5788	2.201	1.7379	3.4753	3.0699	1.0837	2.7863	1.601	-0.621	-0.4475
582.0312	-2.9722	0.0356	-0.0944	0.7125	1.7716	1.1061	1.8175	0.5035	-0.8548	0.8073	-0.0882	0.4093	3.1956	1.3318	-0.1842	0.1694	0.9265	1.3053	1.7399	0.8447	1.5992	2.1888	1.7029	3.3225	2.979	0.9785	2.6809	1.4696	-0.5196	-0.3754
585.9375	-2.9716	0.1087	0.0745	0.7296	1.7551	1.1376	1.6332	0.3471	-1.0428	0.6085	-0.1866	0.3673	3.1604	1.3006	-0.2238	0.1608	0.9276	1.2522	1.7035	0.8605	1.6067	2.148	1.6515	3.1453	2.9062	0.9185	2.5465	1.3032	-0.4189	-0.2985
589.8438	-2.9862	0.1499	0.2378	0.7138	1.7134	1.1653	1.3983	0.1576	-1.2241	0.372	-0.325	0.2585	3.0793	1.249	-0.2956	0.1205	0.8928	1.1737	1.6557	0.8536	1.5997	2.0777	1.5879	2.9562	2.848	0.8933	2.3875	1.1104	-0.3266	-0.225
593.75	-3.0059	0.159	0.3776	0.6679	1.6477	1.1815	1.1218	-0.0513	-1.4062	0.0983	-0.4995	0.0915	2.9539	1.1809	-0.3893	0.0548	0.8295	1.0772	1.6029	0.8274	1.5809	1.9822	1.5186	2.7713	2.8	0.8862	2.2117	0.9014	-0.249	-0.1599
597.6562	-3.0147	0.1437	0.4864	0.6014	1.565	1.1836	0.8217	-0.2607	-1.5903	-0.2018	-0.6969	-0.1179	2.7922	1.1032	-0.4891	-0.0227	0.7511	0.9737	1.5533	0.791	1.5562	1.8701	1.4499	2.6074	2.7578	0.879	2.0296	0.6879	-0.1889	-0.1048
601.5625	-2.9965	0.1152	0.5657	0.527	1.4757	1.1743	0.5225	-0.4502	-1.7703	-0.5064	-0.8965	-0.3483	2.6071	1.0233	-0.5774	-0.0952	0.6734	0.8748	1.5142	0.7552	1.5322	1.7519	1.3853	2.478	2.7178	0.8566	1.8522	0.4832	-0.145	-0.0592
605.4688	-2.9424	0.0841	0.6209	0.4571	1.3904	1.16	0.2513	-0.6015	-1.9349	-0.7871	-1.0754	-0.5767	2.4134	0.9463	-0.6407	-0.1483	0.61	0.7889	1.4889	0.728	1.5127	1.6371	1.3236	2.3898	2.6773	0.811	1.6888	0.3006	-0.1132	-0.0226
609.375	-2.8551	0.0558	0.6568	0.3998	1.3166	1.1477	0.0318	-0.7017	-2.0702	-1.0149	-1.2131	-0.7822	2.2238	0.8732	-0.674	-0.1746	0.5671	0.7193	1.4741	0.7109	1.4962	1.5313	1.2595	2.3398	2.6352	0.7435	1.5451	0.1515	-0.0886	0.0041
613.2812	-2.7506	0.0295	0.6749	0.3569	1.2562	1.1422	-0.1203	-0.746	-2.1635	-1.1685	-1.2968	-0.95	2.0462	0.7997	-0.6829	-0.1764	0.5418	0.6627	1.4597	0.6977	1.4748	1.4346	1.1858	2.3153	2.5914	0.6645	1.4228	0.0432	-0.0683	0.0184
617.1875	-2.6534	-0.0009	0.6736	0.3242	1.2058	1.145	-0.2006	-0.7378	-2.2067	-1.2398	-1.323	-1.0732	1.882	0.7181	-0.6823	-0.1645	0.522	0.6104	1.4307	0.6758	1.4362	1.3429	1.0969	2.2973	2.5475	0.5899	1.3199	-0.0223	-0.052	0.0171
621.0938	-2.5898	-0.0437	0.6512	0.2934	1.1584	1.1538	-0.216	-0.6886	-2.1977	-1.2362	-1.2979	-1.1528	1.7267	0.6196	-0.6916	-0.1551	0.4907	0.5516	1.3717	0.6302	1.3669	1.2496	0.9916	2.2645	2.5067	0.5368	1.2324	-0.0486	-0.0428	-0.0027
625	-2.5794	-0.1062	0.6076	0.255	1.1058	1.1642	-0.182	-0.6156	-2.1422	-1.1792	-1.2352	-1.196	1.5725	0.4975	-0.7284	-0.1637	0.4321	0.4774	1.2725	0.549	1.2573	1.1499	0.8739	2.1999	2.4736	0.5189	1.1561	-0.0432	-0.0459	-0.0425
628.9062	-2.6297	-0.1912	0.5452	0.2017	1.0422	1.1702	-0.1187	-0.5399	-2.053	-1.0985	-1.153	-1.2135	1.412	0.3507	-0.8027	-0.2014	0.3369	0.3842	1.1322	0.427	1.1047	1.0432	0.7532	2.0953	2.4546	0.5431	1.0888	-0.015	-0.0669	-0.1014
632.8125	-2.7339	-0.2969	0.4669	0.1304	0.9652	1.1662	-0.0456	-0.4835	-1.9487	-1.0244	-1.0708	-1.2167	1.2411	0.1842	-0.9138	-0.2713	0.2053	0.2759	0.961	0.2686	0.9154	0.9348	0.643	1.955	2.4571	0.6083	1.0322	0.0272	-0.1105	-0.175
636.7188	-2.8734	-0.4169	0.3753	0.0429	0.877	1.1474	0.0216	-0.4662	-1.8501	-0.9812	-1.007	-1.2154	1.0614	0.0098	-1.0503	-0.3688	0.0463	0.1634	0.7772	0.0869	0.7039	0.8354	0.5595	1.7957	2.4883	0.7068	0.9935	0.0769	-0.1791	-0.2552
640.625	-3.0229	-0.5423	0.271	-0.0552	0.7827	1.1105	0.0737	-0.5011	-1.7774	-0.9818	-0.9754	-1.2164	0.8809	-0.1566	-1.1943	-0.4833	-0.126	0.0615	0.603	-0.1	0.4895	0.7576	0.5191	1.6432	2.553	0.826	0.9843	0.1305	-0.2721	-0.33
644.5312	-3.1576	-0.6641	0.1534	-0.1563	0.6897	1.0548	0.1076	-0.5915	-1.7461	-1.0261	-0.9836	-1.2215	0.7127	-0.2976	-1.3252	-0.6011	-0.295	-0.014	0.4598	-0.2721	0.2928	0.7129	0.5353	1.5263	2.6509	0.9525	1.0177	0.1871	-0.386	-0.3867
648.4375	-3.2584	-0.774	0.0217	-0.2523	0.6058	0.9825	0.1261	-0.7293	-1.7645	-1.1028	-1.0303	-1.2282	0.573	-0.3972	-1.4244	-0.7077	-0.4443	-0.0506	0.3648	-0.4113	0.1324	0.7085	0.6136	1.4692	2.7752	1.0737	1.1041	0.2484	-0.5156	-0.4139
652.3438	-3.3141	-0.865	-0.1222	-0.3352	0.5394	0.8993	0.136	-0.8963	-1.8316	-1.1929	-1.1051	-1.2302	0.4783	-0.4427	-1.4778	-0.789	-0.5581	-0.0409	0.3296	-0.5028	0.0233	0.7464	0.7488	1.4856	2.9122	1.1794	1.2469	0.317	-0.6534	-0.4052
656.25	-3.3206	-0.9296	-0.2712	-0.3968	0.4993	0.815	0.1464	-1.0677	-1.9376	-1.2755	-1.1912	-1.2199	0.4429	-0.4258	-1.4764	-0.8312	-0.6217	0.0165	0.3611	-0.5351	-0.023	0.8242	0.9244	1.5752	3.0439	1.2607	1.4393	0.3947	-0.7902	-0.3596
660.1562	-3.278	-0.9593	-0.4106	-0.4278	0.4951	0.7436	0.168	-1.2161	-2.0664	-1.3326	-1.2695	-1.1917	0.4774	-0.3422	-1.4152	-0.8204	-0.6211	0.1182	0.4623	-0.4994	0.0016	0.9368	1.1157	1.7248	3.1512	1.3092	1.6638	0.4801	-0.9144	-0.2815
664.0625	-3.1878	-0.9435	-0.5197	-0.4176	0.5372	0.7025	0.2111	-1.3165	-2.2	-1.3534	-1.324	-1.1444	0.5869	-0.1911	-1.293	-0.7439	-0.5437	0.2578	0.6331	-0.3889	0.1029	1.0791	1.2964	1.9115	3.2181	1.3171	1.895	0.5677	-1.0125	-0.1776
667.9688	-3.0517	-0.8714	-0.5748	-0.3555	0.6342	0.7099	0.2843	-1.351	-2.3226	-1.3364	-1.3465	-1.0821	0.7701	0.0242	-1.1116	-0.5916	-0.3811	0.428	0.8698	-0.2	0.2835	1.2474	1.445	2.1083	3.2349	1.279	2.1033	0.6479	-1.071	-0.0552
671.875	-2.8718	-0.7349	-0.5557	-0.2336	0.7907	0.7806	0.3923	-1.3125	-2.424	-1.29	-1.3394	-1.0133	1.018	0.2964	-0.877	-0.3597	-0.1323	0.6209	1.1639	0.0659	0.5409	1.4395	1.551	2.2892	3.1996	1.194	2.2599	0.7084	-1.0789	0.0801
675.7812	-2.6536	-0.5324	-0.4522	-0.0503	1.0039	0.9215	0.5335	-1.2068	-2.4997	-1.2303	-1.3156	-0.9491	1.3144	0.6129	-0.6003	-0.0534	0.193	0.8286	1.5007	0.4003	0.8661	1.6542	1.6179	2.4331	3.1177	1.0677	2.3415	0.7378	-1.0302	0.2249
679.6875	-2.4075	-0.2711	-0.2678	0.1882	1.262	1.1277	0.6996	-1.0518	-2.5495	-1.177	-1.2959	-0.9001	1.6369	0.9565	-0.2985	0.3117	0.573	1.0427	1.8591	0.7861	1.2421	1.889	1.6619	2.5267	3.0013	0.9117	2.3349	0.7281	-0.9265	0.3775
683.5938	-2.1498	0.0327	-0.0203	0.4675	1.5453	1.3824	0.8766	-0.8733	-2.5748	-1.1486	-1.3032	-0.8738	1.9597	1.3067	0.0069	0.7116	0.9761	1.2547	2.2141	1.1994	1.6454	2.1396	1.7073	2.5653	2.8672	0.742	2.2389	0.6779	-0.7776	0.5372
687.5	-1.9015	0.356	0.2618	0.7673	1.8295	1.6595	1.0479	-0.6989	-2.5769	-1.1567	-1.3561	-0.8718	2.2575	1.6421	0.2928	1.1171	1.3664	1.4559	2.5406	1.6123	2.0485	2.398	1.7784	2.5529	2.7348	0.5764	2.0651	0.5938	-0.6006	0.7027
691.4062	-1.6841	0.6733	0.5454	1.0654	2.0901	1.9289	1.198	-0.5515	-2.5559	-1.2038	-1.4621	-0.8906	2.5091	1.943	0.5384	1.4993	1.7106	1.6383	2.8172	1.9979	2.4244	2.6528	1.8924	2.4996	2.6227	0.4311	1.836	0.4895	-0.4164	0.8717
695.3125	-1.5153	0.9605	0.7996	1.3408	2.3067	2.1629	1.3158	-0.4449	-2.5118	-1.2827	-1.6148	-0.9218	2.6999	2.1938	0.7289	1.8339	1.984	1.7957	3.03	2.3341	2.7495	2.8897	2.0538	2.4191	2.5461	0.3189	1.5803	0.3826	-0.246	1.0406
699.2188	-1.4048	1.1985	1.0016	1.5765	2.4661	2.3406	1.3962	-0.3822	-2.4458	-1.3782	-1.7947	-0.955	2.8221	2.3833	0.8571	2.1043	2.1737	1.923	3.1734	2.6057	3.007	3.0924	2.2523	2.3245	2.5134	0.246	1.3262	0.2907	-0.1066	1.2043
703.125	-1.3521	1.3751	1.1401	1.7608	2.5624	2.4517	1.4399	-0.3571	-2.3608	-1.4713	-1.9742	-0.9805	2.8731	2.5048	0.924	2.3021	2.2792	2.0164	3.2498	2.8053	3.1868	3.2444	2.4652	2.225	2.525	0.2119	1.0954	0.2267	-0.008	1.3559
707.0312	-1.3481	1.4857	1.2154	1.8875	2.5972	2.4958	1.4518	-0.3568	-2.2606	-1.5429	-2.1245	-0.9916	2.8539	2.5545	0.9364	2.4262	2.3095	2.0728	3.2666	2.9316	3.2853	3.3315	2.6615	2.1236	2.573	0.2098	0.898	0.195	0.0473	1.4867
710.9375	-1.3784	1.5327	1.2376	1.9558	2.5771	2.481	1.4393	-0.3659	-2.1483	-1.5778	-2.2227	-0.9858	2.7663	2.531	0.9041	2.4808	2.2795	2.0896	3.2344	2.9877	3.3041	3.3432	2.8086	2.0174	2.6427	0.2286	0.7316	0.1907	0.064	1.586
714.8438	-1.4286	1.5249	1.222	1.9694	2.5117	2.4202	1.4094	-0.3706	-2.0245	-1.5671	-2.2566	-0.966	2.6124	2.4349	0.8376	2.4735	2.2067	2.0654	3.1644	2.9798	3.2482	3.2757	2.8791	1.8988	2.716	0.2571	0.5841	0.2001	0.0515	1.6417
718.75	-1.4877	1.4745	1.1853	1.9355	2.412	2.3286	1.3679	-0.3608	-1.8872	-1.5089	-2.2259	-0.9388	2.3957	2.2695	0.7463	2.4137	2.1086	2.0011	3.0674	2.9152	3.1257	3.1329	2.8567	1.7603	2.7752	0.2873	0.4399	0.2053	0.0211	1.6428
722.6562	-1.55	1.3956	1.1417	1.8633	2.2886	2.2206	1.3184	-0.3307	-1.7326	-1.408	-2.1406	-0.9141	2.1232	2.0421	0.6384	2.3122	2.0009	1.9018	2.9536	2.8031	2.9476	2.9276	2.7418	1.5982	2.8069	0.3171	0.2875	0.1892	-0.016	1.5818
726.5625	-1.6133	1.3016	1.1014	1.7633	2.1515	2.1086	1.2633	-0.2784	-1.5577	-1.2737	-2.0178	-0.9023	1.808	1.7656	0.5216	2.1807	1.8963	1.7777	2.8324	2.6541	2.7277	2.6809	2.5535	1.4166	2.8058	0.351	0.1254	0.1413	-0.0507	1.4582
730.4688	-1.6767	1.204	1.0692	1.6462	2.0096	2.0022	1.2045	-0.2047	-1.3616	-1.1178	-1.8782	-0.9129	1.4709	1.4589	0.4038	2.0321	1.8029	1.6437	2.7124	2.4812	2.4834	2.421	2.3283	1.2293	2.7758	0.3984	-0.0349	0.0618	-0.0761	1.2804
734.375	-1.7385	1.1118	1.0451	1.5225	1.871	1.9081	1.1442	-0.1123	-1.1478	-0.9517	-1.7427	-0.952	1.1397	1.1466	0.2937	1.8799	1.7252	1.518	2.6018	2.2991	2.2343	2.179	2.1124	1.0583	2.7298	0.4693	-0.1704	-0.0381	-0.088	1.0652
738.2812	-1.7949	1.0312	1.0253	1.4023	1.7427	1.8307	1.086	-0.0058	-0.9231	-0.7848	-1.6291	-1.0209	0.8467	0.8558	0.2002	1.7375	1.6638	1.4182	2.5082	2.1235	2.0018	1.9847	1.9499	0.93	2.6865	0.5716	-0.2517	-0.1374	-0.0845	0.8349
742.1875	-1.8408	0.9647	1.0026	1.2942	1.6306	1.7722	1.0344	0.108	-0.6965	-0.6235	-1.5489	-1.1142	0.6243	0.6134	0.1315	1.6159	1.6167	1.3575	2.4382	1.9691	1.8053	1.8606	1.8706	0.87	2.6669	0.7081	-0.2506	-0.2104	-0.0663	0.6133
746.0938	-1.872	0.9108	0.9688	1.2037	1.5383	1.7324	0.9934	0.22	-0.477	-0.4713	-1.5058	-1.22	0.499	0.441	0.0927	1.5217	1.58	1.3411	2.3958	1.8463	1.6597	1.8175	1.8815	0.8968	2.6884	0.8761	-0.1471	-0.2321	-0.0363	0.4203
750	-1.888	0.8634	0.9148	1.1313	1.4654	1.7069	0.9644	0.3186	-0.272	-0.3304	-1.4948	-1.3218	0.4871	0.3515	0.0833	1.4548	1.5477	1.3644	2.3806	1.7592	1.5722	1.8516	1.9646	1.0172	2.7609	1.0681	0.0645	-0.1838	0.0005	0.2691
753.9062	-1.8942	0.8125	0.8337	1.0717	1.4076	1.6868	0.9453	0.3908	-0.086	-0.2033	-1.5041	-1.4013	0.5902	0.3461	0.0968	1.4084	1.5122	1.4137	2.3872	1.704	1.5409	1.9447	2.0826	1.2231	2.8835	1.2729	0.3732	-0.0581	0.0372	0.1636
757.8125	-1.9008	0.7468	0.7229	1.0148	1.3567	1.6595	0.9304	0.4238	0.078	-0.0941	-1.5189	-1.4437	0.795	0.4143	0.1211	1.3706	1.4655	1.4696	2.4048	1.6704	1.5554	2.0688	2.1915	1.4929	3.044	1.4769	0.7526	0.1387	0.0673	0.1
761.7188	-1.9196	0.6581	0.5867	0.95	1.3044	1.6124	0.9134	0.4097	0.2156	-0.0079	-1.5257	-1.4405	1.0751	0.5364	0.142	1.3286	1.4017	1.5129	2.4202	1.6452	1.6002	2.1922	2.2539	1.7953	3.2211	1.6653	1.1651	0.3876	0.0855	0.0691
765.625	-1.9582	0.5455	0.4377	0.8708	1.246	1.5383	0.8906	0.3499	0.3177	0.0505	-1.5162	-1.3921	1.3959	0.6881	0.1484	1.2734	1.3196	1.53	2.4207	1.6176	1.6594	2.288	2.2513	2.0953	3.3888	1.8241	1.5688	0.6593	0.0898	0.0605
769.5312	-2.0146	0.4181	0.2971	0.7798	1.1846	1.4402	0.8648	0.2596	0.3687	0.0795	-1.4879	-1.3065	1.7213	0.8463	0.1364	1.2043	1.2248	1.5177	2.3992	1.5834	1.7216	2.3401	2.1898	2.3619	3.5218	1.9428	1.9246	0.9212	0.0822	0.0657
773.4375	-2.0746	0.2954	0.1913	0.6902	1.1326	1.3341	0.8468	0.1679	0.3476	0.0826	-1.4444	-1.1967	2.0208	0.9943	0.1117	1.1305	1.1302	1.4845	2.3571	1.5479	1.7833	2.3473	2.0994	2.5731	3.6004	2.0177	2.2027	1.1435	0.0688	0.0797
777.3438	-2.1134	0.203	0.1475	0.6242	1.11	1.247	0.8541	0.1135	0.2329	0.0688	-1.3932	-1.0768	2.2741	1.1242	0.089	1.0689	1.0535	1.4488	2.3045	1.5248	1.8494	2.3213	2.0261	2.7194	3.6141	2.0538	2.3867	1.305	0.0584	0.1016
781.25	-2.1025	0.1657	0.1875	0.6062	1.1386	1.2093	0.9054	0.1345	0.008	0.0508	-1.3428	-0.9588	2.474	1.2374	0.0877	1.0394	1.0132	1.4336	2.2577	1.5314	1.9303	2.2823	2.0197	2.8036	3.5625	2.0631	2.4751	1.3964	0.0605	0.1334
785.1562	-2.0188	0.2007	0.3213	0.6549	1.235	1.2459	1.0149	0.2578	-0.3324	0.0406	-1.3006	-0.8509	2.6249	1.3409	0.1249	1.0579	1.0227	1.459	2.2331	1.5824	2.0368	2.2515	2.1187	2.838	3.4542	2.0619	2.4798	1.4204	0.0835	0.1779
789.0625	-1.8537	0.3108	0.5438	0.7763	1.4032	1.3661	1.1859	0.4899	-0.7786	0.0465	-1.2708	-0.7563	2.7392	1.4433	0.2089	1.1302	1.0852	1.5353	2.2406	1.6837	2.1749	2.2439	2.3392	2.8402	3.3037	2.0646	2.4223	1.3895	0.1312	0.2363
792.9688	-1.6175	0.4831	0.8347	0.9597	1.6321	1.5592	1.4087	0.8139	-1.3051	0.07	-1.2539	-0.6746	2.8329	1.5507	0.336	1.2495	1.1925	1.6593	2.2803	1.8292	2.3428	2.2647	2.6685	2.8278	3.1282	2.0801	2.3287	1.3226	0.2013	0.307
796.875	-1.3386	0.6916	1.1621	1.1798	1.8963	1.796	1.6619	1.1921	-1.8735	0.1065	-1.2466	-0.6024	2.9209	1.6645	0.4906	1.3973	1.3258	1.8146	2.3411	2.0016	2.53	2.3081	3.0675	2.8155	2.9446	2.1087	2.2254	1.2409	0.2858	0.3851
