time	FP1	F3	F7	FC3	C3	C5	P3	P7	PO7	PO3	O1	Oz	Pz	CPz	FP2	Fz	F4	F8	FC4	FCz	Cz	C4	C6	P4	P8	PO8	PO4	O2	HEOG_left	HEOG_right
-199.2188	1.0884	0.4063	1.0394	1.0542	1.1943	1.2656	1.0512	1.3546	1.42	0.5549	1.5827	0.265	0.4533	0.7403	-0.229	-0.545	-1.6969	-0.0976	-1.2311	-0.2187	0.6	0.2464	0.339	0.4399	-0.6163	-0.7412	-0.3286	-0.1215	-0.1078	-0.5079
-195.3125	1.3313	0.7541	1.1796	1.3545	1.3724	1.3281	1.0966	1.2666	1.4462	0.5343	1.4853	0.2078	0.5662	0.987	0.1929	0.1843	-0.8257	0.3246	-0.3099	0.6216	1.1176	0.7649	0.7597	0.64	-0.3864	-0.5509	-0.3	-0.1858	0.1645	-0.1518
-191.4062	1.5387	1.0616	1.2987	1.6153	1.5252	1.3728	1.1444	1.1859	1.4783	0.5402	1.4196	0.1705	0.6897	1.2247	0.5767	0.8622	-0.0207	0.7116	0.5403	1.4003	1.5952	1.2447	1.1483	0.8439	-0.157	-0.346	-0.2635	-0.2291	0.3924	0.1691
-187.5	1.6778	1.2895	1.3738	1.7985	1.6272	1.3826	1.1918	1.1153	1.5149	0.5873	1.4037	0.1646	0.8249	1.4349	0.8824	1.4328	0.65	1.0249	1.2475	2.0528	1.9891	1.6433	1.4691	1.0462	0.067	-0.1223	-0.2149	-0.2383	0.5429	0.4232
-183.5938	1.7247	1.4089	1.3886	1.8752	1.6572	1.3438	1.2297	1.0514	1.5455	0.6737	1.4395	0.1902	0.964	1.5936	1.0769	1.8473	1.1309	1.2314	1.7545	2.5233	2.2581	1.9239	1.6902	1.2355	0.2778	0.1138	-0.1545	-0.2102	0.5973	0.5881
-179.6875	1.6665	1.4045	1.3348	1.8284	1.6002	1.2479	1.243	0.9841	1.551	0.7805	1.5105	0.2361	1.0889	1.6731	1.1372	2.0686	1.3846	1.3073	2.025	2.7698	2.3677	2.0586	1.7862	1.3943	0.4641	0.3441	-0.0887	-0.1532	0.553	0.6528
-175.7812	1.503	1.2756	1.2133	1.6552	1.4497	1.0926	1.2137	0.9004	1.5086	0.8762	1.5866	0.2824	1.1741	1.6462	1.0536	2.0755	1.3965	1.241	2.0469	2.7694	2.2953	2.0306	1.741	1.5008	0.6121	0.5416	-0.0286	-0.0848	0.4234	0.6184
-171.875	1.2463	1.0349	1.0328	1.3661	1.2091	0.8823	1.1255	0.7889	1.3985	0.9261	1.6323	0.3065	1.192	1.4927	0.8325	1.867	1.1773	1.036	1.8332	2.5225	2.0351	1.8375	1.5511	1.5321	0.7074	0.6766	0.0117	-0.0276	0.2345	0.4971
-167.9688	0.9194	0.7059	0.8086	0.9835	0.892	0.6285	0.9693	0.6445	1.211	0.9017	1.6157	0.2896	1.1195	1.2051	0.4959	1.4642	0.7626	0.7122	1.4207	2.0547	1.6026	1.4925	1.2277	1.4689	0.7377	0.723	0.0181	-0.0039	0.02	0.31
-164.0625	0.5527	0.3195	0.5603	0.539	0.5214	0.3478	0.7468	0.4715	0.9506	0.7883	1.5159	0.2212	0.944	0.7918	0.081	0.9103	0.2101	0.3057	0.8664	1.416	1.0347	1.025	0.7977	1.3	0.6947	0.6647	-0.0203	-0.031	-0.1841	0.0842
-160.1562	0.1804	-0.0895	0.3099	0.0693	0.1266	0.0613	0.4713	0.2838	0.6367	0.5894	1.3268	0.1024	0.667	0.2778	-0.3643	0.2662	-0.4066	-0.1342	0.241	0.6755	0.3854	0.4791	0.3021	1.0257	0.5761	0.4994	-0.1093	-0.117	-0.3448	-0.1508
-156.25	-0.1641	-0.4853	0.0795	-0.387	-0.2602	-0.2085	0.1653	0.1021	0.3005	0.3249	1.0574	-0.0545	0.3048	-0.2979	-0.7864	-0.3955	-1.0068	-0.5514	-0.3786	-0.0867	-0.2804	-0.0915	-0.2087	0.6588	0.3863	0.2391	-0.2474	-0.26	-0.4366	-0.3663
-152.3438	-0.4519	-0.8331	-0.1099	-0.793	-0.6071	-0.4389	-0.143	-0.0506	-0.0215	0.0268	0.729	-0.2295	-0.113	-0.8872	-1.1331	-1.0005	-1.5133	-0.8908	-0.9191	-0.79	-0.8971	-0.6292	-0.6818	0.2246	0.1368	-0.0909	-0.4266	-0.4477	-0.4453	-0.5377
-148.4375	-0.6606	-1.1012	-0.2392	-1.1162	-0.8852	-0.6094	-0.4246	-0.154	-0.2954	-0.2678	0.3704	-0.3997	-0.5473	-1.4379	-1.3608	-1.4818	-1.863	-1.1079	-1.3202	-1.3635	-1.4065	-1.0806	-1.069	-0.2413	-0.1545	-0.457	-0.6322	-0.66	-0.3691	-0.6473
-144.5312	-0.7753	-1.2628	-0.2929	-1.3306	-1.0709	-0.703	-0.6539	-0.1945	-0.4959	-0.5236	0.0119	-0.545	-0.9548	-1.8998	-1.4403	-1.7885	-2.0151	-1.1772	-1.5414	-1.7544	-1.7648	-1.4031	-1.3343	-0.6976	-0.4643	-0.8216	-0.8453	-0.8729	-0.2179	-0.6858
-140.625	-0.7884	-1.2987	-0.2602	-1.4179	-1.1464	-0.7074	-0.8114	-0.168	-0.611	-0.7131	-0.3189	-0.6525	-1.2933	-2.23	-1.3605	-1.8915	-1.9568	-1.096	-1.5674	-1.9333	-1.9464	-1.5706	-1.4577	-1.1016	-0.7667	-1.1485	-1.0446	-1.0617	-0.0102	-0.6523
-136.7188	-0.6996	-1.1994	-0.1382	-1.3697	-1.1016	-0.6169	-0.8867	-0.0805	-0.6429	-0.8204	-0.6012	-0.7183	-1.5279	-2.3977	-1.1302	-1.7866	-1.7037	-0.8845	-1.4089	-1.896	-1.9455	-1.5764	-1.4376	-1.415	-1.0351	-1.4066	-1.2092	-1.2049	0.2305	-0.5536
-132.8125	-0.5165	-0.9682	0.0667	-1.1883	-0.9351	-0.4336	-0.8783	0.0529	-0.6059	-0.8424	-0.8228	-0.7461	-1.6356	-2.3891	-0.7764	-1.4938	-1.2961	-0.5814	-1.0996	-1.6623	-1.7744	-1.4333	-1.2887	-1.6088	-1.2449	-1.5725	-1.3204	-1.2858	0.48	-0.4018
-128.9062	-0.2549	-0.6229	0.3365	-0.8884	-0.6561	-0.1686	-0.7942	0.2105	-0.5218	-0.7882	-0.9792	-0.7442	-1.6093	-2.2091	-0.3416	-1.054	-0.7926	-0.2353	-0.6908	-1.2723	-1.4619	-1.1712	-1.0383	-1.6664	-1.3761	-1.6314	-1.3641	-1.2942	0.7166	-0.2128
-125	0.0603	-0.1968	0.6434	-0.4973	-0.2856	0.1573	-0.6499	0.368	-0.4144	-0.6756	-1.0727	-0.7222	-1.4593	-1.8828	0.1222	-0.5245	-0.2605	0.1038	-0.2441	-0.7816	-1.0492	-0.8331	-0.7224	-1.587	-1.416	-1.5788	-1.3325	-1.2276	0.9229	-0.004
-121.0938	0.3963	0.2643	0.953	-0.0538	0.1436	0.5148	-0.4654	0.5021	-0.3038	-0.5267	-1.109	-0.6868	-1.212	-1.4522	0.5601	0.0284	0.2325	0.3924	0.1771	-0.2549	-0.5857	-0.4689	-0.3796	-1.3855	-1.361	-1.4209	-1.2256	-1.0913	1.0871	0.2065
-117.1875	0.7156	0.7066	1.2288	0.3955	0.5892	0.8693	-0.2622	0.5951	-0.2021	-0.3635	-1.0957	-0.6411	-0.9051	-0.9709	0.9218	0.5369	0.6275	0.5992	0.5159	0.2419	-0.1238	-0.1281	-0.0476	-1.0912	-1.2178	-1.175	-1.052	-0.899	1.2028	0.4016
-113.2812	0.9813	1.0768	1.438	0.8014	1.0042	1.1842	-0.0598	0.637	-0.1124	-0.2036	-1.0394	-0.5841	-0.5809	-0.4948	1.1686	0.9398	0.8812	0.7073	0.7294	0.6489	0.288	0.1473	0.2419	-0.7433	-1.0031	-0.8682	-0.8283	-0.671	1.2694	0.5658
-109.375	1.1629	1.3308	1.5563	1.1195	1.3431	1.4263	0.1267	0.6268	-0.0298	-0.058	-0.9459	-0.513	-0.2785	-0.0725	1.2789	1.1917	0.9717	0.715	0.7953	0.9216	0.6118	0.33	0.4659	-0.3852	-0.7414	-0.5345	-0.5766	-0.4315	1.29	0.6871
-105.4688	1.2428	1.4419	1.5711	1.3181	1.5694	1.5693	0.2879	0.5712	0.0544	0.0686	-0.8197	-0.4257	-0.0271	0.2632	1.2521	1.2699	0.902	0.6347	0.716	1.0378	0.8263	0.4118	0.6126	-0.057	-0.4615	-0.2097	-0.3214	-0.2052	1.2706	0.7582
-101.5625	1.2192	1.4059	1.4826	1.3833	1.6612	1.598	0.4193	0.4818	0.1476	0.1764	-0.6663	-0.3226	0.1585	0.5004	1.1083	1.1797	0.7008	0.4904	0.5192	1.0015	0.93	0.4045	0.6828	0.2108	-0.1912	0.0745	-0.085	-0.0127	1.2172	0.7777
-97.6562	1.1059	1.2418	1.3023	1.3217	1.6154	1.5096	0.5207	0.3718	0.2515	0.2677	-0.4924	-0.2082	0.278	0.6476	0.8847	0.9537	0.4184	0.3132	0.2542	0.8429	0.9399	0.3372	0.6885	0.4019	0.0469	0.2962	0.1164	0.1337	1.1341	0.7503
-93.75	0.9283	0.9882	1.0502	1.1578	1.4467	1.3144	0.5937	0.2534	0.36	0.3434	-0.3079	-0.0894	0.3428	0.7284	0.6276	0.6466	0.1184	0.1365	-0.0177	0.6116	0.8869	0.2487	0.6497	0.5153	0.2388	0.4465	0.275	0.2318	1.0219	0.6853
-89.8438	0.7175	0.6944	0.7505	0.9286	1.1852	1.034	0.6402	0.1357	0.4595	0.4022	-0.1251	0.0249	0.3706	0.7728	0.3838	0.3244	-0.1343	-0.0102	-0.2358	0.3666	0.8067	0.1782	0.5895	0.5628	0.3804	0.5297	0.3926	0.2894	0.878	0.5945
-85.9375	0.5028	0.4111	0.4269	0.6748	0.8695	0.6976	0.661	0.0248	0.5324	0.4404	0.0418	0.1268	0.3795	0.8078	0.1905	0.0508	-0.2874	-0.1062	-0.3535	0.1629	0.7314	0.1555	0.5278	0.5638	0.4764	0.56	0.4773	0.3213	0.6975	0.4893
-82.0312	0.3063	0.1793	0.0996	0.4326	0.5388	0.3377	0.6543	-0.076	0.5616	0.453	0.1784	0.2104	0.3828	0.8496	0.0686	-0.1256	-0.3118	-0.1434	-0.3491	0.0401	0.6809	0.1932	0.4773	0.5401	0.5378	0.5575	0.541	0.3449	0.4761	0.3789
-78.125	0.1392	0.0225	-0.2169	0.2263	0.2258	-0.0155	0.6162	-0.1661	0.5355	0.4365	0.2725	0.2734	0.3872	0.9011	0.0189	-0.1814	-0.2077	-0.1272	-0.2302	0.0139	0.66	0.2844	0.4407	0.5104	0.5788	0.5428	0.595	0.3758	0.2118	0.2682
-74.2188	0.0013	-0.0559	-0.5124	0.066	-0.0481	-0.3377	0.5419	-0.2458	0.4508	0.391	0.3162	0.3171	0.3934	0.9531	0.0234	-0.1211	-0.0038	-0.075	-0.0307	0.0752	0.6586	0.4047	0.4125	0.4879	0.614	0.5337	0.6479	0.4245	-0.0915	0.1587
-70.3125	-0.1156	-0.0704	-0.7794	-0.0519	-0.2739	-0.6121	0.4278	-0.3162	0.3142	0.3213	0.3083	0.3463	0.3988	0.9899	0.0525	0.0264	0.2519	-0.0114	0.1989	0.1946	0.6572	0.5199	0.3819	0.479	0.6548	0.5432	0.7044	0.495	-0.4234	0.0502
-66.4062	-0.2231	-0.0464	-1.0099	-0.1391	-0.4523	-0.8293	0.2746	-0.3781	0.1404	0.2371	0.2544	0.3674	0.4013	0.997	0.0739	0.2171	0.5048	0.038	0.4051	0.3319	0.6352	0.5956	0.3379	0.4842	0.7078	0.5783	0.7659	0.5848	-0.7649	-0.0572
-62.5	-0.3302	-0.0109	-1.1936	-0.2088	-0.5887	-0.9852	0.0888	-0.4312	-0.0518	0.1513	0.1662	0.3865	0.4018	0.967	0.0631	0.4045	0.7077	0.0538	0.5448	0.4475	0.5781	0.6068	0.2734	0.4998	0.7729	0.6397	0.8314	0.6863	-1.09	-0.1608
-58.5938	-0.4398	0.0143	-1.3182	-0.2702	-0.6889	-1.0788	-0.1171	-0.4751	-0.2433	0.0765	0.058	0.4074	0.4043	0.9024	0.0103	0.5499	0.8316	0.0276	0.5944	0.5117	0.4822	0.5436	0.1876	0.5185	0.8429	0.7219	0.8977	0.7885	-1.3678	-0.2537
-54.6875	-0.5474	0.0175	-1.3723	-0.3261	-0.756	-1.1116	-0.3263	-0.5098	-0.4196	0.0219	-0.0562	0.4302	0.4134	0.8137	-0.0779	0.629	0.8692	-0.0361	0.5524	0.5092	0.3547	0.4126	0.0851	0.5307	0.9047	0.8137	0.96	0.8786	-1.5673	-0.3264
-50.7812	-0.6442	-0.0041	-1.3505	-0.3738	-0.7911	-1.0874	-0.5212	-0.5372	-0.5726	-0.0104	-0.1668	0.4507	0.4309	0.7144	-0.1817	0.6329	0.8328	-0.1222	0.4354	0.4381	0.2088	0.2329	-0.0268	0.5243	0.9411	0.8989	1.0102	0.9437	-1.6628	-0.3691
-46.875	-0.7219	-0.0475	-1.2585	-0.4101	-0.7962	-1.0151	-0.6868	-0.5618	-0.7014	-0.0265	-0.27	0.4619	0.452	0.6139	-0.2766	0.5643	0.7458	-0.2102	0.2699	0.3055	0.0568	0.0286	-0.1417	0.4855	0.9346	0.9584	1.0379	0.9729	-1.6402	-0.3754
-42.9688	-0.7781	-0.1101	-1.1167	-0.4364	-0.7779	-0.9097	-0.8133	-0.5901	-0.8101	-0.0388	-0.3673	0.4562	0.4649	0.5134	-0.3418	0.4319	0.6329	-0.2815	0.0831	0.1208	-0.0959	-0.1782	-0.2571	0.4005	0.8717	0.9732	1.0315	0.9594	-1.5015	-0.3454
-39.0625	-0.8193	-0.1935	-0.9594	-0.4631	-0.7505	-0.794	-0.8971	-0.6292	-0.905	-0.0627	-0.4628	0.4292	0.4528	0.4045	-0.3682	0.2444	0.5122	-0.324	-0.1038	-0.1092	-0.2538	-0.373	-0.3741	0.2588	0.7467	0.9292	0.9815	0.9025	-1.2672	-0.2881
-35.1562	-0.8617	-0.3053	-0.8293	-0.5087	-0.7358	-0.6967	-0.9399	-0.685	-0.991	-0.1107	-0.5597	0.3819	0.3987	0.2724	-0.3614	0.0082	0.3921	-0.3355	-0.2785	-0.3813	-0.4295	-0.5497	-0.4963	0.0568	0.5646	0.8208	0.8849	0.8093	-0.9747	-0.2201
-31.25	-0.9278	-0.4563	-0.7685	-0.5963	-0.759	-0.648	-0.9479	-0.7595	-1.0686	-0.1882	-0.657	0.3223	0.291	0.1018	-0.3402	-0.2725	0.2724	-0.323	-0.4364	-0.6939	-0.6381	-0.7095	-0.6268	-0.1985	0.341	0.6543	0.7476	0.694	-0.6734	-0.1629
-27.3438	-1.0399	-0.6556	-0.8081	-0.7456	-0.843	-0.6741	-0.9288	-0.8488	-1.1326	-0.2902	-0.7474	0.2639	0.1271	-0.1171	-0.3311	-0.5919	0.1486	-0.2998	-0.5773	-1.0423	-0.8911	-0.8563	-0.7653	-0.4895	0.0996	0.4473	0.5856	0.5763	-0.4161	-0.1386
-23.4375	-1.214	-0.9045	-0.9605	-0.9653	-1.001	-0.7902	-0.8913	-0.9433	-1.1729	-0.4024	-0.8183	0.2235	-0.0848	-0.3844	-0.361	-0.9393	0.0178	-0.2818	-0.7019	-1.415	-1.1904	-0.9933	-0.908	-0.7893	-0.1324	0.2261	0.4215	0.4778	-0.2492	-0.1645
-19.5312	-1.4546	-1.1931	-1.2167	-1.2485	-1.2315	-0.9967	-0.8435	-1.0285	-1.1763	-0.5039	-0.8552	0.2158	-0.3273	-0.6893	-0.4494	-1.296	-0.1183	-0.284	-0.8098	-1.7908	-1.5258	-1.1209	-1.0473	-1.0669	-0.3297	0.0204	0.2794	0.4177	-0.2032	-0.2496
-15.625	-1.7516	-1.4996	-1.5474	-1.572	-1.5168	-1.2771	-0.7932	-1.0879	-1.1309	-0.5739	-0.8459	0.2494	-0.5787	-1.012	-0.6031	-1.6362	-0.2523	-0.318	-0.8998	-2.141	-1.8758	-1.2361	-1.1748	-1.2938	-0.4734	-0.1428	0.1786	0.4083	-0.287	-0.3918
-11.7188	-2.0822	-1.7946	-1.9108	-1.9011	-1.8267	-1.6008	-0.748	-1.1077	-1.0295	-0.5972	-0.7864	0.3229	-0.8177	-1.3289	-0.815	-1.9314	-0.3732	-0.3915	-0.9717	-2.4343	-2.2128	-1.3346	-1.284	-1.4505	-0.5542	-0.2441	0.1283	0.4517	-0.4867	-0.579
-7.8125	-2.4162	-2.0483	-2.2613	-2.199	-2.1247	-1.9292	-0.7155	-1.0799	-0.8735	-0.5699	-0.6839	0.4234	-1.0295	-1.6186	-1.0665	-2.1569	-0.4718	-0.5089	-1.0292	-2.6444	-2.5099	-1.4141	-1.3734	-1.5307	-0.573	-0.275	0.1254	0.5388	-0.7692	-0.7918
-3.9062	-2.723	-2.2389	-2.5597	-2.4368	-2.3772	-2.2239	-0.7033	-1.0051	-0.6743	-0.5006	-0.5567	0.5279	-1.208	-1.8671	-1.3326	-2.2997	-0.545	-0.6724	-1.0821	-2.7587	-2.7483	-1.476	-1.4479	-1.5432	-0.5397	-0.2371	0.1553	0.6505	-1.0897	-1.008
0	-2.9791	-2.3596	-2.7825	-2.6016	-2.5615	-2.4551	-0.718	-0.8928	-0.4518	-0.4093	-0.431	0.6085	-1.3572	-2.0708	-1.5892	-2.3635	-0.5988	-0.8828	-1.1457	-2.7831	-2.922	-1.5276	-1.5181	-1.5088	-0.4693	-0.1404	0.1966	0.7628	-1.4015	-1.2076
3.9062	-3.1732	-2.4214	-2.9259	-2.6996	-2.6704	-2.6073	-0.7634	-0.7599	-0.2313	-0.3212	-0.3344	0.6388	-1.4872	-2.2359	-1.8186	-2.37	-0.6483	-1.1392	-1.2379	-2.7436	-3.0394	-1.5795	-1.5972	-1.4547	-0.378	0.0011	0.2262	0.8522	-1.6655	-1.3763
7.8125	-3.3076	-2.4517	-3.0054	-2.7542	-2.7128	-2.6821	-0.8388	-0.6264	-0.0372	-0.2591	-0.2879	0.6011	-1.609	-2.3738	-2.0132	-2.354	-0.7139	-1.4365	-1.3738	-2.6807	-3.1196	-1.6433	-1.6963	-1.4068	-0.2793	0.1719	0.2265	0.9014	-1.8571	-1.5079
11.7188	-3.3949	-2.4859	-3.049	-2.7982	-2.7093	-2.6953	-0.9368	-0.511	0.1116	-0.2364	-0.3003	0.492	-1.7285	-2.4956	-2.1743	-2.3557	-0.8143	-1.7634	-1.5608	-2.6404	-3.1854	-1.7269	-1.819	-1.3829	-0.1815	0.3576	0.1894	0.9036	-1.9681	-1.6034
15.625	-3.4527	-2.5582	-3.0879	-2.8639	-2.6852	-2.671	-1.0429	-0.4264	0.2065	-0.2508	-0.3652	0.3241	-1.8415	-2.6056	-2.3088	-2.409	-0.9605	-2.1013	-1.7947	-2.6619	-3.256	-1.8316	-1.9589	-1.3882	-0.0876	0.5451	0.1182	0.8631	-2.0051	-1.6684
19.5312	-3.4968	-2.6908	-3.1462	-2.9737	-2.6628	-2.6343	-1.1366	-0.3769	0.2505	-0.2847	-0.4629	0.1241	-1.9329	-2.6979	-2.4232	-2.533	-1.1515	-2.4251	-2.0593	-2.7674	-3.3402	-1.9511	-2.1	-1.4147	0.0036	0.7218	0.0262	0.7935	-1.9833	-1.71
23.4375	-3.536	-2.887	-3.2335	-3.1334	-2.6556	-2.6045	-1.1948	-0.3576	0.2565	-0.309	-0.5654	-0.0728	-1.9805	-2.7579	-2.52	-2.7266	-1.3734	-2.7064	-2.3301	-2.9558	-3.4339	-2.0734	-2.2205	-1.4449	0.0941	0.8752	-0.0679	0.7136	-1.9207	-1.7338
27.3438	-3.5696	-3.129	-3.3424	-3.3311	-2.6654	-2.5904	-1.1961	-0.3564	0.2436	-0.2911	-0.6437	-0.2313	-1.9612	-2.7662	-2.5952	-2.9692	-1.6039	-2.9193	-2.5802	-3.2042	-3.5217	-2.1853	-2.3005	-1.4587	0.1835	0.9919	-0.1457	0.6426	-1.8321	-1.7424
31.25	-3.5888	-3.3817	-3.4512	-3.5398	-2.6838	-2.5901	-1.127	-0.3583	0.2314	-0.2054	-0.6751	-0.3237	-1.8599	-2.7068	-2.6407	-3.2269	-1.8177	-3.0459	-2.7871	-3.4734	-3.5823	-2.2775	-2.3284	-1.4406	0.2668	1.059	-0.1944	0.5956	-1.7261	-1.7355
35.1562	-3.5813	-3.6016	-3.5307	-3.7245	-2.696	-2.5931	-0.9857	-0.3492	0.2352	-0.0413	-0.6477	-0.3361	-1.6762	-2.5737	-2.6476	-3.4613	-1.994	-3.0806	-2.9389	-3.7193	-3.5964	-2.3486	-2.3065	-1.3857	0.3335	1.0656	-0.2098	0.5805	-1.6055	-1.7115
39.0625	-3.5374	-3.7472	-3.5541	-3.8511	-2.6876	-2.5854	-0.7855	-0.3199	0.2618	0.191	-0.5625	-0.2718	-1.428	-2.3765	-2.6124	-3.6392	-2.1211	-3.0319	-3.0373	-3.9038	-3.5544	-2.4071	-2.2521	-1.3024	0.37	1.0067	-0.1975	0.598	-1.4695	-1.6698
42.9688	-3.4562	-3.7903	-3.5065	-3.8952	-2.6501	-2.556	-0.5542	-0.2691	0.3088	0.4611	-0.4335	-0.1498	-1.1508	-2.1419	-2.541	-3.7409	-2.1997	-2.9219	-3.0975	-4.005	-3.4622	-2.4707	-2.1949	-1.2114	0.3629	0.886	-0.1701	0.6429	-1.3192	-1.6129
46.875	-3.3507	-3.7241	-3.3915	-3.8501	-2.5862	-2.5017	-0.3315	-0.2028	0.3651	0.7231	-0.2834	-0.0005	-0.8928	-1.9118	-2.4525	-3.7662	-2.2431	-2.7825	-3.1456	-4.023	-3.3439	-2.5634	-2.1713	-1.1418	0.3037	0.7185	-0.1444	0.7075	-1.1619	-1.5489
50.7812	-3.2483	-3.5669	-3.2332	-3.7301	-2.5117	-2.4317	-0.1636	-0.1341	0.414	0.9245	-0.1399	0.141	-0.7075	-1.7375	-2.3792	-3.7355	-2.2753	-2.6517	-3.2144	-3.9823	-3.2401	-2.7115	-2.2173	-1.1255	0.193	0.5303	-0.1366	0.7853	-1.0147	-1.4915
54.6875	-3.188	-3.3601	-3.0729	-3.5702	-2.4555	-2.3676	-0.0964	-0.081	0.437	1.017	-0.0297	0.2426	-0.6448	-1.6721	-2.3634	-3.6882	-2.3278	-2.5683	-3.3369	-3.9275	-3.2015	-2.9381	-2.3621	-1.1905	0.0417	0.356	-0.1587	0.8734	-0.9056	-1.4593
58.5938	-3.2138	-3.1609	-2.9606	-3.4212	-2.4549	-2.3419	-0.1683	-0.0637	0.4167	0.9656	0.0268	0.2819	-0.7427	-1.7604	-2.4508	-3.6751	-2.4354	-2.5675	-3.5415	-3.9155	-3.2795	-3.259	-2.622	-1.3553	-0.1297	0.2332	-0.2161	0.974	-0.8706	-1.4734
62.5	-3.3651	-3.0312	-2.9459	-3.3404	-2.5499	-2.3932	-0.4036	-0.1031	0.3398	0.7551	0.0191	0.2511	-1.0204	-2.0303	-2.6812	-3.749	-2.6297	-2.6767	-3.8458	-4.0032	-3.5151	-3.6777	-2.9973	-1.6247	-0.2942	0.1953	-0.3059	1.0936	-0.948	-1.553
66.4062	-3.6678	-3.0253	-3.0676	-3.3802	-2.7752	-2.5589	-0.8079	-0.2189	0.1986	0.3935	-0.0518	0.1597	-1.474	-2.485	-3.0787	-3.9531	-2.9326	-2.9118	-4.252	-4.235	-3.9279	-4.1821	-3.471	-1.9865	-0.4219	0.2663	-0.4166	1.2415	-1.1703	-1.7105
70.3125	-4.1274	-3.1781	-3.346	-3.5767	-3.1513	-2.8667	-1.3645	-0.427	-0.0086	-0.0896	-0.1741	0.034	-2.0736	-3.0995	-3.6438	-4.3096	-3.3488	-3.273	-4.743	-4.6305	-4.5082	-4.7417	-4.0084	-2.41	-0.4838	0.4575	-0.5276	1.4287	-1.555	-1.9467
74.2188	-4.7254	-3.4975	-3.7785	-3.9403	-3.6763	-3.3264	-2.0337	-0.7361	-0.2769	-0.6455	-0.3279	-0.0854	-2.7641	-3.8189	-4.3481	-4.8116	-3.8592	-3.7408	-5.2797	-5.1767	-5.2128	-5.3069	-4.5587	-2.8458	-0.454	0.7679	-0.6098	1.6671	-2.0972	-2.2471
78.125	-5.4187	-3.9597	-4.3385	-4.4501	-4.3209	-3.9226	-2.7538	-1.1442	-0.5941	-1.2119	-0.4884	-0.1492	-3.467	-4.5621	-5.1339	-5.4193	-4.4169	-4.2729	-5.8009	-5.824	-5.9666	-5.81	-5.0577	-3.2275	-0.3119	1.1871	-0.6254	1.9691	-2.7653	-2.5812
82.0312	-6.1446	-4.511	-4.9786	-5.0539	-5.0265	-4.6121	-3.4463	-1.6345	-0.9409	-1.718	-0.6281	-0.1061	-4.0871	-5.2289	-5.9183	-6.0614	-4.9475	-4.8032	-6.2271	-6.4893	-6.6695	-6.1704	-5.4317	-3.4769	-0.043	1.6993	-0.5307	2.3461	-3.5031	-2.9047
85.9375	-6.8264	-5.074	-5.6358	-5.6733	-5.7099	-5.3257	-4.0229	-2.1741	-1.2909	-2.0918	-0.7198	0.0888	-4.5214	-5.7109	-6.6016	-6.6432	-5.355	-5.2457	-6.4671	-7.0655	-7.2085	-6.3025	-5.605	-3.5121	0.3595	2.2864	-0.281	2.8057	-4.2354	-3.1648
89.8438	-7.3831	-5.5589	-6.2391	-6.214	-6.2727	-5.9763	-4.3965	-2.7157	-1.6129	-2.2671	-0.7383	0.4658	-4.6726	-5.906	-7.0804	-7.0591	-5.5347	-5.5039	-6.4305	-7.4365	-7.4733	-6.1283	-5.5084	-3.2603	0.8926	2.9284	0.1621	3.3484	-4.8793	-3.308
93.75	-7.7392	-5.8768	-6.7179	-6.5803	-6.6165	-6.4712	-4.494	-3.2035	-1.8746	-2.1921	-0.6626	1.0337	-4.4635	-5.7338	-7.2619	-7.2099	-5.3909	-5.4858	-6.0425	-7.4969	-7.3742	-5.5914	-5.0906	-2.6717	1.5409	3.6015	0.8207	3.963	-5.356	-3.2891
97.6562	-7.8345	-5.9548	-7.0108	-6.6912	-6.6598	-6.7268	-4.2683	-3.5816	-2.0472	-1.838	-0.4789	1.7756	-3.8527	-5.1516	-7.08	-7.0212	-4.8577	-5.1224	-5.2605	-7.1724	-6.8587	-4.6716	-4.3293	-1.7346	2.2741	4.2743	1.6908	4.6233	-5.6027	-3.0794
101.5625	-7.6331	-5.7495	-7.0731	-6.4961	-6.3557	-6.6844	-3.7098	-3.8042	-2.1109	-1.2062	-0.1836	2.6484	-2.8457	-4.1659	-6.508	-6.4599	-3.9173	-4.3854	-4.0892	-6.4373	-5.9248	-3.3956	-3.2404	-0.4852	3.0458	4.905	2.7354	5.2868	-5.5814	-2.6733
105.4688	-7.1303	-5.2562	-6.883	-5.9859	-5.7039	-6.3225	-2.8518	-3.8455	-2.0605	-0.333	0.2126	3.5855	-1.5021	-2.8392	-5.5668	-5.5454	-2.6128	-3.2993	-2.5897	-5.3254	-4.6274	-1.8415	-1.8835	0.9887	3.7943	5.4409	3.8817	5.8964	-5.284	-2.091
109.375	-6.3566	-4.5126	-6.4463	-5.1983	-4.7567	-5.6644	-1.7714	-3.7052	-1.9077	0.7093	0.6822	4.5036	0.0668	-1.2872	-4.3273	-4.3531	-1.0497	-1.9453	-0.8794	-3.9313	-3.0765	-0.135	-0.3609	2.5543	4.4484	5.8222	5.0265	6.3854	-4.7326	-1.3774
113.2812	-5.3764	-3.5952	-5.7966	-4.2154	-3.6148	-4.7782	-0.5812	-3.4109	-1.681	1.8178	1.181	5.3128	1.708	0.3329	-2.9036	-3.008	0.6148	-0.4538	0.8786	-2.4008	-1.4261	1.5631	1.1903	4.0486	4.9353	5.9908	6.0473	6.687	-3.9768	-0.5972
117.1875	-4.2837	-2.6103	-4.9934	-3.1539	-2.4153	-3.7697	0.5838	-3.0132	-1.4214	2.8702	1.6513	5.9278	3.2448	1.8414	-1.441	-1.6688	2.1926	1.0131	2.4961	-0.9114	0.1451	3.0769	2.6132	5.3012	5.1912	5.9007	6.8197	6.7448	-3.0863	0.1733
121.0938	-3.1916	-1.6782	-4.1161	-2.1489	-1.3119	-2.7679	1.5848	-2.5776	-1.1752	3.7405	2.0297	6.2799	4.5005	3.0618	-0.0968	-0.5053	3.4937	2.2866	3.787	0.3542	1.4579	4.2388	3.7507	6.1586	5.1714	5.5292	7.2359	6.5231	-2.1429	0.8562
125	-2.2183	-0.9167	-3.2545	-1.334	-0.4514	-1.906	2.2991	-2.173	-0.9855	4.3179	2.257	6.3274	5.3236	3.8461	0.9802	0.3275	4.3562	3.2173	4.5957	1.2354	2.3585	4.9133	4.4681	6.5079	4.8588	4.8847	7.2234	6.0159	-1.2309	1.3826
128.9062	-1.4715	-0.4234	-2.4977	-0.8217	0.0485	-1.3012	2.6376	-1.8601	-0.8845	4.5241	2.2893	6.0629	5.6101	4.0974	1.6712	0.7143	4.6714	3.6988	4.8215	1.6202	2.7414	5.0166	4.6729	6.2942	4.2679	4.0098	6.7575	5.2512	-0.4268	1.7016
132.8125	-1.0332	-0.2624	-1.9231	-0.6855	0.1171	-1.0364	2.5575	-1.682	-0.8881	4.3266	2.1078	5.5155	5.3197	3.7844	1.903	0.5978	4.4006	3.6829	4.434	1.4616	2.5655	4.5291	4.3303	5.5295	3.4454	2.9785	5.8683	4.2909	0.2077	1.7873
136.7188	-0.9483	-0.4559	-1.5863	-0.9495	-0.2598	-1.1488	2.0682	-1.6586	-0.9936	3.7439	1.7237	4.7475	4.4816	2.9455	1.6584	-0.0127	3.5783	3.1841	3.4773	0.7851	1.8595	3.4982	3.469	4.2913	2.466	1.8884	4.638	3.2245	0.6323	1.641
140.625	-1.2197	-0.9829	-1.5151	-1.5862	-1.0395	-1.6258	1.2283	-1.7848	-1.1809	2.8427	1.1785	3.8456	3.1891	1.682	0.9762	-1.043	2.3042	2.2737	2.0612	-0.3177	0.7165	2.0318	2.1778	2.7115	1.4236	0.8489	3.1907	2.1586	0.8304	1.2903
144.5312	-1.8093	-1.7846	-1.7077	-2.5227	-2.1315	-2.4103	0.1354	-2.0334	-1.4172	1.7261	0.5378	2.9088	1.5839	0.1405	-0.056	-2.368	0.7244	1.0644	0.3436	-1.7051	-0.7216	0.2828	0.5932	0.9566	0.4203	-0.0332	1.6745	1.2026	0.8083	0.7834
148.4375	-2.6458	-2.7765	-2.1366	-3.6549	-3.4147	-3.4128	-1.0898	-2.3607	-1.6624	0.5177	-0.1186	2.034	-0.1659	-1.5097	-1.3168	-3.8327	-0.993	-0.3098	-1.4943	-3.2104	-2.2866	-1.5717	-1.1204	-0.7955	-0.4467	-0.6681	0.2411	0.4538	0.5919	0.1814
152.3438	-3.637	-3.8623	-2.7556	-4.8656	-4.7563	-4.5272	-2.3216	-2.7147	-1.8763	-0.6569	-0.7096	1.3041	-1.8905	-3.1022	-2.6694	-5.2776	-2.683	-1.714	-3.2735	-4.6675	-3.8097	-3.3541	-2.7928	-2.3793	-1.0966	-0.9941	-0.975	-0.0155	0.2211	-0.4516
156.25	-4.6834	-4.9484	-3.508	-6.0423	-6.0313	-5.6465	-3.4459	-3.0421	-2.0237	-1.6865	-1.164	0.7786	-3.4404	-4.4953	-3.9803	-6.5632	-4.2041	-3.0293	-4.8392	-5.9356	-5.1444	-4.9076	-4.2694	-3.6616	-1.4748	-0.9841	-1.8723	-0.1659	-0.2561	-1.0562
160.1562	-5.6926	-5.9557	-4.3339	-7.0923	-7.1376	-6.6758	-4.3726	-3.2959	-2.0783	-2.4854	-1.4296	0.4893	-4.7016	-5.5874	-5.1351	-7.5881	-5.4531	-4.1643	-6.0777	-6.9157	-6.184	-6.113	-5.4294	-4.5536	-1.5575	-0.6471	-2.3918	0.0062	-0.7898	-1.5855
164.0625	-6.5894	-6.8261	-5.1758	-7.951	-8.0045	-7.5413	-5.0413	-3.4396	-2.0238	-3	-1.478	0.4407	-5.604	-6.3241	-6.0501	-8.2997	-6.3715	-5.0604	-6.9242	-7.5592	-6.8705	-6.8994	-6.1966	-5.0161	-1.3526	-0.0235	-2.5187	0.4717	-1.3337	-2.0084
167.9688	-7.3235	-7.5255	-5.982	-8.5853	-8.5953	-8.1942	-5.4228	-3.4502	-1.8542	-3.2089	-1.3041	0.614	-6.1212	-6.6965	-6.6786	-8.6951	-6.9444	-5.6929	-7.3637	-7.8671	-7.1951	-7.247	-6.5452	-5.0566	-0.8954	0.8237	-2.278	1.176	-1.8495	-2.3119
171.875	-7.8718	-8.042	-6.7092	-8.9897	-8.9051	-8.6117	-5.5157	-3.3191	-1.5718	-3.1191	-0.9234	0.9742	-6.2654	-6.733	-7.012	-8.8128	-7.1949	-6.0677	-7.4259	-7.8818	-7.1913	-7.1835	-6.4973	-4.7204	-0.2415	1.8187	-1.7251	2.0493	-2.3094	-2.4998
175.7812	-8.2366	-8.3816	-7.3237	-9.1808	-8.9542	-8.7935	-5.3411	-3.051	-1.1852	-2.7605	-0.366	1.4777	-6.0781	-6.4882	-7.0763	-8.7193	-7.1733	-6.216	-7.174	-7.6732	-6.9229	-6.7749	-6.115	-4.079	0.5417	2.8841	-0.9349	3.0173	-2.697	-2.5893
179.6875	-8.4407	-8.5619	-7.8019	-9.1888	-8.7809	-8.7584	-4.9366	-2.6621	-0.7078	-2.1787	0.328	2.0785	-5.6204	-6.0305	-6.9247	-8.4923	-6.946	-6.1861	-6.6926	-7.3236	-6.4699	-6.1131	-5.4886	-3.217	1.3836	3.9489	0.0098	4.0102	-3.0065	-2.6065
183.5938	-8.5192	-8.6062	-8.1307	-9.0502	-8.4337	-8.5388	-4.3508	-2.1774	-0.1573	-1.4285	1.1134	2.7322	-4.9629	-5.4318	-6.6261	-8.2062	-6.5841	-6.0341	-6.0741	-6.9137	-5.9158	-5.3016	-4.7212	-2.2219	2.2174	4.9535	1.0274	4.9682	-3.2406	-2.5804
187.5	-8.5113	-8.5377	-8.3064	-8.8021	-7.9645	-8.1756	-3.6381	-1.628	0.4438	-0.5691	1.9418	3.3983	-4.1779	-4.7595	-6.2535	-7.921	-6.1537	-5.8147	-5.4069	-6.5125	-5.3361	-4.4412	-3.9143	-1.1745	2.9854	5.8518	2.0441	5.8435	-3.4075	-2.5381
191.4062	-8.4521	-8.377	-8.3345	-8.4785	-7.4228	-7.7133	-2.8545	-1.0486	1.0675	0.3407	2.7634	4.0391	-3.3326	-4.0718	-5.8722	-7.678	-5.7102	-5.573	-4.7664	-6.1718	-4.7923	-3.6187	-3.1551	-0.1442	3.6424	6.6104	2.9979	6.5993	-3.5181	-2.5004
195.3125	-8.367	-8.1419	-8.229	-8.1097	-6.8521	-7.1959	-2.0537	-0.4745	1.6803	1.2461	3.5285	4.6197	-2.4848	-3.4144	-5.5317	-7.5007	-5.2947	-5.3404	-4.2089	-5.9264	-4.3284	-2.899	-2.5074	0.8144	4.1577	7.2064	3.8401	7.2076	-3.5828	-2.4797
199.2188	-8.2692	-7.8495	-8.0112	-7.7229	-6.2878	-6.6629	-1.284	0.061	2.245	2.0986	4.1895	5.1065	-1.6803	-2.821	-5.261	-7.3989	-4.934	-5.1334	-3.7696	-5.7962	-3.9718	-2.3224	-2.0087	1.6613	4.515	7.6251	4.5358	7.6473	-3.6097	-2.4798
203.125	-8.1609	-7.5188	-7.7087	-7.3434	-5.7565	-6.147	-0.5853	0.5298	2.7233	2.8585	4.7043	5.4691	-0.9527	-2.314	-5.068	-7.3744	-4.6423	-4.9551	-3.4634	-5.7904	-3.7357	-1.9056	-1.6699	2.3701	4.7112	7.8582	5.0625	7.9036	-3.6025	-2.4971
207.0312	-8.037	-7.1722	-7.3542	-6.9956	-5.2769	-5.6723	0.0129	0.9113	3.0814	3.4957	5.0404	5.6818	-0.3245	-1.907	-4.943	-7.4259	-4.4235	-4.7991	-3.288	-5.9111	-3.6227	-1.6463	-1.4805	2.9254	4.7545	7.9039	5.4099	7.9684	-3.5606	-2.5233
210.9375	-7.8901	-6.8359	-6.9829	-6.7026	-4.8613	-5.2541	0.4926	1.194	3.2945	3.9902	5.1782	5.7278	0.1918	-1.6064	-4.865	-7.5514	-4.2743	-4.6541	-3.2278	-6.1549	-3.628	-1.5281	-1.4142	3.3205	4.6622	7.7676	5.5781	7.8433	-3.4803	-2.5479
214.8438	-7.7152	-6.537	-6.6295	-6.4842	-4.5173	-4.8995	0.8483	1.3761	3.3507	4.3321	5.1143	5.6025	0.5917	-1.4128	-4.8086	-7.7482	-4.1866	-4.5089	-3.2596	-6.5135	-3.7413	-1.5269	-1.437	3.5563	4.4583	7.4631	5.5775	7.5412	-3.3569	-2.5611
218.75	-7.5121	-6.3001	-6.3242	-6.354	-4.248	-4.6076	1.0862	1.4651	3.2534	4.5213	4.8624	5.3165	0.8786	-1.3203	-4.7506	-8.0121	-4.1494	-4.3563	-3.356	-6.9725	-3.9472	-1.6148	-1.5139	3.6414	4.1711	7.014	5.4274	7.0876	-3.187	-2.5562
222.6562	-7.2861	-6.1425	-6.0886	-6.3165	-4.0518	-4.3715	1.2231	1.4757	3.0211	4.5674	4.4527	4.8961	1.0632	-1.3152	-4.6741	-8.3354	-4.1504	-4.195	-3.4905	-7.5102	-4.2249	-1.7639	-1.6149	3.5922	3.8306	6.453	5.1556	6.5201	-2.9709	-2.5304
226.5625	-7.0465	-6.0699	-5.9323	-6.3645	-3.9219	-4.1793	1.2833	1.4275	2.6848	4.4903	3.9294	4.3823	1.1641	-1.3754	-4.5708	-8.7054	-4.1775	-4.0297	-3.6395	-8.0973	-4.5481	-1.9478	-1.7181	3.4336	3.4669	5.8213	4.7972	5.8857	-2.7139	-2.4849
230.4688	-6.8043	-6.075	-5.8515	-6.4797	-3.8458	-4.0162	1.2955	1.3427	2.2844	4.3193	3.346	3.8273	1.2074	-1.4709	-4.4405	-9.1045	-4.2191	-3.8687	-3.7839	-8.6975	-4.8847	-2.1425	-1.8106	3.1983	3.1083	5.1661	4.3934	5.2374	-2.4269	-2.4244
234.375	-6.5699	-6.1383	-5.8296	-6.6345	-3.8061	-3.867	1.2888	1.2428	1.8637	4.0916	2.7608	3.2886	1.2244	-1.5661	-4.2891	-9.5106	-4.2646	-3.7213	-3.9097	-9.2706	-5.1988	-2.3262	-1.8873	2.9252	2.7793	4.5371	3.9895	4.6291	-2.1262	-2.3553
238.2812	-6.3523	-6.2324	-5.841	-6.7971	-3.7824	-3.7185	1.2888	1.1469	1.466	3.8485	2.2309	2.8231	1.2485	-1.6243	-4.1259	-9.899	-4.3035	-3.5944	-4.0068	-9.7764	-5.4534	-2.4787	-1.9485	2.6555	2.5004	3.9819	3.631	4.1104	-1.8319	-2.2851
242.1875	-6.1572	-6.3273	-5.8562	-6.9358	-3.7545	-3.5618	1.3152	1.0707	1.1299	3.6311	1.8064	2.4792	1.3101	-1.6132	-3.9613	-10.2443	-4.3256	-3.4914	-4.0679	-10.1786	-5.6141	-2.5819	-1.9962	2.4283	2.2864	3.5411	3.3594	3.7209	-1.5658	-2.2209
246.0938	-5.9878	-6.3961	-5.8473	-7.0235	-3.7051	-3.3945	1.3799	1.0252	0.8855	3.4741	1.5259	2.2902	1.4328	-1.5099	-3.8043	-10.5226	-4.3205	-3.4115	-4.0868	-10.4487	-5.6535	-2.6205	-2.0321	2.2761	2.1467	3.2436	3.2065	3.4865	-1.3488	-2.1683
250	-5.8436	-6.419	-5.7933	-7.0412	-3.6219	-3.2198	1.4868	1.0169	0.7529	3.4018	1.4117	2.2699	1.6293	-1.3031	-3.662	-10.7136	-4.2783	-3.3499	-4.0581	-10.5677	-5.5537	-2.5833	-2.0555	2.2217	2.0853	3.1038	3.1911	3.4164	-1.1976	-2.1308
253.9062	-5.7206	-6.3844	-5.6837	-6.9787	-3.4985	-3.0462	1.6332	1.0475	0.7399	3.4244	1.4683	2.4106	1.9014	-0.9937	-3.5378	-10.8013	-4.1903	-3.2971	-3.9758	-10.5267	-5.3084	-2.4643	-2.0622	2.2767	2.1017	3.1208	3.3169	3.5031	-1.122	-2.1086
257.8125	-5.6113	-6.2878	-5.5194	-6.8346	-3.3337	-2.8846	1.8117	1.1137	0.8421	3.5376	1.6818	2.6849	2.2412	-0.592	-3.4319	-10.775	-4.0493	-3.2393	-3.8338	-10.3252	-4.9218	-2.263	-2.0439	2.442	2.1925	3.2803	3.5729	3.7242	-1.123	-2.0976
261.7188	-5.5048	-6.1288	-5.3119	-6.6145	-3.131	-2.7461	2.0125	1.2081	1.0434	3.7241	2.0221	3.0504	2.6343	-0.1137	-3.3409	-10.6285	-3.8503	-3.159	-3.6267	-9.9696	-4.4072	-1.9838	-1.9898	2.7104	2.3526	3.5588	3.9371	4.0469	-1.1936	-2.0898
265.625	-5.3895	-5.9092	-5.0804	-6.3295	-2.8974	-2.6404	2.2248	1.3193	1.3178	3.9577	2.447	3.4583	3.0639	0.4227	-3.259	-10.361	-3.5918	-3.0384	-3.3514	-9.4713	-3.7852	-1.636	-1.8888	3.0681	2.5756	3.9277	4.3801	4.4328	-1.3204	-2.0746
269.5312	-5.2547	-5.6321	-4.8475	-5.9939	-2.6431	-2.5746	2.4386	1.4332	1.633	4.2083	2.9095	3.8624	3.5125	0.9989	-3.1806	-9.9779	-3.2769	-2.8645	-3.0099	-8.8466	-3.082	-1.2328	-1.7336	3.4962	2.8536	4.3571	4.8697	4.844	-1.4885	-2.0426
273.4375	-5.0947	-5.3029	-4.6344	-5.6241	-2.3799	-2.5526	2.6456	1.535	1.9554	4.4482	3.365	4.2275	3.9646	1.5974	-3.1031	-9.4912	-2.9148	-2.6337	-2.6109	-8.1171	-2.3277	-0.7914	-1.5241	3.972	3.1762	4.8181	5.3745	5.2472	-1.6857	-1.9884
277.3438	-4.9101	-4.9297	-4.4561	-5.2366	-2.1209	-2.5748	2.8401	1.6115	2.2548	4.6573	3.7798	4.5359	4.4079	2.2029	-3.0285	-8.9196	-2.5194	-2.3536	-2.1701	-7.3092	-1.5542	-0.3308	-1.2685	4.4707	3.5297	5.285	5.8675	5.6185	-1.9049	-1.9135
281.25	-4.7073	-4.5238	-4.3179	-4.8459	-1.8775	-2.6365	3.0208	1.6533	2.5099	4.8269	4.1354	4.7895	4.8356	2.804	-2.9632	-8.2849	-2.1068	-2.0412	-1.7068	-6.4513	-0.7904	0.1312	-0.9807	4.9685	3.8982	5.7374	6.3292	5.9454	-2.1451	-1.8257
285.1562	-4.4961	-4.0968	-4.2145	-4.4611	-1.6567	-2.7269	3.1926	1.6576	2.7115	4.9615	4.4311	5.0071	5.2489	3.397	-2.9147	-7.6078	-1.6902	-1.7163	-1.2385	-5.5686	-0.0564	0.5828	-0.6742	5.4473	4.2664	6.1624	6.7507	6.2288	-2.4092	-1.7363
289.0625	-4.2843	-3.6577	-4.1305	-4.0832	-1.4576	-2.8284	3.3675	1.6298	2.8643	5.0786	4.681	5.2193	5.6593	3.9878	-2.8863	-6.9018	-1.275	-1.3943	-0.7744	-4.6779	0.6415	1.0227	-0.3564	5.8996	4.6225	6.5556	7.1354	6.4819	-2.7	-1.6556
292.9688	-4.075	-3.2093	-4.0435	-3.7034	-1.2697	-2.9175	3.5639	1.5832	2.9865	5.2057	4.9102	5.4619	6.0885	4.593	-2.8731	-6.1699	-0.8563	-1.0797	-0.3119	-3.7834	1.3134	1.4617	-0.0245	6.3309	4.9605	6.9214	7.499	6.7275	-3.017	-1.5898
296.875	-3.864	-2.7468	-3.93	-3.3044	-1.0731	-2.9679	3.8043	1.538	3.1057	5.376	5.1489	5.769	6.5662	5.2372	-2.8598	-5.4035	-0.4189	-0.7646	0.1639	-2.8758	1.9838	1.9216	0.3347	6.7594	5.281	7.27	7.8661	6.9936	-3.3543	-1.5387
300.7812	-3.6415	-2.2583	-3.77	-2.8639	-0.8423	-2.9544	4.1106	1.5173	3.2536	5.6218	5.4274	6.1679	7.1238	5.9469	-2.8223	-4.5857	0.0598	-0.4303	0.677	-1.9367	2.6845	2.4299	0.7411	7.211	5.5892	7.6143	8.2645	7.3074	-3.6997	-1.4958
304.6875	-3.3955	-1.7283	-3.5519	-2.3603	-0.5505	-2.8572	4.4991	1.5423	3.4583	5.9685	5.7714	6.6745	7.7867	6.742	-2.7328	-3.6969	0.6044	-0.0542	1.2538	-0.945	3.4459	3.0126	1.2145	7.7125	5.8928	7.9652	8.7183	7.69	-4.0372	-1.4501
308.5938	-3.1159	-1.1417	-3.2738	-1.7781	-0.1761	-2.665	4.976	1.628	3.7377	6.4287	6.1972	7.2909	8.5663	7.6294	-2.5665	-2.7225	1.2358	0.3827	1.9162	0.1139	4.2872	3.6869	1.7687	8.2829	6.1982	8.3292	9.2411	8.1511	-4.3487	-1.3892
312.5	-2.7974	-0.4888	-2.9428	-1.1125	0.2927	-2.3761	5.5344	1.7804	4.0947	6.9984	6.7084	8.0037	9.4553	8.5983	-2.3075	-1.6583	1.9657	0.8893	2.6753	1.2423	5.2111	4.4554	2.406	8.9278	6.5081	8.7058	9.8321	8.6866	-4.6171	-1.3018
316.4062	-2.4402	0.2317	-2.5708	-0.3702	0.856	-1.9971	6.1546	1.9955	4.5155	7.6563	7.2926	8.7832	10.4259	9.6205	-1.9528	-0.5135	2.7938	1.4611	3.5277	2.4262	6.2015	5.3048	3.1164	9.6358	6.821	9.0868	10.4743	9.2763	-4.8276	-1.1797
320.3125	-2.0482	1.0119	-2.1691	0.4312	1.5015	-1.5404	6.8068	2.2617	4.9719	8.3652	7.9207	9.5838	11.4329	10.6547	-1.5116	0.6899	3.7071	2.0821	4.4553	3.6373	7.2275	6.2082	3.8783	10.3793	7.1298	9.4561	11.1365	9.885	-4.969	-1.0185
324.2188	-1.6266	1.8374	-1.7436	1.2678	2.2075	-1.0213	7.4546	2.5623	5.4254	9.0763	8.5483	10.3461	12.4196	11.6534	-1.0016	1.9208	4.6822	2.7296	5.4276	4.8373	8.2485	7.1298	4.6634	11.1179	7.423	9.7906	11.7766	10.4648	-5.034	-0.8175
328.125	-1.1789	2.6902	-1.2921	2.1137	2.9463	-0.4553	8.0615	2.8793	5.8349	9.7348	9.1213	11.0031	13.3263	12.5706	-0.4442	3.1449	5.6892	3.381	6.4064	5.9852	9.2215	8.0308	5.4404	11.8034	7.685	10.062	12.3477	10.9595	-5.019	-0.5796
332.0312	-0.7068	3.5523	-0.8051	2.9456	3.689	0.1433	8.5958	3.1969	6.1637	10.2884	9.5842	11.4893	14.0988	13.368	0.1401	4.3284	6.695	4.0191	7.3518	7.0435	10.1074	8.8747	6.1804	12.3872	7.8978	10.2406	12.8038	11.312	-4.9246	-0.31
335.9375	-0.2105	4.4075	-0.2706	3.745	4.4092	0.7623	9.0361	3.5034	6.3875	10.6955	9.8909	11.7539	14.6967	14.0201	0.7333	5.4414	7.6666	4.6338	8.2262	7.9825	10.8756	9.6314	6.8592	12.8274	8.0434	10.3002	13.1077	11.4751	-4.7558	-0.0171
339.8438	0.3076	5.2419	0.3197	4.4991	5.0868	1.3914	9.3753	3.7934	6.4995	10.9337	10.0153	11.7745	15.1001	14.5172	1.3189	6.459	8.5722	5.2202	8.9991	8.7838	11.5073	10.2794	7.4589	13.0971	8.1072	10.2244	13.2376	11.4224	-4.5225	0.2876
343.75	0.8412	6.0421	0.9649	5.2005	5.7102	2.0224	9.6232	4.0682	6.5135	11.0062	9.9591	11.5661	15.3136	14.8656	1.8811	7.3616	9.3832	5.7746	9.6489	9.4405	11.9973	10.807	7.9687	13.1898	8.0814	10.0118	13.1924	11.1579	-4.2391	0.5891
347.6562	1.3774	6.7947	1.6515	5.8451	6.2763	2.6487	9.8051	4.335	6.4623	10.9429	9.7547	11.183	15.3663	15.0867	2.4033	8.1351	10.0747	6.2897	10.1645	9.9571	12.3538	11.2128	8.3845	13.1231	7.9684	9.68	12.9941	10.7197	-3.9243	0.8699
351.5625	1.897	7.4848	2.3535	6.4308	6.7895	3.2645	9.9579	4.6053	6.3929	10.797	9.4607	10.7104	15.307	15.2122	2.8682	8.7717	10.6279	6.7521	10.5458	10.3475	12.5963	11.5051	8.7085	12.9361	7.7813	9.2653	12.6855	10.1763	-3.6002	1.111
355.4688	2.3765	8.0963	3.0344	6.955	7.2571	3.8629	10.1223	4.8913	6.3569	10.636	9.1512	10.2483	15.1959	15.2785	3.2587	9.2698	11.0312	7.1419	10.8015	10.632	12.7513	11.6991	8.948	12.6837	7.5441	8.8194	12.325	9.616	-3.2917	1.2943
359.375	2.7898	8.6121	3.6516	7.4127	7.6855	4.4336	10.334	5.2023	6.4007	10.5289	8.9007	9.8908	15.0932	15.3195	3.5581	9.6337	11.2805	7.4346	10.9466	10.8321	12.8461	11.8137	9.1131	12.4265	7.289	8.4023	11.9778	9.131	-3.0258	1.4037
363.2812	3.1113	9.0153	4.1615	7.7954	8.0756	4.9615	10.6153	5.5413	6.5556	10.5339	8.7704	9.7084	15.0485	15.3608	3.7505	9.8712	11.3791	7.6055	10.9985	10.9662	12.903	11.8677	9.2139	12.22	7.0522	8.074	11.7058	8.801	-2.8309	1.4272
367.1875	3.3187	9.2916	4.5251	8.0919	8.4212	5.4268	10.971	5.9036	6.833	10.6884	8.7973	9.7364	15.0935	15.4159	3.8209	9.9913	11.3364	7.6349	10.9734	11.0454	12.9352	11.8766	9.2587	12.1059	6.8703	7.8868	11.5587	8.6804	-2.7345	1.358
371.0938	3.3958	9.4318	4.7142	8.29	8.7107	5.8068	11.3888	6.2778	7.2239	11.0048	8.9902	9.9729	15.2389	15.4871	3.7566	10.0027	11.1671	7.5139	10.8846	11.0731	12.9462	11.8511	9.2533	12.1067	6.775	7.8777	11.5678	8.7909	-2.7589	1.1954
375	3.3356	9.435	4.7162	8.3806	8.9306	6.081	11.8442	6.6494	7.7036	11.4709	9.3323	10.3849	15.4773	15.5697	3.5503	9.9135	10.8894	7.2497	10.7428	11.0468	12.9325	11.7976	9.2024	12.2253	6.7892	8.0639	11.7427	9.1202	-2.9163	0.9464
378.9062	3.1439	9.3107	4.5372	8.3619	9.0714	6.2354	12.3086	7.0047	8.2388	12.0562	9.7885	10.9201	15.7888	15.6577	3.2041	9.733	10.5261	6.867	10.5578	10.9629	12.8896	11.721	9.1123	12.4478	6.9239	8.4396	12.0718	9.6277	-3.2044	0.6257
382.8125	2.8401	9.0795	4.2021	8.2418	9.1321	6.2678	12.7571	7.3351	8.7954	12.7196	10.3155	11.5201	16.1487	15.7497	2.7346	9.4739	10.1035	6.408	10.3417	10.8221	12.8178	11.6273	8.9937	12.7491	7.1767	8.9774	12.5259	10.2535	-3.6029	0.2561
386.7188	2.4568	8.7712	3.752	8.0395	9.1231	6.19	13.1736	7.6383	9.3448	13.4166	10.8705	12.1314	16.5326	15.8507	2.1751	9.1544	9.6517	5.9263	10.1098	10.6336	12.7259	11.5264	8.863	13.0992	7.5321	9.6314	13.0637	10.93	-4.0739	-0.1335
390.625	2.0359	8.4215	3.2392	7.7832	9.0652	6.0274	13.5519	7.9185	9.8667	14.1062	11.4181	12.7121	16.92	15.9712	1.5738	8.7984	9.2025	5.4791	9.8809	10.4159	12.6308	11.432	8.7406	13.4679	7.963	10.3431	13.6375	11.5924	-4.5649	-0.5105
394.5312	1.6227	8.066	2.7206	7.5053	8.9861	5.8163	13.893	8.1842	10.3499	14.7532	11.9324	13.2342	17.2942	16.1213	0.9881	8.4327	8.7857	5.116	9.6736	10.1941	12.5538	11.3591	8.6477	13.8267	8.4336	11.048	14.1984	12.1865	-5.0154	-0.8426
398.4375	1.2597	7.7354	2.2511	7.2368	8.914	5.5983	14.201	8.4451	10.7894	15.3302	12.3969	13.6816	17.6397	16.3052	0.4748	8.082	8.4243	4.8694	9.5018	9.9936	12.5139	11.3193	8.6002	14.1496	8.9018	11.6822	14.7001	12.6725	-5.3657	-1.103
402.3438	0.9798	7.4505	1.8766	7.0012	8.8717	5.4138	14.4778	8.7091	11.1835	15.8171	12.8016	14.0469	17.94	16.5153	0.0799	7.7632	8.1298	4.7478	9.37	9.8332	12.5211	11.3161	8.6039	14.4121	9.323	12.1889	15.1024	13.0263	-5.566	-1.2747
406.25	0.8022	7.2192	1.6285	6.8104	8.8715	5.2958	14.7213	8.9798	11.5311	16.2016	13.141	14.3284	18.1761	16.7307	-0.1701	7.4812	7.8999	4.7346	9.2708	9.7196	12.5725	11.3423	8.6517	14.5908	9.6543	12.5242	15.3744	13.2391	-5.5841	-1.3532
410.1562	0.7303	7.0365	1.5203	6.6638	8.9131	5.2649	14.9243	9.2554	11.829	16.478	13.4115	14.5276	18.3275	16.9201	-0.2719	7.2281	7.7192	4.793	9.1868	9.6458	12.6519	11.3798	8.7248	14.6654	9.8594	12.6622	15.4965	13.315	-5.4094	-1.3462
414.0625	0.7531	6.8879	1.5473	6.5509	8.9844	5.3264	15.0765	9.5288	12.072	16.6469	13.6105	14.6484	18.3749	17.0477	-0.2439	6.9871	7.5651	4.8751	9.095	9.5938	12.7342	11.4048	8.7978	14.6209	9.9144	12.5978	15.4629	13.2684	-5.052	-1.2702
417.9688	0.8495	6.7542	1.6898	6.4569	9.0662	5.4708	15.167	9.788	12.2524	16.7143	13.7356	14.6962	18.3043	17.0817	-0.1193	6.7394	7.4148	4.9342	8.9741	9.5416	12.7919	11.3936	8.8457	14.4514	9.8109	12.3473	15.2816	13.1196	-4.5394	-1.1458
421.875	0.9947	6.6192	1.919	6.3686	9.1375	5.677	15.1874	10.0179	12.3611	16.6904	13.7849	14.6766	18.1111	17.0018	0.0634	6.472	7.2532	4.9362	8.8124	9.4707	12.803	11.3303	8.8514	14.1628	9.5588	11.9458	14.973	12.891	-3.9099	-0.9912
425.7812	1.1657	6.4746	2.2038	6.2804	9.1815	5.9166	15.1338	10.2017	12.3897	16.5879	13.7574	14.5952	17.8027	16.8044	0.2697	6.1848	7.0785	4.8677	8.6113	9.3733	12.757	11.2113	8.8102	13.7738	9.1853	11.4414	14.5666	12.6035	-3.2055	-0.8182
429.6875	1.347	6.3243	2.5167	6.1975	9.1901	6.1605	15.0087	10.3239	12.3319	16.4214	13.6555	14.4569	17.3998	16.5041	0.4758	5.8924	6.9022	4.7393	8.3869	9.2554	12.6582	11.0476	8.7316	13.3146	8.7306	10.8881	14.0968	12.2747	-2.4665	-0.6303
433.5938	1.5327	6.1841	2.8377	6.1354	9.1665	6.3838	14.8211	10.3726	12.1867	16.2072	13.4857	14.2668	16.9351	16.1319	0.6714	5.6225	6.747	4.5823	8.1665	9.1369	12.5256	10.8634	8.6364	12.8244	8.2426	10.3378	13.5993	11.9189	-1.727	-0.423
437.5	1.7264	6.0784	3.156	6.1165	9.1248	6.5703	14.5862	10.3426	11.9602	15.9623	13.2602	14.0314	16.4498	15.7301	0.8572	5.409	6.6397	4.4404	7.9824	9.0464	12.3889	10.6904	8.5525	12.3457	7.7701	9.8336	13.1072	11.5479	-1.0135	-0.188
441.4062	1.9383	6.0344	3.4681	6.1639	9.087	6.7146	14.3239	10.2362	11.6656	15.7043	12.9959	13.7593	15.9883	15.3455	1.0405	5.2838	6.604	4.3583	7.8651	9.0145	12.2825	10.5618	8.5077	11.9191	7.3564	9.4052	12.6484	11.173	-0.3446	0.0827
445.3125	2.1806	6.0744	3.7753	6.2935	9.0775	6.821	14.0556	10.0636	11.3219	15.4492	12.7113	13.4609	15.5912	15.0212	1.2293	5.2681	6.6529	4.3709	7.8357	9.0652	12.2373	10.5039	8.5238	11.5767	7.0341	9.0671	12.243	10.8053	0.2685	0.3931
449.2188	2.462	6.209	4.0797	6.508	9.1161	6.8999	13.8009	9.8405	10.9507	15.2081	12.4222	13.1468	15.2881	14.7889	1.4277	5.3662	6.7852	4.4949	7.9014	9.2086	12.2735	10.5309	8.6118	11.337	6.8221	8.8191	11.9026	10.4555	0.8212	0.7407
453.125	2.7828	6.4328	4.3801	6.7928	9.2126	6.9623	13.5733	9.5845	10.5713	14.9852	12.1375	12.8258	15.0928	14.6636	1.6337	5.563	6.9835	4.7258	8.0531	9.4366	12.395	10.6413	8.7696	11.2031	6.7245	8.6495	11.6296	10.1337	1.314	1.1162
457.0312	3.1326	6.7228	4.6693	7.116	9.3622	7.0148	13.3774	9.3115	10.1974	14.7756	11.8569	12.5035	15.0007	14.6417	1.8389	5.8263	7.217	5.0396	8.2672	9.7227	12.5875	10.8183	8.9829	11.164	6.7329	8.5409	11.4189	9.8488	1.75	1.5043
460.9375	3.49	7.0405	4.9325	7.4326	9.5458	7.0567	13.2081	9.0332	9.8343	14.5664	11.5721	12.1818	14.9906	14.7025	2.0302	6.112	7.4462	5.397	8.5093	10.0258	12.8205	11.034	9.2282	11.1986	6.8297	8.4749	11.2606	9.6079	2.1314	1.8856
464.8438	3.8254	7.3379	5.1484	7.6915	9.7327	7.0788	13.0518	8.7549	9.4792	14.3391	11.2703	11.8602	15.0288	14.8131	2.1922	6.3712	7.6286	5.7505	8.7393	10.2973	13.0524	11.2541	9.4762	11.2811	6.9922	8.4372	11.1422	9.4161	2.4563	2.2385
468.75	4.1069	7.5656	5.292	7.844	9.8862	7.0667	12.8896	8.4772	9.1231	14.0737	10.9388	11.5366	15.0742	14.9335	2.3083	6.5574	7.7238	6.0507	8.9169	10.4895	13.2376	11.4434	9.6957	11.3847	7.1961	8.4185	11.0501	9.2749	2.717	2.5406
472.6562	4.3055	7.681	5.3398	7.8526	9.971	7.0046	12.7007	8.1975	8.7551	13.7528	10.5689	11.2082	15.0843	15.0227	2.3629	6.6312	7.6976	6.2515	9.0046	10.5612	13.3325	11.569	9.8557	11.4832	7.4165	8.413	10.969	9.1796	2.902	2.7712
476.5625	4.4008	7.6552	5.2754	7.6963	9.9588	6.8805	12.4661	7.9132	8.3659	13.3646	10.1584	10.8719	15.0189	15.0419	2.3413	6.5633	7.5243	6.3154	8.9701	10.4825	13.3008	11.6019	9.9268	11.5505	7.6281	8.4144	10.8805	9.1174	3.0001	2.9135
480.4688	4.3843	7.4757	5.0935	7.3734	9.8322	6.6891	12.1718	7.6237	7.951	12.9058	9.7119	10.5238	14.8442	14.9569	2.2311	6.3339	7.187	6.2165	8.7876	10.235	13.1157	11.5174	9.8836	11.5591	7.8043	8.4114	10.7613	9.067	3.007	2.9568
484.375	4.2602	7.1455	4.8015	6.8993	9.5852	6.433	11.8096	7.3307	7.5116	12.3815	9.2396	10.1598	14.5355	14.7403	2.0225	5.9315	6.6781	5.9439	8.4395	9.8106	12.7619	11.2957	9.7064	11.4803	7.9176	8.3859	10.5846	8.9997	2.929	2.8985
488.2812	4.0431	6.6796	4.4179	6.3015	9.2213	6.1206	11.3772	7.0368	7.0536	11.8042	8.7544	9.7762	14.0791	14.372	1.7099	5.3515	5.9993	5.5038	7.9177	9.2096	12.2347	10.9235	9.3844	11.2857	7.9413	8.3132	10.323	8.8847	2.7854	2.7451
492.1875	3.754	6.0994	3.968	5.6128	8.7501	5.763	10.876	6.7434	6.5846	11.1906	8.2689	9.3699	13.4734	13.8411	1.2937	4.5963	5.1623	4.9196	7.226	8.4395	11.5401	10.3958	8.9187	10.951	7.8527	8.1663	9.9528	8.6935	2.6053	2.5118
496.0938	3.4167	5.4294	3.4797	4.8659	8.1831	5.37	10.3099	6.4476	6.1111	10.5577	7.7933	8.9394	12.728	13.1467	0.7824	3.6772	4.1896	4.2308	6.382	7.5148	10.6938	9.7186	8.3234	10.4597	7.6364	7.921	9.4589	8.4061	2.4226	2.2217
500	3.054	4.6957	2.9803	4.0906	7.5335	4.9491	9.6831	6.1424	5.6363	9.9194	7.3327	8.4851	11.8631	12.3003	0.1939	2.6187	3.1172	3.489	5.4186	6.4605	9.7216	8.9108	7.6263	9.8083	7.2892	7.5626	8.8391	8.0145	2.2686	1.9023
503.9062	2.6862	3.9269	2.4945	3.3149	6.8165	4.5059	9.0013	5.8175	5.1599	9.2846	6.8872	8.0097	10.908	11.3276	-0.4426	1.4628	1.9954	2.7521	4.3838	5.3151	8.6609	8.0057	6.8667	9.0099	6.8217	7.0909	8.1064	7.5257	2.1661	1.5837
507.8125	2.3318	3.1565	2.045	2.5679	6.0533	4.0475	8.2729	5.4629	4.679	8.6576	6.4524	7.519	9.9001	10.2699	-1.0876	0.2718	0.8891	2.0773	3.3388	4.1341	7.5606	7.0498	6.0915	8.0952	6.2604	6.5231	7.2892	6.9604	2.1257	1.2951
511.7188	2.0081	2.4249	1.6528	1.8824	5.2735	3.5855	7.5113	5.0724	4.1907	8.0397	6.021	7.0222	8.8829	9.1833	-1.6936	-0.8743	-0.1266	1.5143	2.3524	2.9885	6.4802	6.0999	5.3506	7.112	5.6452	5.8926	6.4287	6.3512	2.1456	1.0624
515.625	1.732	1.7771	1.3381	1.2944	4.515	3.1375	6.7355	4.6459	3.6931	7.4319	5.5852	6.5308	7.9024	8.1326	-2.211	-1.8856	-0.9748	1.0975	1.4931	1.9586	5.484	5.2164	4.6906	6.1188	5.0248	5.2443	5.5725	5.7368	2.2143	0.906
519.5312	1.5189	1.2581	1.1185	0.8393	3.8206	2.7258	5.9691	4.1903	3.1862	6.8356	5.1378	6.0568	7.0016	7.1827	-2.5953	-2.6764	-1.5887	0.8423	0.8181	1.1214	4.6331	4.4545	4.148	5.1769	4.4489	4.6258	4.7673	5.1552	2.3146	0.8384
523.4375	1.381	0.9051	1.0068	0.5447	3.231	2.373	5.2365	3.7176	2.6714	6.2531	4.6742	5.6099	6.2146	6.387	-2.8159	-3.1806	-1.9253	0.7435	0.363	0.5356	3.9733	3.8553	3.7445	4.3394	3.9599	4.0784	4.0498	4.6362	2.4289	0.8635
527.3438	1.3245	0.7394	1.0079	0.423	2.7769	2.0974	4.5596	3.2422	2.1501	5.6871	4.1935	5.1961	5.5607	5.7774	-2.8616	-3.3665	-1.9752	0.7778	0.1341	0.2285	3.5267	3.4379	3.4835	3.6423	3.585	3.6282	3.4404	4.1966	2.5423	0.9754
531.25	1.3474	0.7608	1.1156	0.4662	2.4726	1.9082	3.9548	2.7787	1.6235	5.1407	3.7002	4.8178	5.0431	5.3589	-2.7441	-3.2442	-1.7673	0.9092	0.1068	0.1892	3.2861	3.1969	3.3505	3.0992	3.3322	3.2818	2.9407	3.8385	2.645	1.1592
535.1562	1.4384	0.9462	1.3118	0.6451	2.3128	1.8038	3.4323	2.339	1.093	4.6184	3.2048	4.4766	4.6494	5.1104	-2.4961	-2.865	-1.3651	1.0968	0.2302	0.3694	3.2173	3.1045	3.3174	2.7012	3.1907	3.0278	2.5365	3.5518	2.7318	1.3925
539.0625	1.5781	1.2523	1.5677	0.9126	2.2738	1.7714	2.9963	1.9316	0.562	4.127	2.7241	4.1772	4.3579	4.9913	-2.1655	-2.3134	-0.8563	1.3011	0.4375	0.6929	3.2665	3.1178	3.3489	2.4226	3.1356	2.8418	2.2048	3.3209	2.8008	1.6485
542.9688	1.7419	1.6224	1.8475	1.2116	2.3183	1.7897	2.6469	1.5607	0.0367	3.6772	2.2791	3.93	4.144	4.9528	-1.8069	-1.6906	-0.3365	1.4907	0.6594	1.0714	3.3733	3.1884	3.4107	2.2301	3.1346	2.6958	1.9239	3.1315	2.8517	1.8998
546.875	1.9043	1.996	2.1136	1.4848	2.4034	1.8326	2.382	1.2272	-0.4729	3.2829	1.8916	3.7514	3.9872	4.9499	-1.4706	-1.0973	0.108	1.6456	0.8382	1.4215	3.4837	3.2735	3.4769	2.0921	3.1563	2.5654	1.6802	2.9758	2.8848	2.1227
550.7812	2.0439	2.3182	2.3324	1.6841	2.4885	1.8738	2.1987	0.9296	-0.9539	2.9601	1.5796	3.6611	3.8761	4.9513	-1.1935	-0.6161	0.4148	1.7583	0.938	1.6805	3.5608	3.3443	3.5341	1.9877	3.1759	2.4364	1.4732	2.8547	2.9012	2.3006
554.6875	2.1476	2.5481	2.4785	1.778	2.5424	1.8913	2.0934	0.6653	-1.3916	2.7243	1.3529	3.6762	3.8089	4.9439	-0.9935	-0.2995	0.5542	1.8319	0.9486	1.8152	3.59	3.3894	3.5823	1.9094	3.1781	2.3057	1.3137	2.7759	2.9029	2.426
558.5938	2.2115	2.6624	2.537	1.7545	2.5468	1.8696	2.0612	0.4317	-1.7728	2.5863	1.2109	3.8058	3.7907	4.9308	-0.8685	-0.1657	0.5288	1.8749	0.8821	1.8224	3.5767	3.413	3.6311	1.8613	3.1577	2.1788	1.218	2.7494	2.8924	2.5
562.5	2.2402	2.6563	2.5039	1.6197	2.4955	1.8014	2.0935	0.2262	-2.0884	2.5483	1.1413	4.0449	3.827	4.9244	-0.8017	-0.2023	0.3663	1.8951	0.7626	1.7228	3.5384	3.4268	3.6929	1.8526	3.1159	2.0647	1.1989	2.7814	2.8735	2.53
566.4062	2.2431	2.5398	2.385	1.3932	2.3918	1.6863	2.1755	0.0456	-2.3372	2.5999	1.1216	4.3719	3.9161	4.9362	-0.7689	-0.3757	0.1074	1.895	0.6153	1.5483	3.4941	3.4411	3.7749	1.8881	3.0558	1.9688	1.2577	2.8691	2.8504	2.5262
570.3125	2.2313	2.3336	2.1942	1.1017	2.2442	1.5306	2.2848	-0.1145	-2.5276	2.7163	1.1217	4.7478	4.0432	4.9677	-0.7483	-0.6426	-0.2069	1.8691	0.4557	1.331	3.4543	3.4559	3.8731	1.9608	2.9786	1.8885	1.3783	2.9966	2.8281	2.4993
574.2188	2.2147	2.0649	1.9524	0.7741	2.063	1.3457	2.3919	-0.26	-2.6775	2.8589	1.1077	5.1204	4.1788	5.0058	-0.7264	-0.9599	-0.5442	1.8061	0.2859	1.0943	3.4166	3.4574	3.9697	2.0474	2.8803	1.8117	1.5274	3.1355	2.8116	2.4579
578.125	2.2018	1.7639	1.6861	0.4383	1.8584	1.1476	2.4636	-0.3981	-2.812	2.9796	1.0457	5.4302	4.281	5.0233	-0.7007	-1.2915	-0.8847	1.6941	0.0966	0.8506	3.3662	3.4206	4.0368	2.1102	2.7525	1.7177	1.6585	3.2473	2.8063	2.4083
582.0312	2.2013	1.4625	1.4259	0.12	1.6403	0.9555	2.4679	-0.5357	-2.9593	3.0279	0.9068	5.619	4.3029	4.9851	-0.6769	-1.6095	-1.2184	1.5274	-0.1255	0.6053	3.2824	3.317	4.0434	2.1033	2.5838	1.5819	1.7202	3.2894	2.8171	2.3552
585.9375	2.2236	1.1929	1.2046	-0.1567	1.4196	0.7905	2.3798	-0.6785	-3.1458	2.9593	0.6699	5.6383	4.2023	4.8581	-0.6632	-1.8927	-1.54	1.3127	-0.3876	0.3622	3.1475	3.1258	3.9649	1.9831	2.3642	1.3811	1.6661	3.2218	2.849	2.3039
589.8438	2.282	0.9856	1.0532	-0.3697	1.2074	0.6725	2.1856	-0.8303	-3.3914	2.7427	0.3253	5.4571	3.9508	4.6196	-0.6631	-2.1234	-1.8421	1.0718	-0.6837	0.1304	2.9542	2.8422	3.792	1.7182	2.0877	1.0981	1.4633	3.0149	2.9064	2.2615
593.75	2.3917	0.8667	0.9968	-0.5007	1.0148	0.6172	1.885	-0.9926	-3.7068	2.3659	-0.125	5.0678	3.5398	4.2646	-0.6711	-2.2857	-2.1116	0.8405	-0.9914	-0.0739	2.71	2.4825	3.5349	1.2975	1.7552	0.7251	1.0984	2.655	2.9935	2.2376
597.6562	2.5665	0.8537	1.0499	-0.538	0.851	0.632	1.4901	-1.1658	-4.093	1.8381	-0.6669	4.4874	2.9826	3.8067	-0.6711	-2.3656	-2.328	0.6626	-1.2742	-0.2283	2.4358	2.0819	3.2229	0.7333	1.3751	0.2654	0.5793	2.1478	3.1131	2.244
601.5625	2.8139	0.9523	1.2128	-0.4798	0.721	0.7147	1.0229	-1.3488	-4.541	1.1884	-1.2761	3.7567	2.3123	3.2763	-0.6395	-2.3527	-2.4667	0.5817	-1.4894	-0.3103	2.1606	1.6881	2.8995	0.0599	0.9622	-0.268	-0.0661	1.5184	3.2665	2.2925
605.4688	3.1317	1.1544	1.4705	-0.3362	0.6248	0.8529	0.5116	-1.5395	-5.0333	0.4627	-1.9197	2.9349	1.5764	2.7133	-0.5518	-2.2438	-2.5039	0.6327	-1.5969	-0.3042	1.9143	1.3505	2.6143	-0.6725	0.5363	-0.8538	-0.7953	0.8085	3.4517	2.3923
609.375	3.5049	1.4382	1.7939	-0.1295	0.5572	1.0254	-0.0134	-1.7346	-5.5452	-0.283	-2.5583	2.0919	0.8285	2.1601	-0.3898	-2.0456	-2.4224	0.8339	-1.5694	-0.2073	1.7203	1.1113	2.4141	-1.4064	0.1194	-1.4655	-1.5574	0.0711	3.6633	2.5472
613.2812	3.9068	1.7711	2.1439	0.1086	0.5084	1.2057	-0.5225	-1.9286	-6.0478	-0.9898	-3.1496	1.2988	0.1209	1.6538	-0.1477	-1.7757	-2.2169	1.1824	-1.3982	-0.0325	1.5902	0.9969	2.3346	-2.0862	-0.2668	-2.0739	-2.3007	-0.6367	3.891	2.7535
617.1875	4.3023	2.1139	2.4772	0.3414	0.4666	1.366	-0.9893	-2.1141	-6.5116	-1.6043	-3.6528	0.6185	-0.5036	1.2212	0.1644	-1.4611	-1.8961	1.6537	-1.0959	0.193	1.5231	1.0144	2.3943	-2.6671	-0.6037	-2.6508	-2.9796	-1.2626	4.1201	2.9995
621.0938	4.6546	2.4265	2.754	0.5333	0.4199	1.4823	-1.3931	-2.2827	-6.9105	-2.0869	-4.0351	0.096	-1.0166	0.8761	0.5224	-1.134	-1.4836	2.2058	-0.6941	0.433	1.5065	1.1519	2.5922	-3.121	-0.8774	-3.1714	-3.5599	-1.7666	4.3319	3.2661
625	4.9322	2.6737	2.9446	0.6558	0.3589	1.5381	-1.72	-2.4268	-7.2276	-2.4175	-4.2793	-0.2477	-1.4073	0.619	0.8929	-0.8264	-1.0138	2.7866	-0.2377	0.6497	1.5213	1.382	2.9083	-3.4391	-1.0807	-3.6179	-4.0229	-2.1277	4.5074	3.5304
628.9062	5.1162	2.83	3.0347	0.692	0.2787	1.5269	-1.9653	-2.5421	-7.4588	-2.5995	-4.3891	-0.4194	-1.6829	0.4387	1.2407	-0.5658	-0.5282	3.3434	0.2228	0.8097	1.5452	1.667	3.3085	-3.6308	-1.2135	-3.9815	-4.3669	-2.348	4.6316	3.7702
632.8125	5.203	2.8824	3.0277	0.638	0.1792	1.4533	-2.1349	-2.6303	-7.6157	-2.6599	-4.3931	-0.4538	-1.8674	0.3135	1.537	-0.3726	-0.0689	3.8313	0.6391	0.888	1.5555	1.9645	3.7493	-3.7217	-1.2831	-4.2652	-4.6079	-2.4533	4.6978	3.9689
636.7188	5.2045	2.8303	2.9426	0.5015	0.0629	1.33	-2.2469	-2.701	-7.7263	-2.6461	-4.3433	-0.4092	-1.9982	0.2134	1.764	-0.2612	0.3249	4.2196	0.9699	0.8674	1.5294	2.2315	4.1844	-3.7486	-1.3033	-4.4834	-4.7775	-2.49	4.7115	4.1192
640.625	5.1434	2.683	2.8093	0.2969	-0.0681	1.1743	-2.3316	-2.7727	-7.8318	-2.6203	-4.3084	-0.3593	-2.122	0.1019	1.9167	-0.2418	0.6205	4.4938	1.1842	0.7368	1.4433	2.4282	4.5697	-3.7549	-1.2927	-4.6607	-4.9188	-2.518	4.6909	4.2245
644.5312	5.0462	2.4553	2.661	0.0403	-0.2158	1.0024	-2.4288	-2.8713	-7.9812	-2.6501	-4.3624	-0.3818	-2.2879	-0.0593	2.0006	-0.3238	0.7934	4.6551	1.2618	0.4884	1.2732	2.5205	4.8675	-3.7848	-1.2719	-4.8269	-5.079	-2.6005	4.6637	4.2975
648.4375	4.9365	2.1645	2.5271	-0.254	-0.3875	0.8256	-2.5821	-3.0257	-8.2225	-2.798	-4.5699	-0.5448	-2.5387	-0.3051	2.0273	-0.5155	0.8286	4.7157	1.1935	0.1183	0.9973	2.4832	5.0489	-3.8764	-1.2599	-5.0111	-5.3005	-2.7915	4.6615	4.3565
652.3438	4.8311	1.8281	2.4278	-0.5747	-0.5937	0.6487	-2.8296	-3.2615	-8.592	-3.109	-4.9715	-0.8927	-2.9013	-0.6576	2.01	-0.8213	0.7216	4.6941	0.9809	-0.3703	0.6029	2.3034	5.0963	-4.055	-1.2716	-5.234	-5.6108	-3.1246	4.7125	4.4204
656.25	4.7394	1.4655	2.3729	-0.9103	-0.843	0.4713	-3.1939	-3.593	-9.1039	-3.6002	-5.5727	-1.4358	-3.3785	-1.118	1.961	-1.2361	0.4801	4.6095	0.6373	-0.9612	0.0947	1.9841	5.0044	-4.3268	-1.3149	-5.5033	-6.0153	-3.604	4.8353	4.504
660.1562	4.666	1.1	2.3635	-1.2456	-1.1354	0.2921	-3.673	-4.0172	-9.744	-4.2539	-6.3399	-2.1453	-3.9432	-1.6602	1.8912	-1.7397	0.1246	4.4784	0.187	-1.62	-0.4993	1.5457	4.7812	-4.6753	-1.3908	-5.8109	-6.4941	-4.202	5.0343	4.6143
664.0625	4.6154	0.7611	2.3954	-1.5582	-1.457	0.113	-4.2359	-4.5098	-10.4679	-5.0174	-7.204	-2.9568	-4.5393	-2.23	1.8105	-2.2936	-0.3126	4.3114	-0.3347	-2.2926	-1.1252	1.0261	4.4477	-5.063	-1.4936	-6.1346	-7.0043	-4.862	5.2984	4.7489
667.9688	4.5955	0.4833	2.4637	-1.8182	-1.7785	-0.0573	-4.8245	-5.0274	-11.2062	-5.8097	-8.0727	-3.7811	-5.0895	-2.7515	1.7288	-2.8438	-0.7904	4.1123	-0.8847	-2.9102	-1.7087	0.4762	4.0355	-5.4366	-1.6135	-6.4437	-7.4882	-5.5099	5.6044	4.8966
671.875	4.6186	0.3027	2.5654	-1.9916	-2.0582	-0.203	-5.3629	-5.5133	-11.8765	-6.5351	-8.8466	-4.5221	-5.5088	-3.1403	1.6571	-3.3283	-1.2653	3.88	-1.4169	-3.3995	-2.1678	-0.0475	3.583	-5.7384	-1.74	-6.7064	-7.8853	-6.0691	5.9217	5.0402
675.7812	4.6998	0.2491	2.7004	-2.0476	-2.2508	-0.3031	-5.7724	-5.9077	-12.3978	-7.1015	-9.4386	-5.0964	-5.7227	-3.3218	1.6057	-3.6896	-1.6974	3.611	-1.8885	-3.6983	-2.4295	-0.4925	3.1293	-5.9191	-1.866	-6.8986	-8.1457	-6.4778	6.2204	5.1598
679.6875	4.8527	0.3384	2.8701	-1.9671	-2.3182	-0.3371	-5.9891	-6.1589	-12.7061	-7.4392	-9.7904	-5.4513	-5.6852	-3.2495	1.5828	-3.8875	-2.0582	3.303	-2.2673	-3.77	-2.447	-0.8209	2.708	-5.951	-1.9905	-7.0114	-8.2425	-6.7031	6.4771	5.2374
683.5938	5.0837	0.5659	3.0739	-1.7508	-2.24	-0.2911	-5.9787	-6.2336	-12.7674	-7.5163	-9.8834	-5.5759	-5.3925	-2.9191	1.5913	-3.9103	-2.3353	2.9582	-2.5378	-3.615	-2.2133	-1.0173	2.3413	-5.8361	-2.1206	-7.0548	-8.18	-6.7499	6.679	5.2597
687.5	5.3869	0.9024	3.3062	-1.4235	-2.0218	-0.1629	-5.7462	-6.1237	-12.5834	-7.346	-9.7416	-5.5033	-4.888	-2.3747	1.6258	-3.7792	-2.5342	2.5847	-2.705	-3.2747	-1.766	-1.0918	2.037	-5.6085	-2.2706	-7.0578	-7.9942	-6.6606	6.8252	5.22
691.4062	5.7422	1.2974	3.5533	-1.0339	-1.6969	0.0346	-5.3364	-5.8475	-12.1912	-6.9845	-9.4261	-5.3023	-4.2568	-1.7029	1.6722	-3.5466	-2.6769	2.1959	-2.7939	-2.8261	-1.1831	-1.0789	1.7886	-5.3287	-2.4581	-7.0625	-7.7475	-6.5052	6.9234	5.1184
695.3125	6.1154	1.6854	3.7928	-0.6475	-1.3221	0.2739	-4.8257	-5.4462	-11.6551	-6.5198	-9.0209	-5.0618	-3.6107	-1.0186	1.7086	-3.2866	-2.7974	1.8098	-2.845	-2.3689	-0.5698	-1.0294	1.578	-5.0718	-2.6993	-7.1155	-7.5159	-6.366	6.9859	4.9612
699.2188	6.4629	1.9973	3.9951	-0.336	-0.9682	0.5167	-4.307	-4.9761	-11.0544	-6.0531	-8.6169	-4.8704	-3.0669	-0.4433	1.7091	-3.0803	-2.9338	1.4452	-2.9065	-2.0076	-0.0396	-1.0006	1.3817	-4.9119	-3.0033	-7.2565	-7.3738	-6.318	7.0234	4.7583
703.125	6.7371	2.1726	4.1266	-0.1643	-0.7076	0.7193	-3.8729	-4.4993	-10.4687	-5.6798	-8.2939	-4.7974	-2.7261	-0.0823	1.6479	-3.0002	-3.1204	1.1189	-3.0238	-1.8317	0.306	-1.0438	1.1766	-4.9064	-3.3674	-7.5075	-7.3789	-6.4117	7.041	4.5219
707.0312	6.8946	2.1701	4.1545	-0.1782	-0.6007	0.84	-3.5989	-4.0735	-9.9661	-5.4714	-8.108	-4.8788	-2.6541	-0.0054	1.5042	-3.0952	-3.3796	0.8423	-3.23	-1.9003	0.3947	-1.1951	0.9467	-5.0836	-3.7754	-7.8665	-7.5602	-6.6624	7.0337	4.2636
710.9375	6.903	1.9745	4.0529	-0.3971	-0.6859	0.8455	-3.5319	-3.7444	-9.5938	-5.4645	-8.0842	-5.1122	-2.8712	-0.2358	1.2664	-3.3816	-3.7169	0.6192	-3.5385	-2.2318	0.1951	-1.4677	0.6875	-5.4371	-4.1981	-8.3058	-7.9123	-7.0478	6.987	3.9936
714.8438	6.7476	1.5986	3.8076	-0.8106	-0.9739	0.7159	-3.6847	-3.5405	-9.3743	-5.6575	-8.2158	-5.4603	-3.3513	-0.7476	0.9355	-3.8402	-4.1183	0.4455	-3.9395	-2.8014	-0.279	-1.85	0.4083	-5.9266	-4.5971	-8.7771	-8.396	-7.5144	6.8783	3.72
718.75	6.4344	1.0801	3.4207	-1.3815	-1.4465	0.4471	-4.0376	-3.4714	-9.3057	-6.0142	-8.4703	-5.8626	-4.0297	-1.4728	0.5269	-4.4201	-4.5529	0.3109	-4.401	-3.5464	-0.9724	-2.3074	0.1305	-6.487	-4.932	-9.2215	-8.9465	-7.9914	6.683	3.449
722.6562	5.9905	0.4749	2.9118	-2.0529	-2.0618	0.0514	-4.5453	-3.5289	-9.3663	-6.4747	-8.7986	-6.2506	-4.8177	-2.3152	0.0693	-5.049	-4.9774	0.2028	-4.8742	-4.3774	-1.7991	-2.7891	-0.1164	-7.0418	-5.1673	-9.5823	-9.4866	-8.4065	6.3817	3.1865
726.5625	5.4604	-0.1527	2.3175	-2.7578	-2.7616	-0.4446	-5.1471	-3.6905	-9.5206	-6.968	-9.1465	-6.5639	-5.6202	-3.1683	-0.3979	-5.6462	-5.3435	0.1105	-5.3013	-5.1938	-2.6567	-3.2368	-0.3015	-7.5187	-5.2801	-9.8164	-9.9418	-8.7018	5.9689	2.9393
730.4688	4.8998	-0.7395	1.6871	-3.428	-3.4805	-1.0025	-5.7772	-3.9238	-9.726	-7.4265	-9.4657	-6.7615	-6.3518	-3.9326	-0.8297	-6.1361	-5.6047	0.0299	-5.6251	-5.8988	-3.4434	-3.5951	-0.3991	-7.8628	-5.2637	-9.9031	-10.2556	-8.8448	5.4584	2.7169
734.375	4.3675	-1.23	1.0774	-4.0028	-4.1551	-1.5764	-6.3753	-4.192	-9.9394	-7.797	-9.7207	-6.8286	-6.9495	-4.5303	-1.1814	-6.4587	-5.7234	-0.0342	-5.7975	-6.4132	-4.0726	-3.82	-0.3936	-8.0461	-5.1293	-9.8459	-10.3994	-8.8329	4.8852	2.5314
738.2812	3.9173	-1.5824	0.5454	-4.4338	-4.7298	-2.1171	-6.8925	-4.4576	-10.1219	-8.0474	-9.8922	-6.7753	-7.3789	-4.9147	-1.4153	-6.5772	-5.6757	-0.0678	-5.7867	-6.6843	-4.484	-3.8855	-0.2824	-8.0696	-4.9024	-9.6707	-10.377	-8.6917	4.3009	2.3963
742.1875	3.5901	-1.7703	0.1411	-4.6883	-5.1629	-2.5768	-7.2962	-4.6869	-10.2419	-8.1692	-9.9759	-6.6306	-7.6349	-5.0737	-1.5076	-6.4804	-5.4552	-0.0517	-5.5831	-6.6914	-4.6505	-3.7869	-0.0767	-7.9606	-4.6173	-9.418	-10.2212	-8.4671	3.7649	2.3243
746.0938	3.4083	-1.7847	-0.0999	-4.752	-5.4291	-2.9149	-7.5708	-4.8528	-10.2779	-8.1743	-9.9786	-6.4333	-7.7377	-5.0288	-1.4536	-6.1836	-5.0755	0.0321	-5.2022	-6.4464	-4.5797	-3.5419	0.2	-7.7647	-4.3112	-9.1344	-9.9847	-8.2141	3.3323	2.3228
750	3.3713	-1.6337	-0.1612	-4.6293	-5.5225	-3.1038	-7.7169	-4.9377	-10.2192	-8.09	-9.9136	-6.2228	-7.7248	-4.828	-1.271	-5.7249	-4.5698	0.1923	-4.6841	-5.9919	-4.311	-3.1875	0.5143	-7.5355	-4.0174	-8.8631	-9.7277	-7.9847	3.0428	2.3909
753.9062	3.4565	-1.3426	-0.0493	-4.3446	-5.4562	-3.1341	-7.7488	-4.9353	-10.0666	-7.9513	-9.7955	-6.0308	-7.642	-4.5359	-0.9979	-5.1605	-3.9885	0.4223	-4.0892	-5.3948	-3.9083	-2.7753	0.8274	-7.3235	-3.7611	-8.6367	-9.5045	-7.8177	2.9128	2.5173
757.8125	3.6223	-0.9522	0.2055	-3.9402	-5.2616	-3.0178	-7.6893	-4.8502	-9.8314	-7.7921	-9.6377	-5.876	-7.5334	-4.2215	-0.687	-4.5577	-3.3927	0.698	-3.4896	-4.7367	-3.4481	-2.3622	1.1004	-7.1664	-3.5564	-8.4713	-9.3528	-7.7315	2.9307	2.6802
761.7188	3.8153	-0.5157	0.5524	-3.4735	-4.9832	-2.7885	-7.5653	-4.6967	-9.5321	-7.6387	-9.4488	-5.7619	-7.4338	-3.9451	-0.3956	-3.9856	-2.8449	0.9812	-2.9568	-4.1026	-3.0066	-2.0016	1.3006	-7.0825	-3.4061	-8.3643	-9.2858	-7.7207	3.0588	2.8501
765.625	3.9776	-0.0936	0.925	-3.011	-4.6735	-2.4975	-7.4018	-4.4951	-9.1909	-7.5034	-9.2312	-5.6755	-7.3626	-3.7493	-0.1758	-3.5062	-2.3988	1.2278	-2.5495	-3.568	-2.647	-1.734	1.4066	-7.0675	-3.3021	-8.294	-9.2899	-7.7572	3.2387	2.993
769.5312	4.0544	0.2531	1.2505	-2.6207	-4.3852	-2.2068	-7.2179	-4.2673	-8.8281	-7.3821	-8.9799	-5.59	-7.3219	-3.6532	-0.0657	-3.167	-2.0909	1.3977	-2.3039	-3.1898	-2.4111	-1.5802	1.4124	-7.0958	-3.2273	-8.2222	-9.3271	-7.794	3.4005	3.0759
773.4375	4.0001	0.4706	1.4598	-2.3625	-4.164	-1.9793	-7.0244	-4.0319	-8.4578	-7.2562	-8.683	-5.4679	-7.2987	-3.6534	-0.0861	-2.9953	-1.9356	1.4632	-2.2286	-2.9995	-2.3156	-1.5395	1.3276	-7.1262	-3.1586	-8.1002	-9.3416	-7.7724	3.4741	3.0717
777.3438	3.7832	0.5202	1.4979	-2.2805	-4.0425	-1.8684	-6.8237	-3.8012	-8.0858	-7.0974	-8.324	-5.268	-7.2701	-3.729	-0.2392	-2.9969	-1.9253	1.4139	-2.3062	-3.0024	-2.3534	-1.5931	1.1741	-7.1106	-3.0708	-7.8771	-9.2722	-7.6326	3.4003	2.9625
781.25	3.39	0.3839	1.333	-2.3958	-4.0361	-1.9086	-6.6124	-3.5801	-7.71	-6.8763	-7.8865	-4.9544	-7.2114	-3.8504	-0.5125	-3.1576	-2.0346	1.2562	-2.5003	-3.1806	-2.4997	-1.7103	0.9806	-7.0059	-2.9411	-7.5102	-9.0651	-7.3258	3.1404	2.7422
785.1562	2.827	0.0676	0.9613	-2.7038	-4.1423	-2.11	-6.3846	-3.3674	-7.3236	-6.5712	-7.3601	-4.5053	-7.103	-3.9876	-0.883	-3.4478	-2.2283	1.0096	-2.766	-3.4991	-2.7203	-1.858	0.775	-6.7837	-2.754	-6.9758	-8.6877	-6.8258	2.6821	2.4172
789.0625	2.1201	-0.3996	0.4088	-3.1743	-4.3421	-2.4571	-6.1362	-3.1585	-6.9194	-6.1752	-6.7458	-3.9206	-6.9368	-4.1168	-1.3216	-3.8284	-2.4689	0.7004	-3.0606	-3.9133	-2.9797	-2.0078	0.5786	-6.4389	-2.5052	-6.2768	-8.1378	-6.1378	2.0425	2.0051
792.9688	1.3126	-0.9706	-0.2739	-3.757	-4.6052	-2.9118	-5.8671	-2.9486	-6.4944	-5.7003	-6.059	-3.225	-6.7178	-4.2244	-1.7973	-4.2571	-2.7237	0.3568	-3.3519	-4.3764	-3.2476	-2.1414	0.4026	-5.991	-2.2032	-5.4452	-7.446	-5.2996	1.2664	1.5331
796.875	0.4591	-1.5872	-1.0193	-4.3896	-4.8956	-3.4215	-5.5829	-2.7357	-6.0529	-5.1756	-5.3295	-2.4649	-6.4633	-4.307	-2.2803	-4.6939	-2.9681	0.0044	-3.621	-4.8453	-3.5025	-2.2517	0.2478	-5.4803	-1.8681	-4.5375	-6.6703	-4.3769	0.4188	1.0345
