time	FP1	F3	F7	FC3	C3	C5	P3	P7	PO7	PO3	O1	Oz	Pz	CPz	FP2	Fz	F4	F8	FC4	FCz	Cz	C4	C6	P4	P8	PO8	PO4	O2	HEOG_left	HEOG_right
-199.2188	-0.2368	-0.1549	0.4821	-0.9575	-0.7304	-0.2573	-0.6591	-0.632	-0.8074	-0.05	-0.2772	-0.4241	-0.2337	-0.5096	-0.3225	-0.9726	-0.3732	-0.2145	0.166	-0.7953	-0.69	0.0419	0.1034	-0.2115	-0.1472	-0.3313	0.0199	-0.0492	0.2454	-0.6023
-195.3125	-0.0522	0.0229	0.6377	-0.629	-0.4754	-0.0438	-0.4122	-0.678	-0.6657	0.1528	-0.1219	-0.3832	0.0638	-0.2199	-0.0142	-0.5732	-0.1439	-0.0035	0.3222	-0.3947	-0.2937	0.0984	0.1801	-0.1619	-0.1463	-0.5557	-0.0424	-0.1269	0.3999	-0.4164
-191.4062	0.1059	0.1781	0.7556	-0.3394	-0.2465	0.1456	-0.1819	-0.719	-0.5316	0.3379	0.0236	-0.3382	0.3481	0.0506	0.236	-0.2189	0.0533	0.1753	0.4435	-0.0425	0.0536	0.146	0.2402	-0.1031	-0.1276	-0.7479	-0.086	-0.1817	0.5283	-0.2536
-187.5	0.2197	0.2983	0.8086	-0.1144	-0.0635	0.2901	0.0173	-0.7497	-0.4124	0.4901	0.1507	-0.2854	0.6062	0.2862	0.3923	0.0619	0.2023	0.3037	0.5108	0.2296	0.3179	0.182	0.2752	-0.0285	-0.0769	-0.8786	-0.0936	-0.1931	0.6136	-0.1291
-183.5938	0.2788	0.3769	0.78	0.031	0.0594	0.3745	0.1721	-0.768	-0.3157	0.5952	0.2504	-0.2245	0.8244	0.4735	0.4381	0.2523	0.2947	0.3722	0.5142	0.4031	0.479	0.2033	0.28	0.0627	0.0123	-0.9294	-0.0558	-0.1504	0.6454	-0.0513
-179.6875	0.2816	0.4136	0.668	0.095	0.1166	0.3918	0.2721	-0.7747	-0.2491	0.642	0.3145	-0.1597	0.9892	0.6031	0.3802	0.3507	0.3318	0.3819	0.4554	0.4772	0.534	0.2083	0.2538	0.1649	0.1377	-0.8949	0.027	-0.0547	0.6216	-0.0191
-175.7812	0.2363	0.4147	0.4885	0.0887	0.112	0.3446	0.3113	-0.7732	-0.2188	0.6245	0.3362	-0.0983	1.0895	0.6722	0.2463	0.3711	0.3253	0.3448	0.3487	0.4681	0.4974	0.198	0.2022	0.2677	0.2895	-0.7826	0.1449	0.0811	0.5493	-0.0227
-171.875	0.1599	0.3916	0.2731	0.0335	0.0586	0.2451	0.2916	-0.7673	-0.2278	0.5439	0.3123	-0.0492	1.1191	0.6855	0.0785	0.34	0.295	0.2809	0.2194	0.4061	0.3983	0.1779	0.1363	0.3579	0.4521	-0.6109	0.2809	0.2356	0.444	-0.0452
-167.9688	0.0746	0.3584	0.0634	-0.0442	-0.0227	0.1138	0.2226	-0.7593	-0.2744	0.4101	0.2449	-0.0208	1.0789	0.6546	-0.0763	0.2911	0.2643	0.214	0.0987	0.3282	0.2743	0.1569	0.0718	0.4235	0.6077	-0.405	0.4141	0.3825	0.3264	-0.0663
-164.0625	0.0031	0.3282	-0.0988	-0.1175	-0.1071	-0.0243	0.1218	-0.7488	-0.3509	0.241	0.1419	-0.0182	0.9774	0.5956	-0.1773	0.2571	0.254	0.1664	0.0171	0.2699	0.163	0.1456	0.0252	0.4549	0.7393	-0.1931	0.5229	0.4959	0.218	-0.0671
-160.1562	-0.0371	0.3107	-0.1818	-0.1652	-0.1704	-0.1439	0.0115	-0.7322	-0.4442	0.0601	0.0162	-0.0429	0.8297	0.526	-0.1987	0.2623	0.276	0.1534	-0.0024	0.2568	0.0939	0.153	0.0102	0.4464	0.8331	-0.0023	0.5884	0.5541	0.1357	-0.0357
-156.25	-0.0376	0.3095	-0.1719	-0.1753	-0.1935	-0.2246	-0.0864	-0.7034	-0.5382	-0.1076	-0.1168	-0.0922	0.6546	0.4601	-0.1356	0.3168	0.3294	0.1792	0.0499	0.2988	0.0819	0.1833	0.0328	0.3961	0.8811	0.1447	0.5969	0.5431	0.0874	0.0291
-152.3438	-0.0019	0.3209	-0.0759	-0.1478	-0.1672	-0.255	-0.1546	-0.6565	-0.6169	-0.2414	-0.2422	-0.1601	0.4705	0.4063	-0.0048	0.4144	0.4007	0.2354	0.1681	0.3887	0.1246	0.2328	0.0886	0.3059	0.8812	0.2319	0.5409	0.4577	0.0702	0.1167
-148.4375	0.0566	0.335	0.081	-0.0929	-0.093	-0.2352	-0.1851	-0.5874	-0.6675	-0.3286	-0.3482	-0.239	0.2928	0.3656	0.1603	0.5345	0.4671	0.3035	0.3311	0.5049	0.2048	0.291	0.163	0.1811	0.8375	0.2512	0.4201	0.3021	0.0727	0.2068
-144.5312	0.1189	0.3389	0.2621	-0.0271	0.0168	-0.1752	-0.1802	-0.4962	-0.6828	-0.3666	-0.4274	-0.3201	0.1319	0.333	0.319	0.6493	0.5039	0.36	0.5085	0.6191	0.2969	0.3424	0.2348	0.0302	0.7584	0.2034	0.242	0.0891	0.0785	0.2755
-140.625	0.1668	0.3215	0.4276	0.033	0.1432	-0.0923	-0.1513	-0.3872	-0.6619	-0.363	-0.4769	-0.3942	-0.0067	0.3	0.4346	0.7314	0.4928	0.3838	0.6674	0.7041	0.3756	0.3718	0.2819	-0.134	0.6554	0.0976	0.0209	-0.1604	0.073	0.3025
-136.7188	0.1887	0.2779	0.5435	0.0758	0.2653	-0.0054	-0.1153	-0.268	-0.6099	-0.3325	-0.4971	-0.4525	-0.1211	0.2587	0.4841	0.7629	0.4282	0.3629	0.7812	0.7422	0.4232	0.3692	0.2881	-0.2962	0.5412	-0.0494	-0.2219	-0.4199	0.0489	0.2773
-132.8125	0.1832	0.2122	0.5885	0.0981	0.3653	0.069	-0.0894	-0.1486	-0.5365	-0.2927	-0.4915	-0.4864	-0.2112	0.2041	0.4644	0.74	0.3192	0.2983	0.8352	0.7294	0.4342	0.3326	0.2485	-0.4391	0.4288	-0.2156	-0.4612	-0.6595	0.0088	0.2031
-128.9062	0.1592	0.137	0.5576	0.1046	0.4315	0.1204	-0.087	-0.0393	-0.4541	-0.2606	-0.4654	-0.4896	-0.2778	0.1361	0.3909	0.6731	0.1871	0.2035	0.8286	0.6749	0.4145	0.2688	0.1708	-0.5468	0.3307	-0.3764	-0.6699	-0.8497	-0.035	0.0969
-125	0.1322	0.0689	0.4624	0.1047	0.4601	0.1449	-0.1143	0.051	-0.3763	-0.2492	-0.4256	-0.4591	-0.3224	0.0589	0.2923	0.5825	0.059	0.0998	0.7725	0.5965	0.378	0.1908	0.0722	-0.6071	0.2577	-0.5081	-0.8237	-0.9653	-0.0649	-0.0149
-121.0938	0.1186	0.0231	0.3272	0.1073	0.453	0.1436	-0.1704	0.1154	-0.3152	-0.2664	-0.3801	-0.3961	-0.3477	-0.0212	0.2001	0.4907	-0.0408	0.0094	0.6837	0.5134	0.3397	0.1132	-0.0257	-0.6145	0.2175	-0.5911	-0.9045	-0.99	-0.0645	-0.1034
-117.1875	0.1292	0.0067	0.1818	0.1158	0.4152	0.1205	-0.2489	0.1495	-0.2793	-0.3143	-0.337	-0.3066	-0.3586	-0.0984	0.1391	0.4139	-0.0978	-0.0518	0.5782	0.4389	0.3099	0.0473	-0.1046	-0.5719	0.2131	-0.6124	-0.9038	-0.9192	-0.0248	-0.145
-113.2812	0.1646	0.0156	0.0529	0.126	0.3515	0.0792	-0.3411	0.1521	-0.2721	-0.39	-0.3033	-0.2006	-0.3628	-0.1696	0.1206	0.3565	-0.112	-0.0788	0.4665	0.3753	0.2899	-0.0021	-0.1541	-0.4895	0.2414	-0.5673	-0.8243	-0.7617	0.0513	-0.1286
-109.375	0.2148	0.0346	-0.0427	0.1259	0.2636	0.0216	-0.4387	0.1255	-0.2906	-0.4864	-0.2834	-0.09	-0.3697	-0.2364	0.1403	0.3099	-0.0974	-0.0786	0.3514	0.3136	0.271	-0.0377	-0.1743	-0.3835	0.2931	-0.4591	-0.6789	-0.5387	0.1487	-0.0579
-105.4688	0.261	0.0406	-0.1015	0.0998	0.1506	-0.0525	-0.5354	0.0753	-0.3259	-0.5926	-0.2778	0.0138	-0.3895	-0.3041	0.181	0.2555	-0.0781	-0.067	0.2298	0.237	0.2376	-0.0676	-0.1743	-0.2716	0.3541	-0.2972	-0.4874	-0.2796	0.2441	0.0495
-101.5625	0.2821	0.0094	-0.132	0.0335	0.0101	-0.1433	-0.6272	0.011	-0.3644	-0.695	-0.2823	0.1029	-0.4297	-0.38	0.2186	0.1716	-0.0801	-0.0629	0.0966	0.1271	0.1725	-0.1018	-0.1683	-0.1689	0.4093	-0.0946	-0.272	-0.0162	0.3121	0.1674
-97.6562	0.2607	-0.0767	-0.149	-0.0808	-0.1587	-0.2494	-0.7113	-0.0554	-0.3908	-0.7785	-0.2889	0.175	-0.4932	-0.4709	0.23	0.0412	-0.1235	-0.0826	-0.0505	-0.0287	0.0625	-0.1484	-0.1704	-0.0852	0.4457	0.1344	-0.0527	0.2239	0.3326	0.2679
-93.75	0.1883	-0.2236	-0.1679	-0.2407	-0.3528	-0.3665	-0.7845	-0.1104	-0.3918	-0.8288	-0.288	0.2327	-0.577	-0.5799	0.1993	-0.1419	-0.2165	-0.1346	-0.2091	-0.2326	-0.0966	-0.2108	-0.1904	-0.0226	0.455	0.3754	0.1552	0.4224	0.2955	0.3282
-89.8438	0.0673	-0.4233	-0.1994	-0.4339	-0.5642	-0.488	-0.8432	-0.1429	-0.3603	-0.8357	-0.2712	0.282	-0.6722	-0.7052	0.1212	-0.3706	-0.3534	-0.2182	-0.3712	-0.4748	-0.2982	-0.2868	-0.2322	0.0228	0.4355	0.6144	0.3423	0.5713	0.2035	0.335
-85.9375	-0.0899	-0.6554	-0.2469	-0.6407	-0.7806	-0.6066	-0.8834	-0.1457	-0.297	-0.7953	-0.2343	0.3287	-0.7667	-0.8391	0.0021	-0.6261	-0.5167	-0.3242	-0.5256	-0.7351	-0.5257	-0.3694	-0.293	0.0589	0.3902	0.8372	0.5033	0.6715	0.0702	0.2862
-82.0312	-0.2644	-0.8917	-0.3072	-0.8372	-0.9865	-0.7154	-0.9014	-0.1178	-0.2108	-0.712	-0.179	0.3752	-0.8469	-0.9691	-0.1423	-0.8821	-0.6821	-0.4376	-0.6601	-0.9875	-0.7557	-0.448	-0.3644	0.0945	0.3251	1.0294	0.6355	0.7296	-0.0834	0.1902
-78.125	-0.4341	-1.1014	-0.3724	-0.9992	-1.1649	-0.8078	-0.8943	-0.0642	-0.1149	-0.5973	-0.1118	0.4195	-0.9006	-1.0787	-0.2903	-1.1096	-0.8233	-0.5406	-0.7638	-1.2046	-0.9622	-0.5106	-0.4335	0.1369	0.2462	1.1771	0.7366	0.7541	-0.2334	0.0634
-74.2188	-0.5772	-1.2565	-0.4325	-1.1046	-1.2982	-0.8763	-0.8592	0.0068	-0.0228	-0.4666	-0.0425	0.4552	-0.9177	-1.1496	-0.4178	-1.2819	-0.9179	-0.6155	-0.8287	-1.3613	-1.1198	-0.545	-0.485	0.1909	0.1575	1.2685	0.8043	0.753	-0.3576	-0.0729
-70.3125	-0.6752	-1.3349	-0.478	-1.1343	-1.3702	-0.9112	-0.7928	0.0859	0.0573	-0.335	0.0198	0.474	-0.891	-1.1638	-0.5027	-1.3775	-0.9502	-0.6477	-0.8498	-1.4382	-1.2072	-0.541	-0.5034	0.2575	0.0599	1.2956	0.8368	0.7323	-0.4391	-0.1958
-66.4062	-0.7153	-1.3233	-0.5019	-1.0746	-1.367	-0.9016	-0.6914	0.1662	0.1244	-0.2131	0.0696	0.4691	-0.8173	-1.1067	-0.5287	-1.3829	-0.9139	-0.6276	-0.8259	-1.4233	-1.2098	-0.492	-0.4758	0.3344	-0.048	1.2559	0.8329	0.6956	-0.4694	-0.2843
-62.5	-0.6918	-1.2175	-0.5016	-0.9184	-1.2798	-0.8371	-0.5508	0.2445	0.185	-0.1052	0.106	0.4374	-0.6968	-0.97	-0.4891	-1.2932	-0.8125	-0.5522	-0.7595	-1.3133	-1.1213	-0.3969	-0.3948	0.416	-0.1679	1.1526	0.7933	0.6445	-0.4492	-0.3229
-58.5938	-0.607	-1.0237	-0.4797	-0.6679	-1.1064	-0.7118	-0.3689	0.3216	0.2501	-0.0087	0.1331	0.381	-0.5344	-0.7544	-0.3883	-1.1134	-0.6579	-0.4267	-0.6567	-1.1141	-0.9446	-0.2608	-0.261	0.4939	-0.3004	0.9951	0.7203	0.5789	-0.3876	-0.3037
-54.6875	-0.471	-0.7576	-0.442	-0.3376	-0.8536	-0.5276	-0.1468	0.4003	0.3306	0.083	0.1577	0.3072	-0.3394	-0.4713	-0.2421	-0.857	-0.4673	-0.2634	-0.5268	-0.8409	-0.6927	-0.0953	-0.0846	0.5583	-0.4426	0.7978	0.6185	0.4983	-0.3006	-0.2288
-50.7812	-0.3009	-0.4437	-0.3963	0.0458	-0.5375	-0.296	0.1085	0.4835	0.4331	0.177	0.186	0.2271	-0.1253	-0.1427	-0.0758	-0.5464	-0.2596	-0.0809	-0.382	-0.5172	-0.3877	0.0826	0.1152	0.599	-0.5877	0.5784	0.4939	0.4025	-0.2074	-0.11
-46.875	-0.118	-0.1135	-0.3488	0.4441	-0.182	-0.0374	0.3836	0.5712	0.557	0.2773	0.2219	0.1529	0.0905	0.2003	0.0798	-0.2103	-0.0519	0.0986	-0.236	-0.1732	-0.0593	0.2527	0.3127	0.6068	-0.7254	0.3559	0.3538	0.2929	-0.1273	0.0323
-42.9688	0.0549	0.1988	-0.3039	0.8138	0.1833	0.2223	0.6593	0.6601	0.695	0.3823	0.2649	0.0954	0.2885	0.5219	0.1944	0.1183	0.1426	0.2528	-0.1031	0.157	0.2581	0.3938	0.4799	0.5751	-0.8442	0.1479	0.2052	0.1722	-0.076	0.1729
-39.0625	0.197	0.4616	-0.2635	1.113	0.5278	0.4568	0.9132	0.7437	0.8343	0.4852	0.3113	0.061	0.4493	0.7867	0.2438	0.4058	0.3139	0.3626	0.0032	0.4401	0.5294	0.4876	0.5918	0.5007	-0.9336	-0.0321	0.0541	0.0445	-0.0635	0.2857
-35.1562	0.2932	0.6512	-0.228	1.3091	0.8242	0.6444	1.1229	0.8146	0.9611	0.5759	0.3558	0.0507	0.556	0.9649	0.2167	0.6231	0.4541	0.415	0.0715	0.6471	0.7231	0.5207	0.6315	0.3846	-0.9874	-0.1755	-0.0958	-0.0856	-0.0919	0.3494
-31.25	0.3354	0.7559	-0.198	1.3848	1.052	0.7714	1.2699	0.8665	1.0629	0.6446	0.3929	0.0598	0.5969	1.0378	0.117	0.7485	0.555	0.405	0.0933	0.7572	0.816	0.4863	0.592	0.2322	-1.0053	-0.2794	-0.2422	-0.2127	-0.1554	0.351
-27.3438	0.3237	0.7768	-0.1754	1.3397	1.1997	0.8333	1.3423	0.8953	1.131	0.6847	0.4184	0.0795	0.5675	0.9999	-0.0366	0.7714	0.6066	0.3356	0.0633	0.7605	0.796	0.3851	0.4773	0.0531	-0.9929	-0.345	-0.3835	-0.331	-0.2418	0.2889
-23.4375	0.2646	0.7261	-0.1648	1.1886	1.2657	0.8348	1.3363	0.9	1.1605	0.6949	0.4298	0.0994	0.4708	0.8588	-0.2156	0.6929	0.5976	0.2157	-0.0201	0.6589	0.6638	0.2241	0.2997	-0.1403	-0.9602	-0.3755	-0.5171	-0.4339	-0.3353	0.1721
-19.5312	0.1689	0.6224	-0.1744	0.9567	1.2564	0.7865	1.2562	0.8817	1.1498	0.6791	0.4255	0.1105	0.3173	0.6336	-0.3892	0.5243	0.5167	0.0582	-0.1551	0.4647	0.4328	0.0155	0.0777	-0.3334	-0.9196	-0.3744	-0.6387	-0.5144	-0.42	0.0177
-15.625	0.0487	0.4857	-0.2144	0.6733	1.1846	0.7028	1.1135	0.8425	1.0999	0.6453	0.4054	0.1074	0.1226	0.3509	-0.5314	0.2849	0.3564	-0.1226	-0.3369	0.1981	0.1261	-0.226	-0.1678	-0.5117	-0.8825	-0.3443	-0.7413	-0.5654	-0.4836	-0.1529
-11.7188	-0.0845	0.3331	-0.2951	0.3659	1.0668	0.5984	0.9244	0.7852	1.0145	0.6031	0.3704	0.0899	-0.094	0.0408	-0.6271	-0.0017	0.1169	-0.3125	-0.5569	-0.1152	-0.2261	-0.4839	-0.4154	-0.6614	-0.8565	-0.2861	-0.8155	-0.5807	-0.5192	-0.3188
-7.8125	-0.2207	0.1771	-0.4217	0.0568	0.9201	0.4861	0.7084	0.7139	0.9007	0.5624	0.3237	0.0632	-0.3125	-0.2673	-0.6739	-0.3099	-0.1906	-0.4987	-0.8023	-0.4473	-0.5909	-0.7414	-0.6453	-0.7709	-0.8438	-0.1997	-0.8509	-0.5553	-0.5262	-0.463
-3.9062	-0.352	0.0253	-0.5916	-0.2387	0.7602	0.3748	0.485	0.634	0.77	0.5308	0.2704	0.0361	-0.5141	-0.5473	-0.6812	-0.615	-0.5431	-0.6701	-1.0564	-0.7709	-0.937	-0.9826	-0.8413	-0.8312	-0.8408	-0.0846	-0.837	-0.4865	-0.509	-0.5743
0	-0.4714	-0.1175	-0.7922	-0.5111	0.599	0.2692	0.2719	0.5524	0.6371	0.5129	0.2176	0.0186	-0.6838	-0.7794	-0.6669	-0.8948	-0.907	-0.8177	-1.2987	-1.0616	-1.2385	-1.1927	-0.9918	-0.8375	-0.839	0.0583	-0.7666	-0.3753	-0.4759	-0.6477
3.9062	-0.5732	-0.2476	-1.0036	-0.7554	0.4444	0.1693	0.0826	0.4764	0.5181	0.5094	0.1721	0.0174	-0.8123	-0.9511	-0.6524	-1.1309	-1.244	-0.9352	-1.508	-1.2997	-1.4771	-1.36	-1.0914	-0.7904	-0.8282	0.2247	-0.6379	-0.2276	-0.4364	-0.6838
7.8125	-0.6528	-0.3611	-1.2028	-0.9682	0.2996	0.072	-0.0747	0.4126	0.4274	0.5176	0.139	0.0342	-0.8969	-1.0585	-0.658	-1.3091	-1.517	-1.0194	-1.6648	-1.4717	-1.6443	-1.4767	-1.1409	-0.6967	-0.7996	0.4061	-0.4567	-0.0546	-0.3999	-0.6878
11.7188	-0.707	-0.4537	-1.369	-1.1463	0.1649	-0.0271	-0.1972	0.3658	0.3749	0.533	0.1207	0.064	-0.9414	-1.1057	-0.698	-1.4202	-1.6965	-1.0698	-1.7549	-1.5711	-1.7404	-1.5395	-1.1464	-0.5696	-0.7484	0.5901	-0.237	0.1277	-0.3741	-0.6675
15.625	-0.7349	-0.5217	-1.4881	-1.2866	0.0398	-0.1306	-0.2857	0.339	0.3646	0.5509	0.1169	0.0981	-0.9537	-1.1029	-0.7774	-1.4598	-1.7659	-1.0884	-1.7719	-1.5986	-1.7731	-1.5497	-1.1169	-0.4268	-0.6754	0.7617	0.0007	0.3008	-0.364	-0.6322
19.5312	-0.7376	-0.5631	-1.5543	-1.3862	-0.0756	-0.2375	-0.3434	0.3336	0.3949	0.5685	0.1259	0.1268	-0.9442	-1.0639	-0.8903	-1.4287	-1.7234	-1.0777	-1.7179	-1.561	-1.7545	-1.5123	-1.0619	-0.2878	-0.5862	0.9059	0.2323	0.4468	-0.3717	-0.5909
23.4375	-0.7184	-0.5792	-1.5696	-1.445	-0.1791	-0.3424	-0.3735	0.3505	0.4598	0.5864	0.1461	0.1437	-0.9219	-1.0032	-1.0198	-1.3331	-1.5823	-1.0408	-1.6028	-1.4704	-1.698	-1.4343	-0.9887	-0.1696	-0.4897	1.0102	0.4347	0.5516	-0.3961	-0.5513
27.3438	-0.6823	-0.5737	-1.542	-1.4659	-0.2661	-0.4364	-0.3781	0.39	0.5506	0.6087	0.1771	0.1484	-0.893	-0.9325	-1.142	-1.1839	-1.3686	-0.9803	-1.4424	-1.3418	-1.615	-1.3238	-0.9017	-0.084	-0.3955	1.0662	0.59	0.6079	-0.4333	-0.5194
31.25	-0.6354	-0.552	-1.4837	-1.4557	-0.3308	-0.5092	-0.3582	0.4514	0.6575	0.6424	0.2206	0.1473	-0.8585	-0.8592	-1.2302	-0.9957	-1.1165	-0.8985	-1.2551	-1.1905	-1.5135	-1.1896	-0.8024	-0.0348	-0.3114	1.0709	0.6886	0.6169	-0.4776	-0.4989
35.1562	-0.5833	-0.5189	-1.4089	-1.423	-0.3672	-0.5516	-0.3133	0.5324	0.7719	0.6969	0.2796	0.1533	-0.8148	-0.7854	-1.2622	-0.7844	-0.8617	-0.7979	-1.0589	-1.0294	-1.3963	-1.0403	-0.6909	-0.0174	-0.2416	1.0271	0.7317	0.5891	-0.5222	-0.4918
39.0625	-0.5305	-0.4768	-1.3321	-1.3763	-0.37	-0.5567	-0.2425	0.6285	0.8873	0.7826	0.3586	0.1823	-0.7541	-0.7082	-1.2253	-0.5655	-0.6351	-0.6808	-0.8686	-0.8664	-1.2619	-0.885	-0.5671	-0.0203	-0.1849	0.9439	0.731	0.5431	-0.5607	-0.499
42.9688	-0.4797	-0.4244	-1.2653	-1.3206	-0.3356	-0.5218	-0.1443	0.7333	1.0001	0.9094	0.4623	0.2495	-0.6665	-0.6217	-1.1196	-0.3506	-0.4572	-0.5503	-0.6949	-0.7033	-1.106	-0.7322	-0.433	-0.0266	-0.1346	0.8367	0.7077	0.5027	-0.5877	-0.5205
46.875	-0.4314	-0.3573	-1.2155	-1.2565	-0.2622	-0.4481	-0.0175	0.8387	1.1091	1.0858	0.5941	0.3654	-0.5434	-0.5188	-0.9577	-0.1468	-0.3348	-0.4095	-0.5438	-0.5362	-0.9242	-0.5903	-0.2925	-0.0178	-0.0789	0.7265	0.6885	0.4922	-0.5996	-0.5553
50.7812	-0.3847	-0.2695	-1.183	-1.1812	-0.1507	-0.3417	0.1384	0.9364	1.2158	1.3173	0.7543	0.5304	-0.3797	-0.394	-0.7611	0.0439	-0.262	-0.2621	-0.4178	-0.3573	-0.7148	-0.4659	-0.1526	0.0231	-0.0027	0.6382	0.7015	0.5312	-0.5948	-0.6011
54.6875	-0.3385	-0.1561	-1.162	-1.0914	-0.0056	-0.2134	0.3224	1.0196	1.3224	1.604	0.9382	0.7328	-0.1772	-0.2452	-0.5557	0.2229	-0.2242	-0.1129	-0.3172	-0.1584	-0.4811	-0.3643	-0.023	0.1083	0.1099	0.5987	0.7705	0.6293	-0.5746	-0.654
58.5938	-0.2936	-0.0157	-1.1429	-0.987	0.1648	-0.0779	0.5302	1.084	1.4314	1.9388	1.1343	0.947	0.054	-0.0762	-0.367	0.3925	-0.2042	0.0317	-0.2416	0.0649	-0.2329	-0.2882	0.0849	0.2428	0.2722	0.6328	0.91	0.7824	-0.5447	-0.71
62.5	-0.2547	0.1467	-1.1181	-0.8744	0.3475	0.0473	0.7535	1.1282	1.5447	2.3058	1.3247	1.1359	0.2947	0.1024	-0.2178	0.5516	-0.1891	0.1626	-0.1919	0.3097	0.0126	-0.2389	0.1596	0.4222	0.492	0.7608	1.1214	0.9721	-0.5156	-0.7664
66.4062	-0.232	0.3181	-1.087	-0.7683	0.5257	0.1451	0.9793	1.1541	1.6633	2.6801	1.487	1.2567	0.5181	0.2726	-0.1268	0.6933	-0.176	0.2675	-0.1718	0.5627	0.2309	-0.2167	0.1908	0.6336	0.7699	0.9948	1.3921	1.168	-0.5035	-0.8237
70.3125	-0.2408	0.4769	-1.0591	-0.6909	0.6799	0.201	1.1907	1.1667	1.7883	3.0307	1.5991	1.2693	0.6937	0.4113	-0.1087	0.8022	-0.1736	0.3318	-0.1885	0.7999	0.3926	-0.2219	0.1715	0.8568	1.0985	1.3376	1.6974	1.3341	-0.5289	-0.8877
74.2188	-0.2997	0.5948	-1.0543	-0.6685	0.7905	0.2055	1.3698	1.1752	1.9223	3.326	1.6446	1.1467	0.7925	0.4924	-0.1751	0.8559	-0.202	0.3397	-0.2518	0.9885	0.4659	-0.2558	0.099	1.0687	1.463	1.782	2.0059	1.4375	-0.6132	-0.9693
78.125	-0.4276	0.6411	-1.0977	-0.727	0.8411	0.1558	1.5014	1.1938	2.0715	3.5406	1.6191	0.8848	0.7935	0.4921	-0.3338	0.8278	-0.288	0.2766	-0.3718	1.0916	0.4216	-0.3205	-0.0248	1.2474	1.8443	2.3131	2.2866	1.4571	-0.7749	-1.0832
82.0312	-0.6387	0.5882	-1.2132	-0.8857	0.8215	0.0558	1.5774	1.2425	2.2466	3.6619	1.5341	0.5076	0.6892	0.3933	-0.5887	0.6927	-0.4583	0.1322	-0.5569	1.0747	0.2384	-0.4192	-0.1938	1.3768	2.2216	2.9102	2.5166	1.3904	-1.0246	-1.2454
85.9375	-0.9383	0.418	-1.415	-1.1526	0.7303	-0.0847	1.5999	1.347	2.4631	3.6947	1.4174	0.0665	0.4887	0.1903	-0.9383	0.433	-0.7324	-0.0975	-0.8108	0.9126	-0.0918	-0.5548	-0.3997	1.4497	2.5766	3.5492	2.6861	1.2555	-1.3617	-1.4683
89.8438	-1.3196	0.1268	-1.7021	-1.5207	0.5759	-0.2509	1.5819	1.5354	2.739	3.6605	1.3092	-0.366	0.2174	-0.1085	-1.3749	0.044	-1.1163	-0.4082	-1.1305	0.5953	-0.5603	-0.7296	-0.6334	1.468	2.8947	4.2042	2.7991	1.0873	-1.7726	-1.7574
93.75	-1.7629	-0.2731	-2.0565	-1.9679	0.3753	-0.4254	1.5447	1.8331	3.0908	3.5938	1.2549	-0.7104	-0.0877	-0.4816	-1.8823	-0.4632	-1.5988	-0.7872	-1.5068	0.1313	-1.1409	-0.9446	-0.8867	1.4407	3.1664	4.8464	2.8704	0.9288	-2.2326	-2.108
97.6562	-2.2381	-0.7541	-2.4454	-2.4599	0.1515	-0.5906	1.514	2.2562	3.5278	3.5333	1.2946	-0.8957	-0.3854	-0.8973	-2.4348	-1.0621	-2.1523	-1.2137	-1.9253	-0.4523	-1.7915	-1.1986	-1.1532	1.3797	3.3853	5.4433	2.9186	0.8199	-2.7084	-2.5045
101.5625	-2.7088	-1.2781	-2.8279	-2.9547	-0.0716	-0.7318	1.5131	2.8047	4.046	3.5137	1.4541	-0.875	-0.6387	-1.3195	-2.9966	-1.7136	-2.7366	-1.661	-2.3681	-1.1129	-2.4603	-1.488	-1.4277	1.2949	3.545	5.9568	2.9584	0.7868	-3.1633	-2.9221
105.4688	-3.1376	-1.8024	-3.1624	-3.4093	-0.2731	-0.8394	1.557	3.4579	4.6242	3.5567	1.7371	-0.6363	-0.8221	-1.7147	-3.5233	-2.3707	-3.3056	-2.0992	-2.8161	-1.7974	-3.0927	-1.8057	-1.7051	1.1915	3.637	6.3439	2.994	0.834	-3.5614	-3.3297
109.375	-3.4916	-2.2862	-3.4134	-3.7852	-0.4384	-0.9106	1.6486	4.1732	5.2233	3.6671	2.1226	-0.2057	-0.9261	-2.0567	-3.9662	-2.9852	-3.8151	-2.4983	-3.2503	-2.4493	-3.6399	-2.1404	-1.9789	1.0676	3.6496	6.5594	3.0162	0.9439	-3.8726	-3.6945
113.2812	-3.7463	-2.6954	-3.5558	-4.0539	-0.5607	-0.9487	1.7775	4.8895	5.7898	3.8314	2.5681	0.3584	-0.957	-2.3302	-4.2794	-3.5129	-4.229	-2.8317	-3.6523	-3.0154	-4.0652	-2.4768	-2.2401	0.9164	3.5696	6.5617	3.0042	1.0804	-4.0747	-3.9859
117.1875	-3.8874	-3.0063	-3.5771	-4.1993	-0.6401	-0.9609	1.9221	5.535	6.2637	4.0216	3.017	0.9773	-0.9336	-2.5315	-4.4275	-3.9188	-4.5243	-3.0796	-4.005	-3.4526	-4.3488	-2.7961	-2.4768	0.7286	3.3855	6.3197	2.9307	1.1982	-4.1562	-4.1793
121.0938	-3.9115	-3.2068	-3.4786	-4.2197	-0.6813	-0.9556	2.0545	6.0387	6.5888	4.2014	3.4095	1.5676	-0.8821	-2.666	-4.3938	-4.1813	-4.692	-3.2311	-4.2923	-3.7322	-4.489	-3.0779	-2.6752	0.4965	3.0919	5.8204	2.7702	1.2537	-4.1164	-4.2597
125	-3.8254	-3.2962	-3.2744	-4.126	-0.6912	-0.9389	2.1461	6.3424	6.7229	4.3343	3.6936	2.0568	-0.8295	-2.745	-4.1841	-4.2941	-4.7371	-3.2851	-4.5003	-3.8438	-4.5002	-3.3034	-2.8219	0.2174	2.6916	5.0738	2.5053	1.2144	-3.9653	-4.2231
128.9062	-3.6445	-3.2837	-2.9906	-3.9398	-0.6768	-0.9129	2.1737	6.4114	6.6461	4.3902	3.8346	2.3943	-0.7993	-2.7833	-3.8284	-4.267	-4.6754	-3.251	-4.6192	-3.7965	-4.4091	-3.4591	-2.9072	-0.1056	2.1975	4.1145	2.1328	1.0651	-3.7228	-4.0771
132.8125	-3.3908	-3.1858	-2.663	-3.6895	-0.6443	-0.8761	2.1233	6.2412	6.3652	4.3509	3.8196	2.5571	-0.8081	-2.7963	-3.3769	-4.1246	-4.5307	-3.1472	-4.6457	-3.6176	-4.2503	-3.5402	-2.928	-0.4635	1.6306	2.9996	1.6644	0.8104	-3.4154	-3.8395
136.7188	-3.091	-3.0244	-2.3322	-3.4064	-0.5989	-0.8248	1.9928	5.859	5.9125	4.2128	3.6581	2.5495	-0.865	-2.7986	-2.8925	-3.9026	-4.3316	-2.9994	-4.5858	-3.3492	-4.0609	-3.5527	-2.8903	-0.8436	1.0188	1.803	1.1259	0.4725	-3.0735	-3.5361
140.625	-2.7739	-2.824	-2.039	-3.1211	-0.5449	-0.7556	1.7916	5.3191	5.3414	3.9873	3.3789	2.3973	-0.9719	-2.8041	-2.4399	-3.6429	-4.1087	-2.837	-4.4563	-3.042	-3.8753	-3.5134	-2.81	-1.2316	0.3937	0.6077	0.5532	0.0871	-2.7281	-3.1981
144.5312	-2.4687	-2.6107	-1.8173	-2.8612	-0.4865	-0.6686	1.5395	4.6941	4.7176	3.6983	3.0229	2.1396	-1.1253	-2.8251	-2.0753	-3.3879	-3.8925	-2.6898	-4.2841	-2.7485	-3.7222	-3.4476	-2.7114	-1.6138	-0.2125	-0.5035	-0.0135	-0.3036	-2.4077	-2.8587
148.4375	-2.2028	-2.4116	-1.69	-2.6504	-0.4285	-0.5692	1.2627	4.0635	4.1098	3.3791	2.6362	1.8193	-1.3181	-2.8724	-1.8378	-3.1758	-3.7118	-2.5848	-4.1038	-2.5153	-3.6213	-3.3847	-2.624	-1.9792	-0.769	-1.4569	-0.5351	-0.6576	-2.1366	-2.5511
152.3438	-2.0004	-2.2535	-1.6662	-2.5079	-0.3758	-0.4688	0.9904	3.5014	3.5803	3.067	2.2622	1.4762	-1.5412	-2.9539	-1.746	-3.0362	-3.5926	-2.5433	-3.9539	-2.3774	-3.5829	-3.354	-2.5783	-2.3194	-1.2493	-2.1954	-0.9783	-0.9392	-1.934	-2.3058
156.25	-1.8804	-2.1603	-1.7413	-2.4461	-0.3327	-0.3823	0.7515	3.0672	3.1779	2.7989	1.9372	1.1417	-1.7831	-3.0727	-1.798	-2.9874	-3.5554	-2.5785	-3.8705	-2.3535	-3.6073	-3.3786	-2.6002	-2.6282	-1.6327	-2.6828	-1.3188	-1.1225	-1.8135	-2.1483
160.1562	-1.8537	-2.1481	-1.8998	-2.4683	-0.2998	-0.3234	0.5717	2.7995	2.9343	2.6087	1.6875	0.8384	-2.0293	-3.2246	-1.9751	-3.0341	-3.6117	-2.6933	-3.881	-2.443	-3.6846	-3.4707	-2.7054	-2.8992	-1.9058	-2.9051	-1.5407	-1.1932	-1.7828	-2.0965
164.0625	-1.9216	-2.2203	-2.1182	-2.5658	-0.2726	-0.3004	0.4728	2.7152	2.8642	2.5251	1.5308	0.5824	-2.2612	-3.3962	-2.2463	-3.1662	-3.7606	-2.8787	-3.997	-2.626	-3.7958	-3.6286	-2.8959	-3.123	-2.0623	-2.8678	-1.6352	-1.1465	-1.843	-2.159
167.9688	-2.0746	-2.3652	-2.3698	-2.717	-0.2405	-0.3116	0.4717	2.8108	2.9666	2.5707	1.4775	0.3863	-2.4553	-3.5643	-2.5747	-3.3603	-3.9859	-3.1135	-4.2107	-2.8662	-3.9149	-3.8348	-3.1584	-3.2854	-2.1028	-2.5916	-1.5971	-0.9851	-1.9882	-2.3339
171.875	-2.2943	-2.5577	-2.6284	-2.8908	-0.188	-0.3455	0.5802	3.0673	3.2285	2.7614	1.5337	0.2619	-2.5848	-3.6989	-2.9238	-3.5834	-4.2585	-3.3678	-4.495	-3.118	-4.0128	-4.0597	-3.4656	-3.3678	-2.0336	-2.1082	-1.4231	-0.7164	-2.2064	-2.6102
175.7812	-2.5569	-2.7651	-2.8733	-3.0524	-0.0994	-0.383	0.8044	3.4548	3.6282	3.1045	1.702	0.2217	-2.6225	-3.7671	-3.2629	-3.7994	-4.5405	-3.6069	-4.8083	-3.3348	-4.0619	-4.2663	-3.7814	-3.3485	-1.865	-1.4562	-1.111	-0.3503	-2.4808	-2.9703
179.6875	-2.8379	-2.9554	-3.092	-3.1719	0.0368	-0.403	1.1438	3.9376	4.1381	3.5977	1.9823	0.2776	-2.5448	-3.7401	-3.5726	-3.9769	-4.7937	-3.7987	-5.1034	-3.479	-4.0418	-4.4176	-4.0668	-3.2073	-1.6104	-0.678	-0.6608	0.101	-2.7932	-3.3933
183.5938	-3.1176	-3.1054	-3.2813	-3.2305	0.2241	-0.3886	1.5915	4.4792	4.7273	4.2277	2.371	0.4391	-2.3362	-3.5987	-3.8462	-4.0962	-4.9875	-3.9193	-5.3368	-3.5298	-3.9427	-4.4839	-4.2871	-2.9297	-1.284	0.182	-0.0766	0.6245	-3.1261	-3.8588
187.5	-3.3832	-3.2046	-3.4452	-3.2249	0.4562	-0.3316	2.1342	5.0463	5.3646	4.9709	2.8596	0.7108	-1.9916	-3.3382	-4.0883	-4.1527	-5.1061	-3.9573	-5.4783	-3.4863	-3.7675	-4.4483	-4.418	-2.5106	-0.8998	1.0814	0.632	1.2062	-3.4646	-4.3476
191.4062	-3.6299	-3.2564	-3.5925	-3.1669	0.7181	-0.2343	2.7534	5.6116	6.0201	5.795	3.4344	1.0908	-1.5191	-2.9689	-4.3094	-4.1572	-5.1511	-3.9152	-5.5159	-3.3666	-3.531	-4.3088	-4.4493	-1.9569	-0.47	1.9821	1.4486	1.8321	-3.7965	-4.8425
195.3125	-3.8592	-3.2746	-3.733	-3.0795	0.989	-0.1082	3.4259	6.1553	6.6662	6.6614	4.0744	1.5679	-0.9398	-2.5161	-4.521	-4.1316	-5.1409	-3.8079	-5.4585	-3.203	-3.258	-4.0791	-4.3868	-1.2884	-0.0045	2.8536	2.3495	2.487	-4.1118	-5.3266
199.2188	-4.0766	-3.2791	-3.8759	-2.9916	1.2458	0.0296	4.1245	6.6638	7.2782	7.5276	4.7506	2.1202	-0.2881	-2.0168	-4.732	-4.1046	-5.1065	-3.66	-5.3329	-3.0357	-2.9807	-3.7863	-4.2506	-0.538	0.488	3.6733	3.3034	3.1534	-4.4027	-5.7836
203.125	-4.2892	-3.2908	-4.029	-2.9322	1.4657	0.1598	4.8181	7.1274	7.8338	8.349	5.426	2.7138	0.39	-1.5161	-4.9475	-4.1057	-5.084	-3.5018	-5.1788	-2.906	-2.7354	-3.467	-4.0719	0.2505	0.9987	4.4268	4.2718	3.8093	-4.6636	-6.198
207.0312	-4.5036	-3.3281	-4.1987	-2.9255	1.6287	0.2647	5.4722	7.5382	8.3136	9.0814	6.0568	3.304	1.0399	-1.0626	-5.1698	-4.1606	-5.1061	-3.3643	-5.0407	-2.8504	-2.5597	-3.1626	-3.8872	1.0261	1.5177	5.1067	5.2106	4.4281	-4.8921	-6.5571
210.9375	-4.7243	-3.4049	-4.3892	-2.9873	1.7187	0.3304	6.0511	7.8891	8.7021	9.6835	6.5976	3.8393	1.604	-0.7033	-5.3995	-4.2878	-5.1955	-3.2746	-4.9586	-2.8967	-2.4889	-2.913	-3.7317	1.7359	2.0329	5.711	6.0734	4.9796	-5.0884	-6.8521
214.8438	-4.9524	-3.5291	-4.6007	-3.1235	1.7251	0.3476	6.5214	8.1734	8.9904	10.1215	7.0072	4.2683	2.0285	-0.4776	-5.6353	-4.4955	-5.3587	-3.251	-4.9603	-3.0607	-2.5508	-2.7501	-3.6323	2.3323	2.5309	6.2428	6.8162	5.4347	-5.2549	-7.0789
218.75	-5.1848	-3.7032	-4.8285	-3.3305	1.6436	0.3118	6.8566	8.3867	9.1775	10.3727	7.2563	4.5488	2.2708	-0.4127	-5.8736	-4.7816	-5.5861	-3.3001	-5.0557	-3.3453	-2.7617	-2.6923	-3.6021	2.7803	2.9989	6.7099	7.4039	5.7707	-5.3947	-7.2381
222.6562	-5.4156	-3.9257	-5.0618	-3.5974	1.4762	0.2225	7.0409	8.5283	9.2723	10.4295	7.3328	4.656	2.3062	-0.5196	-6.1079	-5.1342	-5.8549	-3.4161	-5.2364	-3.7422	-3.1236	-2.7429	-3.6387	3.062	3.4271	7.1249	7.816	5.9777	-5.5109	-7.3336
226.5625	-5.6372	-4.192	-5.2853	-3.9093	1.2308	0.0821	7.0721	8.6019	9.2919	10.3011	7.2453	4.5885	2.1307	-0.7923	-6.3287	-5.5359	-6.1364	-3.5829	-5.4799	-4.2345	-3.6229	-2.8901	-3.7252	3.1786	3.81	7.5038	8.0503	6.0622	-5.6061	-7.3725
230.4688	-5.8427	-4.4968	-5.4831	-4.2504	0.9201	-0.1045	6.9617	8.616	9.2597	10.0135	7.0216	4.3691	1.7619	-1.2092	-6.5252	-5.9673	-6.4046	-3.7789	-5.7566	-4.8009	-4.2331	-3.1122	-3.8362	3.1487	4.1481	7.8638	8.1234	6.0475	-5.6819	-7.3642
234.375	-6.0274	-4.8334	-5.6429	-4.6066	0.5595	-0.3297	6.7327	8.5829	9.2012	9.6074	6.7053	4.0419	1.2361	-1.7369	-6.6878	-6.4111	-6.6429	-3.9818	-6.0389	-5.4194	-4.9184	-3.3832	-3.9446	3.0031	4.4462	8.2198	8.068	5.9703	-5.7394	-7.3201
238.2812	-6.1893	-5.1933	-5.7588	-4.9658	0.1672	-0.583	6.4173	8.5178	9.1415	9.135	6.3495	3.6653	0.604	-2.334	-6.8109	-6.8536	-6.8479	-4.1742	-6.3072	-6.0692	-5.6387	-3.6787	-4.0285	2.7792	4.7123	8.5812	7.9276	5.8737	-5.7791	-7.2526
242.1875	-6.3284	-5.5653	-5.8317	-5.3181	-0.2377	-0.8503	6.0529	8.437	9.1016	8.6548	6.0093	3.3021	-0.0756	-2.9565	-6.8943	-7.2858	-7.0281	-4.3455	-6.5532	-6.7312	-6.3548	-3.9794	-4.0766	2.515	4.9533	8.9495	7.749	5.8001	-5.8003	-7.173
246.0938	-6.4454	-5.9346	-5.8675	-5.6541	-0.635	-1.115	5.6791	8.3561	9.0965	8.225	5.7334	3.0092	-0.7414	-3.5622	-6.9441	-7.7015	-7.1994	-4.4933	-6.7796	-7.3868	-7.0322	-4.2732	-4.0902	2.2442	5.1725	9.3175	7.5754	5.7823	-5.8021	-7.0897
250	-6.5409	-6.2836	-5.8752	-5.9638	-1.0051	-1.3591	5.3333	8.287	9.1325	7.8957	5.5563	2.8271	-1.3369	-4.1139	-6.9708	-8.0955	-7.3784	-4.6216	-6.9959	-8.0171	-7.6444	-4.5541	-4.0818	1.9931	5.3661	9.6689	7.4392	5.8373	-5.7835	-7.0062
253.9062	-6.6148	-6.593	-5.8649	-6.235	-1.3291	-1.565	5.0473	8.2366	9.2058	7.7005	5.492	2.772	-1.8154	-4.5822	-6.9863	-8.4611	-7.5765	-4.7373	-7.2135	-8.6011	-8.1731	-4.8196	-4.0713	1.7789	5.5224	9.9805	7.3576	5.961	-5.7446	-6.921
257.8125	-6.666	-6.8429	-5.8462	-6.4521	-1.589	-1.7162	4.8442	8.2046	9.3024	7.6505	5.5314	2.8324	-2.145	-4.9463	-6.9991	-8.7887	-7.7943	-4.8466	-7.4391	-9.1161	-8.6079	-5.068	-4.08	1.6094	5.6229	10.225	7.3299	6.1278	-5.6866	-6.8275
261.7188	-6.6922	-7.0154	-5.8262	-6.5964	-1.7686	-1.7978	4.7358	8.1844	9.4001	7.732	5.6435	2.9719	-2.3098	-5.1932	-7.011	-9.0653	-8.0208	-4.9516	-7.6708	-9.5389	-8.944	-5.2957	-4.125	1.4845	5.6461	10.3741	7.3396	6.2942	-5.6116	-6.7166
265.625	-6.6895	-7.0963	-5.8072	-6.6478	-1.8541	-1.7973	4.7222	8.1648	9.4724	7.9086	5.7825	3.1374	-2.3108	-5.3179	-7.0155	-9.2759	-8.2349	-5.0485	-7.8967	-9.8488	-9.1801	-5.4957	-4.2143	1.3986	5.5732	10.4028	7.3585	6.4076	-5.5214	-6.5793
269.5312	-6.6534	-7.078	-5.7858	-6.5895	-1.8365	-1.7064	4.7924	8.133	9.4942	8.1292	5.8978	3.272	-2.1622	-5.3214	-6.9992	-9.4067	-8.4098	-5.1284	-8.0959	-10.031	-9.3168	-5.6578	-4.3449	1.3428	5.3936	10.2936	7.3543	6.4176	-5.4164	-6.4096
273.4375	-6.5804	-6.9616	-5.7537	-6.4127	-1.7145	-1.5244	4.9272	8.0779	9.447	8.3384	5.9462	3.3293	-1.8881	-5.2108	-6.9467	-9.4488	-8.5193	-5.1798	-8.244	-10.0804	-9.3562	-5.7704	-4.5034	1.3079	5.11	10.0398	7.2985	6.2879	-5.2955	-6.2072
277.3438	-6.4688	-6.758	-5.7009	-6.1223	-1.497	-1.2616	5.1019	7.9932	9.3226	8.4882	5.901	3.2838	-1.5173	-4.998	-6.8461	-9.4006	-8.5442	-5.1916	-8.318	-10.0032	-9.3019	-5.8227	-4.6687	1.2872	4.7391	9.6475	7.1732	6.0055	-5.1572	-5.9788
281.25	-6.3211	-6.4876	-5.6195	-5.739	-1.2046	-0.9409	5.2917	7.879	9.1254	8.5475	5.7588	3.137	-1.079	-4.6987	-6.6946	-9.2694	-8.4765	-5.1572	-8.3027	-9.8175	-9.16	-5.8069	-4.8162	1.2775	4.3101	9.1361	6.9758	5.5849	-5.0001	-5.7365
285.1562	-6.1433	-6.1771	-5.5063	-5.2976	-0.8674	-0.596	5.4752	7.7406	8.8715	8.5082	5.5389	2.916	-0.5995	-4.3315	-6.5009	-9.0704	-8.3216	-5.076	-8.1953	-9.5505	-8.9396	-5.7207	-4.9226	1.2797	3.8592	8.5361	6.7184	5.065	-4.8246	-5.4958
289.0625	-5.9447	-5.8553	-5.3631	-4.8413	-0.5212	-0.2666	5.638	7.5874	8.5854	8.3841	5.2787	2.6664	-0.1012	-3.9167	-6.2827	-8.8236	-8.0961	-4.9537	-8.0057	-9.2344	-8.6527	-5.5683	-4.9696	1.2967	3.4222	7.8849	6.4239	4.501	-4.6331	-5.2715
292.9688	-5.7359	-5.5471	-5.1956	-4.4137	-0.2014	0.0096	5.7735	7.4301	8.2953	8.2052	5.0235	2.4407	0.397	-3.475	-6.0608	-8.5504	-7.8245	-4.8007	-7.7553	-8.9018	-8.3137	-5.3601	-4.9472	1.3308	3.0276	7.2198	6.1186	3.9518	-4.4301	-5.0737
296.875	-5.5262	-5.2696	-5.0113	-4.0494	0.0633	0.2039	5.8811	7.2775	8.0267	8.0065	4.8148	2.2859	0.8783	-3.0268	-5.8523	-8.2698	-7.5336	-4.6295	-7.4713	-8.5801	-7.939	-5.1115	-4.8544	1.3801	2.6905	6.5707	5.8227	3.4657	-4.2215	-4.9056
300.7812	-5.3222	-5.0289	-4.8177	-3.7674	0.2562	0.3032	5.9626	7.1341	7.7967	7.8151	4.679	2.2313	1.326	-2.5915	-5.6643	-7.9952	-7.2479	-4.4521	-7.1804	-8.2872	-7.5452	-4.8404	-4.6995	1.4352	2.41	5.953	5.5435	3.0689	-4.0132	-4.7628
304.6875	-5.1257	-4.8199	-4.6201	-3.5672	0.3756	0.3121	6.0175	6.9988	7.6088	7.6407	4.6194	2.2807	1.7226	-2.1857	-5.4916	-7.732	-6.9844	-4.2774	-6.9026	-8.0286	-7.1471	-4.5639	-4.497	1.4792	2.1705	5.3644	5.2706	2.758	-3.8096	-4.6334
308.5938	-4.9329	-4.6274	-4.4201	-3.4296	0.4346	0.2519	6.0402	6.8643	7.4516	7.4705	4.6141	2.4099	2.0507	-1.8224	-5.3189	-7.4766	-6.7495	-4.1103	-6.6461	-7.7957	-6.7556	-4.2947	-4.265	1.4902	1.947	4.7864	4.9781	2.5014	-3.6125	-4.5014
312.5	-4.7347	-4.4292	-4.2151	-3.3211	0.4587	0.1566	6.0197	6.7189	7.3009	7.2727	4.6203	2.5702	2.2952	-1.5083	-5.1249	-7.2164	-6.5366	-3.95	-6.4047	-7.5673	-6.3747	-4.0379	-4.0196	1.4466	1.7129	4.1907	4.6317	2.2467	-3.4213	-4.3497
316.4062	-4.5191	-4.2001	-3.9983	-3.2008	0.4807	0.0661	5.9426	6.5496	7.1255	7.0057	4.5839	2.6967	2.4475	-1.2421	-4.8886	-6.9308	-6.3262	-3.7898	-6.1588	-7.3122	-6.0006	-3.7887	-3.7713	1.3346	1.4487	3.55	4.1988	1.934	-3.2333	-4.1637
320.3125	-4.2732	-3.9165	-3.7614	-3.0276	0.5354	0.0199	5.7994	6.3462	6.8958	6.6313	4.4521	2.721	2.5084	-1.0136	-4.5938	-6.5945	-6.0878	-3.6166	-5.8779	-6.9945	-5.621	-3.5323	-3.5208	1.1541	1.1485	2.849	3.6608	1.5117	-3.0454	-3.9346
324.2188	-3.9871	-3.5604	-3.4961	-2.7676	0.6542	0.0506	5.5901	6.106	6.5924	6.1287	4.1865	2.5857	2.4913	-0.8034	-4.2331	-6.1814	-5.7849	-3.4126	-5.527	-6.5797	-5.2169	-3.2453	-3.2585	0.9224	0.8236	2.0937	3.0218	0.9507	-2.856	-3.6616
328.125	-3.6565	-3.1226	-3.1978	-2.3989	0.8608	0.1806	5.3298	5.8378	6.2132	5.5039	3.7728	2.2578	2.4219	-0.5857	-3.8099	-5.6701	-5.3826	-3.1577	-5.0735	-6.0411	-4.7656	-2.9	-2.9656	0.6733	0.5016	1.3159	2.3135	0.2552	-2.6665	-3.3523
332.0312	-3.2846	-2.6044	-2.8671	-1.9143	1.1684	0.4194	5.0488	5.5627	5.776	4.7935	3.2262	1.7387	2.336	-0.3322	-3.3381	-5.0483	-4.8553	-2.8337	-4.4943	-5.3647	-4.2455	-2.4698	-2.619	0.4528	0.2209	0.5702	1.5936	-0.5343	-2.4826	-3.0223
335.9375	-2.8832	-2.0177	-2.512	-1.3212	1.5784	0.7636	4.7895	5.3116	5.3169	4.0607	2.5905	1.0685	2.275	-0.0167	-2.8404	-4.3175	-4.1949	-2.4284	-3.7824	-4.5534	-3.6415	-1.9353	-2.1972	0.311	0.0235	-0.0742	0.9377	-1.3442	-2.3148	-2.6928
339.8438	-2.4716	-1.3836	-2.149	-0.6402	2.0798	1.1972	4.5988	5.1204	4.8831	3.3852	1.9321	0.3219	2.2795	0.3788	-2.3442	-3.4945	-3.4155	-1.9397	-2.9506	-3.6275	-2.9493	-1.2902	-1.6868	0.2934	-0.0535	-0.5471	0.4274	-2.0797	-2.1774	-2.3882
343.75	-2.0749	-0.7301	-1.8019	0.0975	2.6499	1.6939	4.5202	5.0226	4.5248	2.8492	1.3291	-0.4027	2.3819	0.86	-1.8777	-2.6105	-2.554	-1.3774	-2.0321	-2.6235	-2.1781	-0.5447	-1.0876	0.432	0.0147	-0.7916	0.1356	-2.6415	-2.0865	-2.1323
347.6562	-1.7204	-0.0891	-1.4985	0.8535	3.2569	2.2202	4.5849	5.0422	4.2852	2.5221	0.8586	-1.0006	2.6004	1.4178	-1.466	-1.7082	-1.6654	-0.7638	-1.0773	-1.59	-1.3513	0.2737	-0.4157	0.7389	0.2354	-0.7768	0.1126	-2.9447	-2.0576	-1.9452
351.5625	-1.4334	0.5073	-1.2647	1.5865	3.8635	2.7397	4.8062	5.1881	4.1926	2.4486	0.5834	-1.3798	2.9349	2.0291	-1.1288	-0.8365	-0.8146	-0.1315	-0.1472	-0.5818	-0.5034	1.1231	0.2972	1.2031	0.5961	-0.5051	0.3758	-2.9365	-2.1019	-1.8406
355.4688	-1.2333	1.0303	-1.1192	2.2569	4.4323	3.2186	5.1767	5.4525	4.2558	2.6399	0.5409	-1.479	3.3666	2.6594	-0.8787	-0.0438	-0.0656	0.4808	0.6967	0.3473	0.3243	1.953	1.0082	1.7922	1.0656	-0.0142	0.9047	-2.6082	-2.224	-1.8243
359.375	-1.1294	1.4585	-1.0684	2.8316	4.9314	3.6307	5.6692	5.8112	4.4618	3.0721	0.7361	-1.2799	3.8611	3.2692	-0.7208	0.6283	0.5296	1.0336	1.4021	1.1515	1.0907	2.7126	1.6698	2.4561	1.5984	0.6288	1.6427	-1.9992	-2.4196	-1.8941
363.2812	-1.1192	1.7805	-1.1048	3.2894	5.339	3.961	6.2405	6.2287	4.778	3.6899	1.1401	-0.8113	4.3748	3.8197	-0.6528	1.1512	0.9392	1.4928	1.9356	1.7997	1.7616	3.3597	2.2378	3.1359	2.1413	1.3372	2.5049	-1.1916	-2.6746	-2.0397
367.1875	-1.1883	1.9967	-1.2079	3.6234	5.6464	4.2066	6.8382	6.6645	5.1576	4.4159	1.6946	-0.143	4.8629	4.2793	-0.6647	1.5137	1.1575	1.8358	2.2876	2.279	2.3151	3.8679	2.6792	3.7718	2.6416	2.0187	3.3918	-0.2962	-2.9664	-2.2436
371.0938	-1.3117	2.1193	-1.3474	3.8418	5.8578	4.3754	7.408	7.0798	5.5474	5.1624	2.3223	0.6279	5.287	4.6283	-0.7401	1.7224	1.2051	2.0546	2.4733	2.5968	2.7444	4.2303	2.9782	4.312	3.0546	2.5894	4.2043	0.5674	-3.2661	-2.4821
375	-1.4586	2.1702	-1.4884	3.9656	5.9871	4.482	7.9004	7.4422	5.8959	5.8451	2.9402	1.3968	5.6201	4.861	-0.8569	1.8004	1.1245	2.1573	2.5284	2.7779	3.0575	4.4592	3.1386	4.7188	3.3499	2.9855	4.8579	1.2907	-3.5432	-2.7272
378.9062	-1.5968	2.177	-1.5977	4.024	6.0537	4.5433	8.2771	7.7294	6.1618	6.3942	3.4738	2.0698	5.8498	4.9854	-0.9898	1.7823	0.9715	2.166	2.5013	2.86	3.2731	4.5819	3.1827	4.9719	3.5139	3.1709	5.2946	1.7941	-3.7702	-2.9496
382.8125	-1.6987	2.1675	-1.6502	4.0479	6.0768	4.5741	8.5139	7.9294	6.3188	6.7623	3.8684	2.5791	5.9767	5.0202	-1.1131	1.7076	0.804	2.1118	2.4423	2.886	3.4153	4.6331	3.1461	5.068	3.5492	3.1391	5.4876	2.0365	-3.9276	-3.1222
386.7188	-1.7458	2.1636	-1.6334	4.0635	6.0706	4.5835	8.6012	8.0397	6.3582	6.9289	4.096	2.8898	6.0117	4.9901	-1.2047	1.6143	0.6711	2.0285	2.3954	2.8958	3.5074	4.6476	3.0711	5.0185	3.4717	2.9103	5.4419	2.0178	-4.0065	-3.2245
390.625	-1.7321	2.1772	-1.5502	4.0868	6.0412	4.5739	8.5431	8.0651	6.2873	6.8991	4.1552	3.0003	5.9713	4.9202	-1.2489	1.5321	0.6047	1.9465	2.3905	2.9193	3.5674	4.6535	2.9981	4.8448	3.3054	2.5251	5.1885	1.7726	-4.0108	-3.2463
394.5312	-1.6647	2.2078	-1.4183	4.1212	5.9859	4.541	8.3535	8.0149	6.1254	6.6993	4.0674	2.9343	5.8719	4.8307	-1.2382	1.4784	0.6148	1.8875	2.4407	2.9714	3.605	4.6676	2.9592	4.5736	3.0784	2.0351	4.7756	1.3589	-3.9556	-3.1894
398.4375	-1.5617	2.2433	-1.2664	4.1582	5.8947	4.4764	8.0531	7.9007	5.8977	6.3706	3.8677	2.7313	5.7269	4.7337	-1.1737	1.4561	0.6901	1.8614	2.542	3.0498	3.6218	4.6941	2.9717	4.2324	2.8179	1.4938	4.2586	0.8447	-3.8649	-3.0677
402.3438	-1.4485	2.2639	-1.1287	4.1806	5.7546	4.371	7.6661	7.7349	5.6309	5.9603	3.5967	2.4358	5.5442	4.6318	-1.0642	1.454	0.802	1.8662	2.6754	3.1379	3.6125	4.7253	3.0361	3.8465	2.5486	0.9491	3.6904	0.2953	-3.7661	-2.9032
406.25	-1.3516	2.2473	-1.0372	4.168	5.5539	4.218	7.2187	7.5304	5.3491	5.5154	3.293	2.0889	5.3272	4.5197	-0.9256	1.4497	0.9116	1.8881	2.8115	3.2085	3.568	4.7444	3.1354	3.4371	2.2902	0.4381	3.1151	-0.2358	-3.6847	-2.7217
410.1562	-1.2939	2.1747	-1.0145	4.1021	5.2866	4.0161	6.7373	7.3009	5.0722	5.0766	2.9876	1.7241	5.0765	4.3871	-0.7796	1.4144	0.9782	1.9052	2.9155	3.2307	3.479	4.7296	3.2388	3.0203	2.057	-0.0158	2.5645	-0.7117	-3.64	-2.5477
414.0625	-1.2905	2.0341	-1.0689	3.9701	4.955	3.7702	6.2476	7.0612	4.8156	4.6736	2.7024	1.3655	4.7924	4.2226	-0.6518	1.3189	0.9672	1.891	2.9526	3.1754	3.3388	4.6581	3.3079	2.6075	1.8571	-0.4026	2.0571	-1.1131	-3.6425	-2.4009
417.9688	-1.3476	1.822	-1.193	3.7657	4.5686	3.4894	5.7731	6.8269	4.5893	4.3233	2.4493	1.0284	4.4762	4.0165	-0.5687	1.1393	0.8562	1.8199	2.8942	3.0209	3.145	4.5105	3.3043	2.2054	1.6926	-0.7233	1.6005	-1.4362	-3.6933	-2.2944
421.875	-1.4636	1.5414	-1.3671	3.4883	4.1415	3.1849	5.3317	6.6128	4.3982	4.0289	2.231	0.7212	4.131	3.7629	-0.5528	0.8616	0.6386	1.6719	2.7215	2.755	2.8989	4.2736	3.1975	1.8171	1.5601	-0.9867	1.1937	-1.688	-3.7866	-2.2346
425.7812	-1.6318	1.1991	-1.5652	3.1407	3.6885	2.8656	4.9341	6.4302	4.2415	3.7811	2.0427	0.4468	3.7613	3.4602	-0.6185	0.4834	0.3235	1.4372	2.4294	2.3767	2.6047	3.9426	2.9714	1.4426	1.4524	-1.2044	0.8314	-1.8814	-3.912	-2.2227
429.6875	-1.8434	0.8028	-1.7627	2.7279	3.2209	2.5365	4.5817	6.284	4.1126	3.5611	1.8733	0.2044	3.3726	3.1109	-0.7693	0.0136	-0.0673	1.1176	2.0255	1.8949	2.2668	3.5217	2.6275	1.0807	1.3605	-1.3865	0.5076	-2.0302	-4.0581	-2.2556
433.5938	-2.0898	0.3594	-1.9423	2.256	2.7461	2.1982	4.267	6.171	3.9996	3.3456	1.7082	-0.0104	2.9709	2.721	-0.997	-0.5309	-0.5062	0.7266	1.5286	1.3274	1.8886	3.0238	2.1846	0.7297	1.2753	-1.5389	0.2177	-2.1465	-4.2146	-2.3277
437.5	-2.3637	-0.1249	-2.097	1.7337	2.2677	1.8488	3.9761	6.0796	3.8867	3.1125	1.5316	-0.2043	2.563	2.2993	-1.282	-1.1283	-0.965	0.2866	0.9642	0.6978	1.4722	2.4689	1.6754	0.3886	1.1891	-1.6625	-0.0397	-2.2391	-4.3732	-2.4315
441.4062	-2.6582	-0.6418	-2.229	1.1745	1.7893	1.4875	3.6931	5.9926	3.7576	2.8468	1.3308	-0.3856	2.1572	1.8573	-1.5964	-1.7549	-1.4202	-0.1742	0.3617	0.0339	1.0201	1.8818	1.14	0.0585	1.0964	-1.7552	-0.2639	-2.3141	-4.5273	-2.5574
445.3125	-2.9648	-1.1781	-2.3467	0.5984	1.3186	1.119	3.4051	5.8914	3.5992	2.5461	1.1	-0.5607	1.7637	1.4102	-1.9068	-2.3869	-1.8542	-0.6254	-0.2486	-0.6342	0.5379	1.2902	0.6203	-0.2573	0.994	-1.8134	-0.4519	-2.3746	-4.6706	-2.6941
449.2188	-3.2717	-1.7137	-2.4588	0.0322	0.8697	0.7562	3.1072	5.7615	3.4049	2.2223	0.8438	-0.7318	1.3954	0.9765	-2.1795	-3.0009	-2.254	-1.0372	-0.8367	-1.2754	0.0371	0.723	0.1538	-0.5517	0.8812	-1.8352	-0.5996	-2.4208	-4.7954	-2.8283
453.125	-3.5623	-2.2216	-2.5693	-0.4928	0.4642	0.4204	2.805	5.596	3.1773	1.9007	0.5779	-0.8939	1.0671	0.5778	-2.3843	-3.5729	-2.6088	-1.3835	-1.3729	-1.86	-0.4625	0.208	-0.2306	-0.8143	0.7584	-1.8219	-0.7026	-2.4498	-4.8918	-2.9455
457.0312	-3.8163	-2.6713	-2.6735	-0.9446	0.1286	0.1391	2.5136	5.398	2.9283	1.6152	0.3277	-1.0349	0.7934	0.2375	-2.4988	-4.0794	-2.9077	-1.6437	-1.8299	-2.3611	-0.9344	-0.2292	-0.5143	-1.0324	0.6271	-1.7787	-0.7573	-2.4559	-4.9487	-3.031
460.9375	-4.0117	-3.0335	-2.7578	-1.2964	-0.1109	-0.059	2.2549	5.1785	2.6764	1.4014	0.1232	-1.1377	0.5869	-0.022	-2.5117	-4.4976	-3.1392	-1.8053	-2.1837	-2.7579	-1.3475	-0.5682	-0.6902	-1.1935	0.4886	-1.7158	-0.763	-2.4326	-4.9558	-3.0716
464.8438	-4.1287	-3.2857	-2.803	-1.5309	-0.2343	-0.1506	2.0516	4.9531	2.4416	1.2879	-0.0077	-1.1856	0.4557	-0.183	-2.4246	-4.8086	-3.2927	-1.8649	-2.4172	-3.038	-1.6722	-0.796	-0.7608	-1.289	0.3436	-1.6476	-0.7235	-2.3752	-4.9059	-3.0573
468.75	-4.1537	-3.4159	-2.7907	-1.6441	-0.2341	-0.1241	1.921	4.7373	2.2405	1.2889	-0.0466	-1.1682	0.4016	-0.2351	-2.2523	-4.9995	-3.3608	-1.8292	-2.5229	-3.1997	-1.8862	-0.9089	-0.7373	-1.3172	0.1922	-1.5918	-0.6488	-2.2846	-4.797	-2.9825
472.6562	-4.0817	-3.4253	-2.7096	-1.6443	-0.1177	0.0169	1.8699	4.5415	2.081	1.3999	0.0104	-1.0857	0.4202	-0.1785	-2.0198	-5.0667	-3.3413	-1.7134	-2.5042	-3.2519	-1.9792	-0.9139	-0.6371	-1.2854	0.0337	-1.5672	-0.5556	-2.1691	-4.6331	-2.8466
476.5625	-3.9183	-3.3262	-2.5598	-1.5504	0.0923	0.2526	1.8917	4.3691	1.9605	1.5969	0.1497	-0.9511	0.5012	-0.0239	-1.7568	-5.0158	-3.2383	-1.539	-2.3759	-3.2134	-1.9559	-0.8276	-0.4816	-1.2096	-0.1325	-1.5911	-0.4658	-2.0444	-4.424	-2.6542
480.4688	-3.6788	-3.14	-2.3537	-1.3876	0.3617	0.55	1.9676	4.2159	1.8667	1.8405	0.3424	-0.7881	0.6301	0.2085	-1.4908	-4.8622	-3.062	-1.3295	-2.1614	-3.1089	-1.8352	-0.6737	-0.2938	-1.1116	-0.3059	-1.6754	-0.4032	-1.9312	-4.183	-2.4142
484.375	-3.3862	-2.8928	-2.1132	-1.1824	0.6512	0.869	2.0704	4.0735	1.7817	2.0835	0.5499	-0.6267	0.7903	0.4913	-1.2409	-4.6284	-2.8268	-1.1066	-1.8892	-2.9654	-1.6463	-0.4796	-0.0959	-1.0153	-0.4842	-1.8238	-0.3893	-1.8511	-3.9246	-2.1392
488.2812	-3.0678	-2.6123	-1.8652	-0.9594	0.9227	1.1683	2.1711	3.9332	1.6876	2.2812	0.7313	-0.4957	0.9651	0.794	-1.0138	-4.3416	-2.5492	-0.8865	-1.5881	-2.8077	-1.4239	-0.2711	0.0934	-0.9412	-0.6624	-2.0302	-0.4389	-1.8214	-3.6624	-1.8442
492.1875	-2.7518	-2.325	-1.6357	-0.7384	1.1452	1.4132	2.246	3.7907	1.5721	2.3998	0.8525	-0.4165	1.139	1.086	-0.805	-4.0301	-2.2456	-0.679	-1.2829	-2.6559	-1.202	-0.0694	0.2604	-0.9026	-0.8333	-2.2795	-0.5568	-1.8513	-3.4073	-1.5455
496.0938	-2.4631	-2.0552	-1.4452	-0.5344	1.2992	1.5803	2.2811	3.649	1.4323	2.4237	0.8924	-0.3989	1.2987	1.34	-0.6034	-3.7215	-1.9313	-0.4879	-0.9925	-2.5245	-1.0104	0.1109	0.3971	-0.9033	-0.9877	-2.5513	-0.7376	-1.9401	-3.1673	-1.2593
500	-2.2216	-1.8243	-1.3049	-0.3585	1.377	1.6605	2.2739	3.5185	1.2753	2.357	0.8461	-0.4403	1.4328	1.5334	-0.3989	-3.4412	-1.6207	-0.3142	-0.7303	-2.4232	-0.8728	0.2615	0.5008	-0.9391	-1.1168	-2.824	-0.9666	-2.0777	-2.9484	-1.0011
503.9062	-2.0408	-1.6514	-1.216	-0.2202	1.3813	1.6584	2.231	3.4142	1.1153	2.2206	0.7243	-0.5285	1.531	1.6489	-0.1902	-3.2121	-1.3291	-0.1609	-0.5071	-2.3597	-0.8069	0.3772	0.5714	-1.0008	-1.2136	-3.0803	-1.2247	-2.248	-2.7564	-0.7853
507.8125	-1.9281	-1.5518	-1.171	-0.1286	1.322	1.5893	2.1644	3.3513	0.97	2.0454	0.5488	-0.6464	1.584	1.6751	0.0108	-3.054	-1.0748	-0.036	-0.3345	-2.3418	-0.8252	0.4525	0.6078	-1.0785	-1.2755	-3.3096	-1.4921	-2.4328	-2.5976	-0.6251
511.7188	-1.886	-1.5361	-1.1574	-0.0926	1.2125	1.4737	2.0856	3.3399	0.8549	1.8638	0.3468	-0.7769	1.5838	1.6068	0.1797	-2.9826	-0.8796	0.0458	-0.2267	-2.3775	-0.9353	0.4795	0.6063	-1.1659	-1.3042	-3.5096	-1.7523	-2.6157	-2.4803	-0.5322
515.625	-1.9128	-1.6075	-1.1627	-0.1197	1.0661	1.3329	2.0018	3.3816	0.7797	1.7012	0.1445	-0.9064	1.5246	1.4459	0.2853	-3.0082	-0.7674	0.0662	-0.1992	-2.4747	-1.1385	0.4474	0.5596	-1.2617	-1.3064	-3.6836	-1.9941	-2.7845	-2.4135	-0.5158
519.5312	-2.0039	-1.7609	-1.1777	-0.2135	0.8941	1.1842	1.9133	3.4672	0.7452	1.5709	-0.0382	-1.0271	1.4039	1.2019	0.2984	-3.133	-0.759	0.0077	-0.2657	-2.6382	-1.4282	0.3456	0.4598	-1.3693	-1.2921	-3.8374	-2.2118	-2.9323	-2.4051	-0.5803
523.4375	-2.1509	-1.9824	-1.199	-0.3717	0.7051	1.0391	1.8145	3.5781	0.7431	1.4715	-0.1908	-1.1365	1.2239	0.8915	0.2017	-3.3503	-0.8673	-0.14	-0.432	-2.8671	-1.7883	0.1676	0.302	-1.4947	-1.2728	-3.9765	-2.4043	-3.0571	-2.4587	-0.724
527.3438	-2.3425	-2.2515	-1.2273	-0.5857	0.5054	0.9036	1.6964	3.6898	0.7579	1.3899	-0.3129	-1.2361	0.9916	0.5373	-0.0037	-3.6432	-1.0917	-0.3746	-0.6921	-3.1524	-2.1927	-0.0847	0.0885	-1.6434	-1.2596	-4.1036	-2.5732	-3.1607	-2.5711	-0.9375
531.25	-2.5635	-2.5439	-1.2659	-0.8404	0.3004	0.779	1.5501	3.7763	0.7703	1.3053	-0.412	-1.3293	0.7186	0.1652	-0.2967	-3.9852	-1.4159	-0.68	-1.0254	-3.4765	-2.6073	-0.3981	-0.1683	-1.8178	-1.263	-4.2184	-2.7219	-3.2473	-2.7307	-1.2051
535.1562	-2.7964	-2.8346	-1.3168	-1.1158	0.0949	0.6636	1.3703	3.8163	0.7614	1.1962	-0.5	-1.4196	0.4198	-0.1994	-0.64	-4.3434	-1.8092	-1.0277	-1.3994	-3.8147	-2.9946	-0.7483	-0.4472	-2.0163	-1.2915	-4.3184	-2.8544	-3.3224	-2.9184	-1.5063
539.0625	-3.0231	-3.1019	-1.38	-1.3899	-0.1057	0.5544	1.1573	3.7958	0.7165	1.0454	-0.5895	-1.5102	0.1116	-0.535	-0.9886	-4.6828	-2.2314	-1.3827	-1.7745	-4.1391	-3.3199	-1.1038	-0.7213	-2.2332	-1.3518	-4.4015	-2.9752	-3.3922	-3.1106	-1.819
542.9688	-3.227	-3.3294	-1.452	-1.6414	-0.2964	0.4471	0.9163	3.7099	0.6267	0.843	-0.691	-1.6039	-0.1908	-0.8264	-1.3003	-4.9717	-2.6399	-1.7103	-2.1121	-4.4234	-3.5573	-1.4311	-0.9634	-2.461	-1.4477	-4.4678	-3.0901	-3.4638	-3.2844	-2.1234
546.875	-3.3962	-3.5083	-1.528	-1.853	-0.4732	0.3372	0.6559	3.5615	0.49	0.5878	-0.811	-1.7039	-0.4752	-1.0662	-1.5452	-5.1871	-2.9959	-1.9832	-2.3817	-4.6473	-3.6952	-1.7007	-1.1518	-2.6914	-1.5792	-4.5205	-3.2052	-3.5449	-3.4211	-2.4035
550.7812	-3.5237	-3.6372	-1.6031	-2.0138	-0.6332	0.2203	0.3855	3.3598	0.3102	0.2861	-0.9518	-1.8132	-0.7328	-1.254	-1.7115	-5.3179	-3.2699	-2.1852	-2.5658	-4.7999	-3.7372	-1.892	-1.2735	-2.9164	-1.7407	-4.5653	-3.3262	-3.6431	-3.5098	-2.6486
554.6875	-3.6079	-3.7212	-1.6734	-2.1207	-0.7748	0.0937	0.1133	3.1178	0.0958	-0.0492	-1.1109	-1.934	-0.9586	-1.3946	-1.8058	-5.3662	-3.4452	-2.3126	-2.6611	-4.8796	-3.7006	-1.9953	-1.3251	-3.128	-1.9198	-4.6077	-3.4557	-3.7633	-3.5479	-2.852
558.5938	-3.6511	-3.7696	-1.7353	-2.1775	-0.8972	-0.042	-0.1542	2.8512	-0.1415	-0.4008	-1.2822	-2.0654	-1.1497	-1.4955	-1.8492	-5.3453	-3.5185	-2.3727	-2.6769	-4.8936	-3.6117	-2.0116	-1.312	-3.3175	-2.0972	-4.6497	-3.5917	-3.9055	-3.5396	-3.0099
562.5	-3.6578	-3.7935	-1.7845	-2.1943	-0.9996	-0.1826	-0.412	2.5764	-0.388	-0.7484	-1.4563	-2.2017	-1.3042	-1.5645	-1.8689	-5.2765	-3.5007	-2.3802	-2.6312	-4.8552	-3.4997	-1.9505	-1.2449	-3.4743	-2.248	-4.688	-3.7263	-4.0622	-3.493	-3.1203
566.4062	-3.6333	-3.8038	-1.8149	-2.1842	-1.0816	-0.3203	-0.6556	2.3096	-0.63	-1.0703	-1.6219	-2.3321	-1.421	-1.608	-1.8905	-5.1845	-3.414	-2.3533	-2.546	-4.7809	-3.3909	-1.8275	-1.1378	-3.5876	-2.3457	-4.7137	-3.847	-4.2185	-3.417	-3.182
570.3125	-3.5835	-3.8099	-1.8197	-2.1607	-1.143	-0.4453	-0.8801	2.0647	-0.8549	-1.3459	-1.7673	-2.4423	-1.4999	-1.6314	-1.9307	-5.0937	-3.2881	-2.3093	-2.4425	-4.6879	-3.3048	-1.661	-1.0058	-3.6474	-2.3669	-4.715	-3.9399	-4.3545	-3.3193	-3.1959
574.2188	-3.5141	-3.8173	-1.7932	-2.1348	-1.1844	-0.5475	-1.0803	1.8516	-1.0532	-1.5574	-1.8825	-2.5178	-1.543	-1.639	-1.9944	-5.0238	-3.1548	-2.2623	-2.3376	-4.5911	-3.2522	-1.4702	-0.8635	-3.6485	-2.297	-4.6812	-3.9942	-4.45	-3.2056	-3.1656
578.125	-3.431	-3.8272	-1.7344	-2.1122	-1.2076	-0.6184	-1.2512	1.6748	-1.2197	-1.6925	-1.9612	-2.5476	-1.5568	-1.6354	-2.0749	-4.9882	-3.0424	-2.2213	-2.2426	-4.5018	-3.2349	-1.2732	-0.7245	-3.5929	-2.1343	-4.607	-4.0052	-4.4901	-3.0808	-3.0976
582.0312	-3.3403	-3.836	-1.648	-2.0933	-1.2159	-0.6531	-1.389	1.5335	-1.3536	-1.7459	-2.0019	-2.528	-1.5524	-1.6259	-2.1564	-4.9916	-2.9715	-2.1901	-2.1638	-4.4266	-3.2486	-1.0867	-0.601	-3.4915	-1.8911	-4.4954	-3.977	-4.4695	-2.9494	-3.0008
585.9375	-3.2478	-3.8367	-1.5434	-2.0737	-1.2144	-0.6513	-1.4923	1.4224	-1.4577	-1.7207	-2.0083	-2.4632	-1.5454	-1.6173	-2.2188	-5.0312	-2.952	-2.1684	-2.1034	-4.3673	-3.285	-0.9247	-0.5036	-3.3641	-1.5922	-4.3585	-3.9217	-4.394	-2.817	-2.8852
589.8438	-3.1587	-3.8212	-1.4317	-2.0475	-1.2098	-0.6184	-1.5632	1.3346	-1.5374	-1.6283	-1.9881	-2.365	-1.553	-1.6174	-2.2426	-5.0973	-2.982	-2.1531	-2.0614	-4.3222	-3.3355	-0.7984	-0.44	-3.2362	-1.2704	-4.216	-3.8568	-4.28	-2.6896	-2.7607
593.75	-3.0766	-3.7831	-1.3226	-2.0094	-1.2102	-0.5645	-1.6074	1.2633	-1.599	-1.4878	-1.9519	-2.2503	-1.5912	-1.6346	-2.2138	-5.176	-3.0484	-2.14	-2.0372	-4.2872	-3.3926	-0.7159	-0.4144	-3.1356	-0.9608	-4.0917	-3.8021	-4.1504	-2.5726	-2.6355
597.6562	-3.0035	-3.7203	-1.2226	-1.9578	-1.224	-0.5029	-1.6342	1.2032	-1.6491	-1.325	-1.9117	-2.1391	-1.672	-1.6764	-2.1276	-5.2525	-3.1301	-2.1252	-2.0294	-4.2585	-3.452	-0.6819	-0.4268	-3.0873	-0.6954	-4.0099	-3.7764	-4.0314	-2.4698	-2.5164
601.5625	-2.9397	-3.6363	-1.1349	-1.896	-1.2589	-0.4474	-1.6558	1.1506	-1.694	-1.169	-1.8792	-2.0515	-1.801	-1.7482	-1.9905	-5.3146	-3.2021	-2.107	-2.0371	-4.234	-3.5129	-0.6976	-0.4734	-3.1097	-0.4988	-3.9913	-3.7953	-3.9471	-2.3824	-2.4085
605.4688	-2.8846	-3.5408	-1.0611	-1.8333	-1.3209	-0.4098	-1.6849	1.1024	-1.7392	-1.0489	-1.8646	-2.0054	-1.9776	-1.8524	-1.8192	-5.3555	-3.2421	-2.0863	-2.0596	-4.2155	-3.5782	-0.7608	-0.5472	-3.2113	-0.3864	-4.0497	-3.8697	-3.9171	-2.3086	-2.3157
609.375	-2.8379	-3.4483	-1.0032	-1.7827	-1.4125	-0.3978	-1.7324	1.0553	-1.7889	-0.9879	-1.8752	-2.0139	-2.1951	-1.987	-1.6379	-5.3763	-3.2364	-2.0675	-2.0972	-4.2093	-3.6543	-0.867	-0.6397	-3.3897	-0.364	-4.1897	-4.0048	-3.9528	-2.2452	-2.2417
613.2812	-2.8004	-3.3761	-0.9642	-1.7592	-1.5327	-0.4142	-1.8041	1.0061	-1.845	-0.999	-1.9141	-2.0826	-2.4419	-2.1459	-1.4741	-5.3855	-3.185	-2.0574	-2.151	-4.2256	-3.7492	-1.0093	-0.742	-3.6319	-0.428	-4.4048	-4.1992	-4.0558	-2.1891	-2.1898
617.1875	-2.775	-3.3407	-0.9476	-1.776	-1.6757	-0.4572	-1.8975	0.9521	-1.9057	-1.0814	-1.9792	-2.2077	-2.7024	-2.3184	-1.3543	-5.3978	-3.1015	-2.0645	-2.2229	-4.2765	-3.8704	-1.1793	-0.8454	-3.9164	-0.5668	-4.6778	-4.444	-4.2172	-2.1387	-2.1631
621.0938	-2.7663	-3.3545	-0.956	-1.8413	-1.8315	-0.5213	-2.0016	0.8929	-1.965	-1.2193	-2.0626	-2.3752	-2.9582	-2.4904	-1.2995	-5.4301	-3.0107	-2.0964	-2.3139	-4.372	-4.0224	-1.3666	-0.9424	-4.2159	-0.7616	-4.9824	-4.7224	-4.4187	-2.0954	-2.1639
625	-2.779	-3.4221	-0.9885	-1.9558	-1.9864	-0.5984	-2.0969	0.8315	-2.0125	-1.3843	-2.1517	-2.5616	-3.189	-2.6456	-1.3219	-5.4964	-2.9412	-2.1573	-2.4229	-4.5158	-4.2035	-1.5595	-1.0258	-4.5005	-0.9872	-5.2857	-5.0102	-4.6344	-2.0634	-2.1928
628.9062	-2.816	-3.5381	-1.0391	-2.1116	-2.1243	-0.6784	-2.159	0.7745	-2.0353	-1.5397	-2.2299	-2.7358	-3.3742	-2.7674	-1.421	-5.6035	-2.9182	-2.2455	-2.5452	-4.7018	-4.4045	-1.7443	-1.0891	-4.7407	-1.2141	-5.5529	-5.2771	-4.8338	-2.0479	-2.2475
632.8125	-2.8764	-3.6866	-1.0964	-2.2928	-2.2289	-0.7497	-2.1641	0.7306	-2.0199	-1.648	-2.2795	-2.8643	-3.4952	-2.8411	-1.583	-5.7478	-2.9567	-2.3526	-2.6727	-4.9131	-4.609	-1.9069	-1.1266	-4.9112	-1.4106	-5.7511	-5.4913	-4.9864	-2.0531	-2.3225
636.7188	-2.9543	-3.8438	-1.1455	-2.4789	-2.287	-0.8009	-2.0943	0.7084	-1.9565	-1.6777	-2.2843	-2.9164	-3.5377	-2.8569	-1.7828	-5.9157	-3.0575	-2.4646	-2.7941	-5.1242	-4.7959	-2.0338	-1.1342	-4.9933	-1.5478	-5.8542	-5.6236	-5.0656	-2.08	-2.409
640.625	-3.04	-3.9823	-1.1713	-2.6486	-2.2917	-0.8233	-1.9439	0.7135	-1.8415	-1.6104	-2.2333	-2.8704	-3.495	-2.8119	-1.9889	-6.0864	-3.2083	-2.5644	-2.8971	-5.3063	-4.944	-2.1147	-1.1105	-4.9781	-1.6036	-5.8468	-5.6537	-5.0537	-2.1258	-2.4964
644.5312	-3.1217	-4.077	-1.1627	-2.7841	-2.2452	-0.8131	-1.7222	0.7452	-1.6802	-1.4446	-2.123	-2.7191	-3.3701	-2.7123	-2.171	-6.2367	-3.3876	-2.6367	-2.9708	-5.4348	-5.0372	-2.1447	-1.0577	-4.8684	-1.5674	-5.7265	-5.5745	-4.9451	-2.1844	-2.5736
648.4375	-3.1891	-4.1113	-1.117	-2.8749	-2.1604	-0.7738	-1.4539	0.7963	-1.4864	-1.1963	-1.9596	-2.4719	-3.1768	-2.574	-2.3067	-6.3476	-3.5709	-2.672	-3.0085	-5.4959	-5.0693	-2.1262	-0.982	-4.6785	-1.4437	-5.505	-5.395	-4.7481	-2.2483	-2.6324
652.3438	-3.2361	-4.0801	-1.0406	-2.9192	-2.0591	-0.7163	-1.1749	0.8533	-1.2813	-0.896	-1.7581	-2.1542	-2.9398	-2.4212	-2.3875	-6.4082	-3.7376	-2.6698	-3.01	-5.4901	-5.0462	-2.0694	-0.8935	-4.4333	-1.2514	-5.2062	-5.1387	-4.4841	-2.3104	-2.6685
656.25	-3.262	-3.9916	-0.948	-2.9234	-1.9686	-0.6573	-0.9252	0.8997	-1.0886	-0.5833	-1.5399	-1.8033	-2.6909	-2.2822	-2.4195	-6.4188	-3.8745	-2.6386	-2.9823	-5.4328	-4.9853	-1.9903	-0.8055	-4.1643	-1.0215	-4.8624	-4.8395	-4.1834	-2.3656	-2.683
660.1562	-3.2715	-3.8645	-0.8572	-2.8992	-1.915	-0.6149	-0.7401	0.92	-0.9305	-0.2985	-1.3284	-1.4604	-2.4647	-2.1849	-2.4208	-6.3894	-3.9773	-2.594	-2.939	-5.3495	-4.9111	-1.9083	-0.7318	-3.9039	-0.7904	-4.5088	-4.5348	-3.8803	-2.411	-2.6819
664.0625	-3.2721	-3.724	-0.785	-2.8606	-1.9174	-0.6035	-0.6433	0.9033	-0.8233	-0.0757	-1.1443	-1.163	-2.2917	-2.1503	-2.4152	-6.3362	-4.0489	-2.5542	-2.8967	-5.2693	-4.85	-1.8418	-0.6845	-3.6804	-0.5923	-4.1769	-4.2578	-3.6053	-2.4453	-2.6744
667.9688	-3.2723	-3.5965	-0.7428	-2.8198	-1.9828	-0.6307	-0.6422	0.8451	-0.7747	0.0626	-1.0019	-0.9372	-2.1934	-2.1891	-2.4242	-6.2778	-4.097	-2.5349	-2.872	-5.2179	-4.8244	-1.805	-0.672	-3.5128	-0.4523	-3.8897	-4.0313	-3.3807	-2.4681	-2.6703
671.875	-3.2791	-3.5048	-0.7355	-2.7862	-2.1061	-0.6962	-0.7286	0.7468	-0.7845	0.1077	-0.9082	-0.7948	-2.1793	-2.2999	-2.461	-6.2304	-4.1314	-2.546	-2.877	-5.212	-4.8489	-1.8056	-0.697	-3.4086	-0.3814	-3.6592	-3.8651	-3.2172	-2.479	-2.6776
675.7812	-3.2967	-3.4646	-0.7609	-2.7655	-2.2726	-0.7939	-0.8827	0.6127	-0.8465	0.0629	-0.8636	-0.7336	-2.2471	-2.471	-2.5278	-6.2055	-4.1616	-2.5898	-2.9179	-5.2569	-4.9296	-1.8451	-0.7572	-3.3644	-0.376	-3.4868	-3.757	-3.1145	-2.477	-2.7003
679.6875	-3.3259	-3.4822	-0.8118	-2.7607	-2.4633	-0.9152	-1.0797	0.4469	-0.9516	-0.0596	-0.8645	-0.7404	-2.3854	-2.6847	-2.617	-6.2087	-4.1957	-2.6616	-2.9943	-5.3473	-5.065	-1.9196	-0.8454	-3.3682	-0.4207	-3.3666	-3.6965	-3.0639	-2.4604	-2.7371
683.5938	-3.3645	-3.5549	-0.8774	-2.7731	-2.6606	-1.0528	-1.296	0.2509	-1.0903	-0.2438	-0.9065	-0.7966	-2.5783	-2.9218	-2.7145	-6.2403	-4.2396	-2.7526	-3.1012	-5.4704	-5.2484	-2.0232	-0.952	-3.4047	-0.4933	-3.2899	-3.6701	-3.0526	-2.4272	-2.7817
687.5	-3.4082	-3.6714	-0.9456	-2.8028	-2.8529	-1.2033	-1.5138	0.024	-1.2537	-0.4726	-0.9858	-0.8822	-2.8095	-3.1661	-2.8051	-6.2968	-4.2967	-2.8527	-3.2311	-5.6105	-5.4709	-2.1496	-1.0665	-3.4591	-0.5708	-3.25	-3.6662	-3.0677	-2.3767	-2.8241
691.4062	-3.4521	-3.8153	-1.005	-2.8488	-3.0363	-1.3672	-1.7238	-0.2355	-1.434	-0.7299	-1.0988	-0.98	-3.0647	-3.4067	-2.8771	-6.3724	-4.3683	-2.9535	-3.3772	-5.7531	-5.7234	-2.2942	-1.18	-3.5212	-0.6349	-3.2447	-3.6781	-3.0994	-2.3101	-2.8531
695.3125	-3.4924	-3.9686	-1.0477	-2.9091	-3.2137	-1.5479	-1.9241	-0.5263	-1.6231	-0.9999	-1.2415	-1.0763	-3.3331	-3.6388	-2.9254	-6.4609	-4.4533	-3.0499	-3.5347	-5.8883	-5.9977	-2.4542	-1.2864	-3.5866	-0.6744	-3.2764	-3.705	-3.1426	-2.2324	-2.8597
699.2188	-3.5268	-4.1145	-1.0709	-2.9807	-3.392	-1.7484	-2.1173	-0.8421	-1.8112	-1.2668	-1.4068	-1.1613	-3.6053	-3.8623	-2.9528	-6.5567	-4.5482	-3.14	-3.7006	-6.0119	-6.2863	-2.6275	-1.3825	-3.6565	-0.6858	-3.3499	-3.7504	-3.1958	-2.1511	-2.8392
703.125	-3.5546	-4.2401	-1.0773	-3.059	-3.5771	-1.9682	-2.3068	-1.1684	-1.9867	-1.5132	-1.5826	-1.2275	-3.8721	-4.0787	-2.9681	-6.6554	-4.6473	-3.2244	-3.872	-6.1242	-6.5807	-2.8108	-1.4677	-3.7347	-0.6714	-3.4684	-3.8188	-3.2591	-2.0753	-2.7931
707.0312	-3.5758	-4.3366	-1.0744	-3.138	-3.7694	-2.1993	-2.4931	-1.4837	-2.136	-1.7208	-1.7525	-1.2694	-4.1219	-4.2878	-2.9832	-6.7528	-4.7427	-3.3037	-4.0442	-6.228	-6.8694	-2.9975	-1.5423	-3.8246	-0.6359	-3.629	-3.9126	-3.3314	-2.0134	-2.7278
710.9375	-3.59	-4.3986	-1.0715	-3.2109	-3.9613	-2.4264	-2.6717	-1.7617	-2.2457	-1.8719	-1.8966	-1.2828	-4.3411	-4.4858	-3.0079	-6.8441	-4.825	-3.3768	-4.2089	-6.3256	-7.1374	-3.1773	-1.6059	-3.9265	-0.5842	-3.8211	-4.0299	-3.4085	-1.9713	-2.653
714.8438	-3.595	-4.4233	-1.0761	-3.271	-4.1372	-2.6274	-2.8332	-1.9767	-2.3049	-1.9528	-1.9967	-1.2658	-4.515	-4.6646	-3.0452	-6.9238	-4.8848	-3.4395	-4.3541	-6.4169	-7.3669	-3.3362	-1.6564	-4.036	-0.5188	-4.0263	-4.1632	-3.4829	-1.9512	-2.5779
718.75	-3.5875	-4.4096	-1.0916	-3.3136	-4.277	-2.7784	-2.9659	-2.1085	-2.3087	-1.9572	-2.04	-1.2204	-4.6312	-4.814	-3.0886	-6.9849	-4.9136	-3.4843	-4.4652	-6.4986	-7.5395	-3.4593	-1.6901	-4.1445	-0.4399	-4.222	-4.301	-3.5456	-1.9504	-2.5089
722.6562	-3.5639	-4.3587	-1.117	-3.3372	-4.3618	-2.8598	-3.0589	-2.1479	-2.2596	-1.8886	-2.0235	-1.1532	-4.683	-4.924	-3.122	-7.0203	-4.9055	-3.5019	-4.5279	-6.5653	-7.6404	-3.5334	-1.7023	-4.2411	-0.3457	-4.3856	-4.4298	-3.5887	-1.9625	-2.4484
726.5625	-3.5225	-4.2752	-1.1486	-3.3433	-4.3788	-2.8618	-3.1059	-2.099	-2.1677	-1.761	-1.9552	-1.0751	-4.6722	-4.9882	-3.1237	-7.0245	-4.8585	-3.4833	-4.5317	-6.6111	-7.6623	-3.5503	-1.6897	-4.3151	-0.2348	-4.5	-4.5374	-3.6081	-1.9791	-2.395
730.4688	-3.4642	-4.1678	-1.1829	-3.3366	-4.3267	-2.7886	-3.1072	-1.9784	-2.0491	-1.5973	-1.8517	-1.0002	-4.6094	-5.0062	-3.0732	-6.995	-4.7753	-3.4233	-4.4736	-6.6323	-7.6076	-3.5088	-1.6521	-4.3587	-0.1086	-4.5564	-4.6147	-3.6051	-1.992	-2.3452
734.375	-3.3936	-4.0493	-1.2185	-3.3231	-4.2164	-2.6579	-3.0704	-1.8113	-1.9214	-1.4239	-1.7339	-0.942	-4.5127	-4.9838	-2.9583	-6.9345	-4.6629	-3.3228	-4.3597	-6.6284	-7.488	-3.415	-1.5938	-4.368	0.0266	-4.5558	-4.6567	-3.5864	-1.9949	-2.2945
738.2812	-3.3172	-3.9349	-1.2554	-3.309	-4.0696	-2.497	-3.0078	-1.6256	-1.8	-1.2658	-1.6208	-0.9097	-4.4029	-4.931	-2.7805	-6.8508	-4.5324	-3.1903	-4.205	-6.6029	-7.3216	-3.2809	-1.5225	-4.3431	0.1582	-4.5074	-4.6624	-3.5604	-1.984	-2.2397
742.1875	-3.2424	-3.8404	-1.2937	-3.2996	-3.9142	-2.3368	-2.9336	-1.4453	-1.6941	-1.1401	-1.5244	-0.9049	-4.2989	-4.8599	-2.5562	-6.7559	-4.3968	-3.0402	-4.0316	-6.5624	-7.1288	-3.1214	-1.4478	-4.2866	0.2697	-4.4247	-4.6334	-3.5347	-1.9588	-2.1786
746.0938	-3.1757	-3.7789	-1.3312	-3.2984	-3.7791	-2.2054	-2.8603	-1.2861	-1.6059	-1.0531	-1.4472	-0.9201	-4.2129	-4.7813	-2.3143	-6.6644	-4.2697	-2.8913	-3.8644	-6.5145	-6.9274	-2.9517	-1.3785	-4.2019	0.3432	-4.3219	-4.5719	-3.5121	-1.9209	-2.1118
750	-3.1218	-3.7581	-1.3633	-3.307	-3.6887	-2.1231	-2.7971	-1.1547	-1.5321	-1.001	-1.3835	-0.9411	-4.1484	-4.7034	-2.0904	-6.5908	-4.1639	-2.7628	-3.7269	-6.4663	-6.7303	-2.7849	-1.3215	-4.0929	0.3643	-4.211	-4.4811	-3.4898	-1.8744	-2.0421
753.9062	-3.0835	-3.779	-1.3841	-3.3242	-3.6595	-2.0997	-2.75	-1.0515	-1.4681	-0.9728	-1.3239	-0.9506	-4.1012	-4.6312	-1.9197	-6.5474	-4.0901	-2.6716	-3.6369	-6.4226	-6.5451	-2.6313	-1.2812	-3.9636	0.3264	-4.1	-4.3641	-3.4602	-1.825	-1.9754
757.8125	-3.062	-3.8353	-1.3878	-3.3465	-3.6983	-2.1344	-2.7226	-0.9751	-1.4117	-0.9567	-1.2609	-0.9338	-4.0618	-4.5669	-1.8298	-6.5413	-4.055	-2.6288	-3.6033	-6.3862	-6.3753	-2.4981	-1.26	-3.8189	0.233	-3.9931	-4.2254	-3.4143	-1.7794	-1.9196
761.7188	-3.0565	-3.9147	-1.37	-3.367	-3.8019	-2.2181	-2.7174	-0.9259	-1.3655	-0.9443	-1.1925	-0.8822	-4.0189	-4.5112	-1.8355	-6.5733	-4.0595	-2.6383	-3.6243	-6.3569	-6.2224	-2.3899	-1.2588	-3.6649	0.0975	-3.8922	-4.0709	-3.3445	-1.7441	-1.884
765.625	-3.0649	-4.0009	-1.3282	-3.3764	-3.9579	-2.336	-2.7356	-0.9082	-1.3364	-0.9336	-1.1236	-0.795	-3.9635	-4.4632	-1.936	-6.6352	-4.0963	-2.6946	-3.6861	-6.3327	-6.0873	-2.3084	-1.2763	-3.5083	-0.0595	-3.7974	-3.9075	-3.2483	-1.7238	-1.8769
769.5312	-3.0826	-4.0764	-1.2615	-3.3631	-4.1473	-2.4704	-2.7762	-0.9288	-1.3333	-0.9278	-1.0637	-0.6783	-3.8899	-4.4215	-2.1149	-6.7106	-4.1484	-2.7831	-3.7642	-6.3093	-5.971	-2.2517	-1.3086	-3.3546	-0.2142	-3.7083	-3.7413	-3.1286	-1.7202	-1.9036
773.4375	-3.1027	-4.1246	-1.1705	-3.3147	-4.3461	-2.6033	-2.8354	-0.9942	-1.3623	-0.9328	-1.0229	-0.5421	-3.7963	-4.3827	-2.3443	-6.7754	-4.1897	-2.8815	-3.8257	-6.2803	-5.8735	-2.214	-1.3475	-3.2067	-0.3444	-3.6242	-3.5765	-2.9935	-1.7311	-1.9644
777.3438	-3.116	-4.1319	-1.0574	-3.22	-4.5296	-2.7181	-2.906	-1.107	-1.424	-0.9532	-1.0079	-0.3965	-3.6837	-4.3422	-2.5906	-6.8028	-4.1892	-2.9635	-3.8349	-6.2377	-5.7926	-2.1855	-1.3818	-3.0634	-0.4325	-3.5433	-3.4133	-2.8536	-1.7499	-2.0543
781.25	-3.1126	-4.0899	-0.9258	-3.0708	-4.676	-2.8019	-2.9785	-1.2645	-1.5129	-0.9904	-1.0196	-0.2494	-3.5547	-4.2941	-2.8215	-6.7681	-4.1178	-3.0042	-3.7607	-6.1734	-5.7239	-2.1549	-1.3992	-2.9198	-0.468	-3.4636	-3.2486	-2.7188	-1.7675	-2.164
785.1562	-3.0845	-3.9965	-0.7797	-2.8649	-4.7714	-2.8478	-3.0437	-1.4588	-1.6191	-1.0418	-1.0536	-0.1053	-3.4123	-4.2329	-3.0128	-6.6561	-3.9561	-2.9862	-3.5838	-6.0812	-5.661	-2.1117	-1.39	-2.7692	-0.4485	-3.383	-3.0771	-2.5958	-1.7745	-2.2823
789.0625	-3.0286	-3.857	-0.6231	-2.6071	-4.813	-2.8561	-3.0958	-1.6793	-1.7324	-1.1031	-1.1028	0.0349	-3.2599	-4.1559	-3.1532	-6.4652	-3.7011	-2.9047	-3.3035	-5.9596	-5.5978	-2.0494	-1.3501	-2.6061	-0.3798	-3.2995	-2.8944	-2.487	-1.7643	-2.4
792.9688	-2.9482	-3.6834	-0.46	-2.31	-4.8104	-2.8349	-3.1341	-1.9154	-1.8457	-1.1702	-1.1602	0.1713	-3.101	-4.064	-3.2461	-6.2097	-3.3688	-2.7688	-2.9389	-5.8131	-5.53	-1.9678	-1.2832	-2.4288	-0.2752	-3.2119	-2.6991	-2.3906	-1.7364	-2.5115
796.875	-2.8531	-3.493	-0.2944	-1.9923	-4.7827	-2.7984	-3.1631	-2.1579	-1.9565	-1.2405	-1.2208	0.3045	-2.94	-3.9627	-3.3072	-5.917	-2.9916	-2.6004	-2.526	-5.6519	-5.457	-1.8724	-1.2002	-2.2408	-0.153	-3.1208	-2.4943	-2.302	-1.6961	-2.6165
