time	FP1	F3	F7	FC3	C3	C5	P3	P7	PO7	PO3	O1	Oz	Pz	CPz	FP2	Fz	F4	F8	FC4	FCz	Cz	C4	C6	P4	P8	PO8	PO4	O2	HEOG_left	HEOG_right
-199.2188	-0.7841	-1.0911	-1.0302	-1.3282	-1.4494	-1.3056	-0.7455	-0.3217	0.0142	-0.2196	0.337	0.7899	-0.0826	-0.8344	-0.9325	-1.4145	-0.9451	-1.1521	-1.1504	-1.2754	-1.216	-0.9774	-1.1728	0.2038	0.273	0.8939	0.7937	0.8835	-1.2637	-1.0773
-195.3125	-0.7022	-0.9935	-0.9869	-1.2306	-1.323	-1.2446	-0.7358	-0.3292	-0.149	-0.4153	0.0946	0.4734	-0.1515	-0.6995	-0.836	-1.1916	-0.7896	-1.0044	-0.9192	-1.0445	-0.9818	-0.751	-0.9266	0.055	0.1929	0.5195	0.3334	0.5369	-1.1195	-0.9014
-191.4062	-0.6205	-0.8991	-0.9415	-1.1303	-1.2029	-1.1885	-0.7324	-0.3493	-0.3051	-0.5989	-0.135	0.1728	-0.2348	-0.5876	-0.7385	-0.978	-0.6343	-0.856	-0.7025	-0.8269	-0.7703	-0.5466	-0.694	-0.0971	0.1122	0.1693	-0.0951	0.2089	-0.9911	-0.7418
-187.5	-0.5448	-0.8094	-0.8896	-1.0226	-1.0892	-1.1351	-0.7323	-0.3831	-0.4398	-0.7511	-0.3328	-0.0926	-0.3358	-0.5113	-0.6419	-0.782	-0.4832	-0.7089	-0.5133	-0.6333	-0.5966	-0.3799	-0.4862	-0.2495	0.0328	-0.133	-0.4609	-0.0803	-0.8887	-0.6137
-183.5938	-0.4813	-0.7269	-0.8275	-0.9056	-0.9798	-1.0792	-0.7274	-0.4241	-0.5358	-0.8523	-0.479	-0.3041	-0.4502	-0.4761	-0.5526	-0.6144	-0.3483	-0.5701	-0.3656	-0.4751	-0.4714	-0.2635	-0.3154	-0.3971	-0.0438	-0.37	-0.7407	-0.3123	-0.816	-0.5277
-179.6875	-0.4359	-0.6545	-0.7528	-0.7807	-0.8707	-1.0133	-0.7052	-0.4583	-0.5754	-0.885	-0.5555	-0.4457	-0.5652	-0.4786	-0.4802	-0.4868	-0.2486	-0.4509	-0.2728	-0.3632	-0.3989	-0.2051	-0.1928	-0.5318	-0.1157	-0.5321	-0.921	-0.4734	-0.7697	-0.4884
-175.7812	-0.4137	-0.5951	-0.6651	-0.6528	-0.7573	-0.9295	-0.652	-0.4679	-0.5447	-0.8373	-0.5503	-0.5074	-0.6617	-0.5069	-0.4352	-0.4089	-0.2043	-0.3634	-0.2435	-0.3048	-0.3757	-0.2046	-0.1257	-0.643	-0.1807	-0.6177	-0.9993	-0.5563	-0.741	-0.4941
-171.875	-0.4178	-0.5509	-0.5663	-0.529	-0.6362	-0.8216	-0.5562	-0.4362	-0.4386	-0.7063	-0.4608	-0.4878	-0.7183	-0.5426	-0.4251	-0.3856	-0.2289	-0.3164	-0.2777	-0.3004	-0.3903	-0.2522	-0.1134	-0.7179	-0.2347	-0.6323	-0.9827	-0.5615	-0.719	-0.5372
-167.9688	-0.4491	-0.5227	-0.461	-0.4169	-0.5062	-0.6869	-0.4125	-0.3531	-0.2641	-0.5008	-0.2966	-0.3955	-0.716	-0.5643	-0.451	-0.4141	-0.3227	-0.3115	-0.364	-0.3421	-0.4249	-0.3293	-0.1463	-0.7439	-0.2723	-0.5859	-0.886	-0.4976	-0.6942	-0.6064
-164.0625	-0.5062	-0.5108	-0.3567	-0.3236	-0.3693	-0.528	-0.2246	-0.2185	-0.0407	-0.2411	-0.0793	-0.2487	-0.6437	-0.5531	-0.5067	-0.4837	-0.4697	-0.3413	-0.481	-0.4145	-0.4589	-0.4112	-0.2061	-0.711	-0.2872	-0.4914	-0.7283	-0.38	-0.6617	-0.689
-160.1562	-0.585	-0.515	-0.263	-0.2551	-0.231	-0.353	-0.0059	-0.044	0.2017	0.0431	0.1601	-0.0723	-0.5011	-0.496	-0.5791	-0.5775	-0.6403	-0.3919	-0.6011	-0.4975	-0.4734	-0.4727	-0.2702	-0.6149	-0.2733	-0.362	-0.5301	-0.2286	-0.6226	-0.7734
-156.25	-0.68	-0.5355	-0.1915	-0.216	-0.0994	-0.1751	0.222	0.1491	0.4282	0.3166	0.3859	0.1058	-0.3003	-0.3904	-0.6523	-0.6761	-0.7982	-0.4463	-0.6972	-0.5712	-0.4555	-0.4938	-0.3174	-0.4591	-0.2268	-0.2104	-0.3104	-0.0646	-0.5844	-0.8512
-152.3438	-0.7839	-0.5731	-0.1533	-0.2097	0.0153	-0.0105	0.4326	0.3334	0.6053	0.5449	0.5641	0.2597	-0.0641	-0.2442	-0.7113	-0.7618	-0.91	-0.4903	-0.7493	-0.6206	-0.4016	-0.4656	-0.3329	-0.256	-0.1479	-0.0484	-0.0856	0.0924	-0.5582	-0.9178
-148.4375	-0.8884	-0.6278	-0.1567	-0.2378	0.1031	0.1235	0.5998	0.4817	0.7071	0.6996	0.6693	0.3695	0.1772	-0.0752	-0.7461	-0.8223	-0.9542	-0.5156	-0.7495	-0.6386	-0.3183	-0.3919	-0.3128	-0.026	-0.0419	0.113	0.1309	0.2269	-0.5546	-0.972
-144.5312	-0.9847	-0.6971	-0.2037	-0.2986	0.1555	0.2127	0.703	0.5734	0.721	0.764	0.6888	0.4245	0.3918	0.0935	-0.7535	-0.8519	-0.9259	-0.522	-0.7032	-0.6263	-0.2194	-0.2885	-0.264	0.206	0.0809	0.2632	0.3285	0.3295	-0.5794	-1.014
-140.625	-1.0631	-0.7746	-0.2878	-0.3858	0.1687	0.2492	0.7312	0.5985	0.6495	0.736	0.6264	0.425	0.5525	0.2383	-0.7364	-0.8501	-0.8365	-0.5157	-0.6264	-0.5905	-0.122	-0.1784	-0.2022	0.414	0.2063	0.3931	0.4989	0.3973	-0.6303	-1.044
-136.7188	-1.1146	-0.8481	-0.3935	-0.4872	0.1447	0.234	0.6858	0.5607	0.5099	0.6286	0.5003	0.3806	0.6414	0.3412	-0.7015	-0.8193	-0.7086	-0.5061	-0.5397	-0.5397	-0.0413	-0.0852	-0.1461	0.5761	0.3188	0.4946	0.6355	0.433	-0.6959	-1.0613
-132.8125	-1.1307	-0.9014	-0.4981	-0.5851	0.0921	0.178	0.5796	0.4754	0.3303	0.4667	0.3392	0.3077	0.6532	0.393	-0.6557	-0.7616	-0.5679	-0.5015	-0.4619	-0.48	0.0141	-0.0271	-0.1123	0.6771	0.404	0.562	0.7329	0.4432	-0.7582	-1.0633
-128.9062	-1.1044	-0.9158	-0.576	-0.6581	0.0253	0.0995	0.4336	0.3657	0.1426	0.2812	0.1745	0.2243	0.5952	0.3952	-0.6036	-0.6779	-0.4359	-0.5054	-0.4039	-0.4126	0.0439	-0.0123	-0.1101	0.7108	0.4512	0.5914	0.7866	0.435	-0.7964	-1.0463
-125	-1.0309	-0.8752	-0.604	-0.6855	-0.0385	0.0214	0.2721	0.2554	-0.0244	0.1025	0.0333	0.1454	0.484	0.3578	-0.5456	-0.5678	-0.3255	-0.5148	-0.3668	-0.3344	0.0558	-0.0378	-0.1399	0.6793	0.4543	0.5811	0.7929	0.4136	-0.7917	-1.0051
-121.0938	-0.9082	-0.7705	-0.5669	-0.652	-0.0825	-0.0347	0.1175	0.1639	-0.1512	-0.0464	-0.0681	0.0798	0.3415	0.2966	-0.479	-0.4318	-0.2397	-0.5202	-0.3427	-0.2402	0.0618	-0.092	-0.1938	0.5912	0.4126	0.5311	0.7497	0.3805	-0.7316	-0.9342
-117.1875	-0.7388	-0.603	-0.461	-0.5516	-0.0941	-0.0521	-0.0132	0.102	-0.2299	-0.1524	-0.1257	0.0292	0.1903	0.2287	-0.3997	-0.2733	-0.1745	-0.5089	-0.3187	-0.1259	0.0747	-0.1581	-0.2585	0.4591	0.3295	0.4434	0.6573	0.3343	-0.6117	-0.8286
-113.2812	-0.5308	-0.3855	-0.2954	-0.3897	-0.0668	-0.0234	-0.1108	0.0706	-0.2641	-0.2136	-0.1465	-0.0103	0.0496	0.1685	-0.3046	-0.1	-0.1227	-0.4684	-0.2818	0.0082	0.1036	-0.2191	-0.3192	0.2975	0.2125	0.3222	0.5204	0.2719	-0.4366	-0.6854
-109.375	-0.2976	-0.1409	-0.0905	-0.1837	-0.0027	0.0486	-0.1735	0.0627	-0.2655	-0.2368	-0.1443	-0.0453	-0.0674	0.125	-0.194	0.0764	-0.0765	-0.3901	-0.2232	0.1556	0.1513	-0.2611	-0.3624	0.121	0.071	0.1737	0.3481	0.1915	-0.2195	-0.506
-105.4688	-0.0574	0.1017	0.126	0.0403	0.0885	0.1508	-0.2063	0.0658	-0.2497	-0.2345	-0.135	-0.0823	-0.1548	0.0998	-0.0717	0.242	-0.0299	-0.2725	-0.1406	0.3035	0.2131	-0.2759	-0.3778	-0.0572	-0.0838	0.0062	0.154	0.0936	0.0196	-0.2966
-101.5625	0.1683	0.3124	0.3238	0.2516	0.1909	0.2632	-0.2183	0.0659	-0.232	-0.2208	-0.1317	-0.1255	-0.2141	0.0876	0.0539	0.3825	0.0205	-0.1226	-0.0388	0.4346	0.2772	-0.2614	-0.3597	-0.2259	-0.2408	-0.1707	-0.046	-0.0183	0.2564	-0.0691
-97.6562	0.3578	0.4658	0.475	0.4206	0.2851	0.3624	-0.2206	0.0511	-0.2237	-0.2086	-0.1426	-0.1764	-0.2524	0.0777	0.1718	0.4859	0.0753	0.045	0.0714	0.5307	0.3281	-0.2216	-0.3071	-0.3766	-0.3889	-0.3466	-0.2359	-0.1378	0.4656	0.1599
-93.75	0.492	0.545	0.5588	0.5237	0.3519	0.4267	-0.2238	0.0138	-0.2311	-0.207	-0.1696	-0.2332	-0.2804	0.0574	0.2696	0.5441	0.1322	0.2101	0.1757	0.5762	0.3499	-0.1646	-0.2232	-0.5041	-0.518	-0.5113	-0.4023	-0.2571	0.6245	0.3715
-89.8438	0.5579	0.5448	0.5646	0.5478	0.3767	0.4402	-0.2358	-0.0478	-0.2548	-0.2202	-0.2094	-0.292	-0.3092	0.0156	0.336	0.5541	0.1865	0.3515	0.2599	0.5627	0.331	-0.1008	-0.1155	-0.6056	-0.6193	-0.6549	-0.5365	-0.3676	0.7175	0.5483
-85.9375	0.5518	0.4719	0.4938	0.4927	0.3519	0.3966	-0.2601	-0.129	-0.2907	-0.2469	-0.2547	-0.3472	-0.3463	-0.0524	0.3636	0.5187	0.2323	0.4511	0.3129	0.4913	0.2675	-0.0398	0.0064	-0.6794	-0.6852	-0.7684	-0.6339	-0.4617	0.7386	0.6774
-82.0312	0.4809	0.3449	0.3608	0.371	0.2801	0.3009	-0.2949	-0.22	-0.3311	-0.281	-0.297	-0.3924	-0.3932	-0.1429	0.351	0.4465	0.2642	0.499	0.33	0.3738	0.1657	0.0115	0.1321	-0.7234	-0.7091	-0.843	-0.6929	-0.5322	0.6933	0.7536
-78.125	0.3635	0.1909	0.1907	0.207	0.1738	0.1688	-0.3324	-0.3076	-0.3667	-0.3125	-0.3273	-0.4206	-0.4428	-0.2422	0.305	0.3518	0.2796	0.4955	0.3148	0.2318	0.0417	0.052	0.2529	-0.7329	-0.6855	-0.8702	-0.7124	-0.5725	0.5982	0.7803
-74.2188	0.2272	0.0428	0.0162	0.0329	0.0544	0.0247	-0.3601	-0.377	-0.3876	-0.3288	-0.3377	-0.4247	-0.4798	-0.3281	0.24	0.2531	0.2803	0.4523	0.2796	0.0935	-0.0798	0.0865	0.3633	-0.7002	-0.6102	-0.8424	-0.6898	-0.5763	0.4786	0.7689
-70.3125	0.105	-0.0662	-0.1274	-0.1155	-0.051	-0.1024	-0.3618	-0.4148	-0.3846	-0.3167	-0.322	-0.3983	-0.4829	-0.3736	0.177	0.1716	0.2732	0.3894	0.2426	-0.0108	-0.1699	0.1256	0.4617	-0.6148	-0.4824	-0.7544	-0.6208	-0.5387	0.364	0.7359
-66.4062	0.0296	-0.107	-0.208	-0.2049	-0.1149	-0.1841	-0.3211	-0.4107	-0.35	-0.2643	-0.2758	-0.3366	-0.4296	-0.3527	0.1397	0.1287	0.27	0.3314	0.2256	-0.0545	-0.2008	0.1832	0.55	-0.4668	-0.3065	-0.6057	-0.5006	-0.4573	0.2827	0.6997
-62.5	0.0274	-0.0594	-0.2028	-0.209	-0.1146	-0.1982	-0.2249	-0.3596	-0.2788	-0.1636	-0.1978	-0.2387	-0.302	-0.246	0.1503	0.1422	0.285	0.3015	0.2486	-0.0188	-0.1509	0.2733	0.6322	-0.25	-0.0938	-0.4029	-0.3272	-0.334	0.256	0.6762
-58.5938	0.1138	0.0841	-0.1026	-0.1141	-0.0374	-0.1335	-0.068	-0.2624	-0.1701	-0.0136	-0.0904	-0.1084	-0.0929	-0.0473	0.2243	0.2233	0.3318	0.3166	0.3265	0.1026	-0.0111	0.4055	0.7122	0.0332	0.137	-0.1603	-0.1044	-0.1765	0.2937	0.6757
-54.6875	0.289	0.3159	0.0858	0.0784	0.1151	0.0077	0.1435	-0.1268	-0.0281	0.1782	0.0391	0.0445	0.1896	0.2324	0.3665	0.3732	0.4196	0.3831	0.464	0.3012	0.2119	0.5812	0.7914	0.3687	0.3623	0.1004	0.1556	0.002	0.3925	0.7021
-50.7812	0.5379	0.6133	0.3402	0.3504	0.3262	0.2089	0.3909	0.0331	0.1362	0.3943	0.1785	0.2049	0.5203	0.564	0.5683	0.5805	0.5499	0.4957	0.6541	0.5537	0.4941	0.7904	0.8672	0.7293	0.5566	0.3533	0.4322	0.1834	0.5364	0.7521
-46.875	0.8314	0.9409	0.6262	0.669	0.5657	0.442	0.6442	0.1982	0.306	0.6091	0.3111	0.3539	0.8591	0.9031	0.8079	0.8218	0.7143	0.638	0.8765	0.8248	0.7961	1.0112	0.9316	1.0768	0.6977	0.5721	0.6974	0.3477	0.7005	0.8179
-42.9688	1.1317	1.2558	0.9031	0.9914	0.7954	0.6722	0.8661	0.3462	0.4598	0.7926	0.4181	0.4719	1.157	1.1972	1.0535	1.0643	0.8947	0.7868	1.1012	1.0722	1.0697	1.212	0.9733	1.367	0.7704	0.7349	0.9206	0.4757	0.8567	0.8893
-39.0625	1.3981	1.5144	1.1308	1.2722	0.9768	0.8643	1.0198	0.4553	0.5754	0.9154	0.4819	0.5418	1.3649	1.3953	1.2691	1.2708	1.0663	0.9167	1.2924	1.2543	1.2667	1.3574	0.9801	1.5569	0.7698	0.8278	1.0727	0.5521	0.9795	0.9561
-35.1562	1.5943	1.6804	1.2764	1.4715	1.0789	0.9893	1.0755	0.5077	0.6346	0.955	0.4894	0.5522	1.4426	1.4585	1.4207	1.407	1.2013	1.0061	1.4154	1.3381	1.3488	1.4153	0.9418	1.6125	0.7014	0.8465	1.1314	0.568	1.0517	1.0097
-31.25	1.6933	1.7309	1.3203	1.5625	1.0845	1.0294	1.0179	0.4935	0.6273	0.9009	0.4357	0.4994	1.3671	1.3674	1.4829	1.4479	1.2752	1.0416	1.4434	1.3059	1.2953	1.3628	0.853	1.5147	0.5789	0.7956	1.0838	0.5213	1.0668	1.0442
-27.3438	1.6831	1.6605	1.2592	1.5357	0.9935	0.981	0.8488	0.413	0.555	0.7574	0.3257	0.3875	1.1365	1.1257	1.4441	1.383	1.2715	1.0204	1.3624	1.1584	1.1074	1.1916	0.7142	1.2617	0.42	0.6859	0.9282	0.4163	1.0305	1.0564
-23.4375	1.5684	1.4823	1.1067	1.3999	0.8218	0.8547	0.5878	0.2774	0.4307	0.5432	0.1738	0.2283	0.7704	0.7585	1.3082	1.2187	1.1855	0.9495	1.1746	0.915	0.8071	0.9083	0.5313	0.8689	0.2421	0.5309	0.673	0.2628	0.9581	1.047
-19.5312	1.3705	1.2246	0.8908	1.1797	0.5973	0.6726	0.2679	0.107	0.2758	0.2878	0.002	0.0387	0.3055	0.3066	1.0938	0.9772	1.0257	0.8431	0.8973	0.6095	0.4325	0.5333	0.3139	0.3656	0.0588	0.3442	0.3358	0.074	0.8711	1.021
-15.625	1.123	0.9255	0.6486	0.9091	0.3529	0.4635	-0.0708	-0.0732	0.1154	0.0254	-0.1649	-0.161	-0.2106	-0.1821	0.83	0.6921	0.8117	0.718	0.56	0.2832	0.0291	0.0964	0.0732	-0.2099	-0.1218	0.1377	-0.0594	-0.1346	0.7917	0.9869
-11.7188	0.8652	0.6246	0.4189	0.6243	0.12	0.2573	-0.3881	-0.2379	-0.0282	-0.2117	-0.3043	-0.351	-0.7274	-0.6607	0.5506	0.4016	0.5699	0.5894	0.1984	-0.023	-0.3588	-0.3683	-0.1797	-0.8144	-0.297	-0.0786	-0.4837	-0.3467	0.7379	0.9553
-7.8125	0.6334	0.3562	0.2346	0.357	-0.0776	0.0798	-0.6508	-0.3673	-0.1405	-0.3995	-0.401	-0.5144	-1.1985	-1.0904	0.2875	0.1414	0.328	0.4685	-0.1518	-0.276	-0.6954	-0.8265	-0.4346	-1.4045	-0.4669	-0.2964	-0.9064	-0.5472	0.7185	0.9361
-3.9062	0.454	0.1433	0.1166	0.1306	-0.2261	-0.051	-0.8359	-0.4492	-0.2165	-0.5256	-0.4491	-0.6397	-1.5865	-1.443	0.0653	-0.0615	0.1099	0.3611	-0.4604	-0.4553	-0.9572	-1.2471	-0.6824	-1.9398	-0.6324	-0.5076	-1.2967	-0.7234	0.7321	0.9348
0	0.34	-0.0041	0.0707	-0.0419	-0.3209	-0.126	-0.9325	-0.4806	-0.26	-0.5888	-0.4524	-0.7217	-1.8653	-1.7016	-0.1011	-0.1927	-0.068	0.2689	-0.7057	-0.5542	-1.1338	-1.6039	-0.9135	-2.3848	-0.7924	-0.704	-1.6268	-0.8656	0.7675	0.9515
3.9062	0.2907	-0.0886	0.0894	-0.1558	-0.3635	-0.1441	-0.9396	-0.465	-0.2786	-0.5965	-0.4212	-0.761	-2.0205	-1.8578	-0.2068	-0.251	-0.1979	0.1904	-0.8758	-0.5781	-1.2252	-1.8761	-1.1178	-2.7103	-0.9419	-0.876	-1.8736	-0.9682	0.8072	0.9801
7.8125	0.2952	-0.1211	0.1551	-0.212	-0.3578	-0.1098	-0.8633	-0.4094	-0.2787	-0.5594	-0.3683	-0.7622	-2.0475	-1.909	-0.2556	-0.2464	-0.2798	0.1227	-0.968	-0.5409	-1.2381	-2.0488	-1.2839	-2.8954	-1.0727	-1.0127	-2.0207	-1.0288	0.8324	1.0097
11.7188	0.3373	-0.1164	0.2462	-0.2146	-0.3061	-0.0304	-0.7132	-0.3201	-0.2611	-0.487	-0.3036	-0.7314	-1.9507	-1.8567	-0.2565	-0.1971	-0.32	0.0627	-0.9871	-0.4604	-1.1823	-2.1144	-1.4009	-2.9285	-1.1736	-1.1028	-2.0595	-1.0473	0.8282	1.0277
15.625	0.3996	-0.0892	0.3417	-0.169	-0.2089	0.0862	-0.5007	-0.2012	-0.2198	-0.3852	-0.2317	-0.6741	-1.7414	-1.7059	-0.2221	-0.125	-0.3289	0.0074	-0.9447	-0.3556	-1.0687	-2.0733	-1.4604	-2.8093	-1.2338	-1.1357	-1.9897	-1.025	0.7878	1.0227
19.5312	0.4661	-0.0522	0.4248	-0.0825	-0.0667	0.2315	-0.2384	-0.0552	-0.145	-0.256	-0.1516	-0.5934	-1.4377	-1.4663	-0.1659	-0.0519	-0.3193	-0.0458	-0.8575	-0.2439	-0.9092	-1.9361	-1.4599	-2.5496	-1.245	-1.1044	-1.8192	-0.9637	0.7128	0.9863
23.4375	0.5239	-0.0153	0.4832	0.0343	0.1164	0.3954	0.0576	0.1148	-0.0286	-0.101	-0.0589	-0.4916	-1.0647	-1.1548	-0.1018	0.0029	-0.3051	-0.0998	-0.7455	-0.1405	-0.7171	-1.7227	-1.4047	-2.1745	-1.2049	-1.0074	-1.5637	-0.8665	0.6118	0.9145
27.3438	0.5642	0.0132	0.5095	0.1657	0.3291	0.5645	0.3662	0.3009	0.1298	0.0748	0.0501	-0.3709	-0.6531	-0.796	-0.0425	0.0252	-0.299	-0.1577	-0.6302	-0.0581	-0.5083	-1.4614	-1.3081	-1.7203	-1.1184	-0.8511	-1.2457	-0.7387	0.4964	0.8075
31.25	0.5831	0.0267	0.5005	0.2917	0.5505	0.7216	0.6613	0.4886	0.3187	0.261	0.1746	-0.2352	-0.2384	-0.4216	0.0019	0.0079	-0.3106	-0.2225	-0.5308	-0.0057	-0.3003	-1.1851	-1.1893	-1.2316	-0.9974	-0.6499	-0.8924	-0.5877	0.3779	0.6696
35.1562	0.5821	0.021	0.4578	0.3911	0.7533	0.8479	0.9142	0.6577	0.5158	0.4412	0.3077	-0.0908	0.1433	-0.0664	0.0257	-0.048	-0.3437	-0.2956	-0.4613	0.0121	-0.1108	-0.9258	-1.0696	-0.7562	-0.8583	-0.4237	-0.5334	-0.4235	0.2653	0.5094
39.0625	0.569	-0.0044	0.3886	0.4459	0.9077	0.9261	1.098	0.7859	0.6921	0.5962	0.4372	0.0533	0.4587	0.2361	0.0289	-0.133	-0.3946	-0.3761	-0.4273	-0.0031	0.0458	-0.71	-0.9678	-0.3389	-0.7188	-0.1952	-0.1977	-0.257	0.1652	0.3395
42.9688	0.5565	-0.045	0.3051	0.4457	0.9882	0.9446	1.1927	0.8543	0.8188	0.7072	0.5473	0.1855	0.6818	0.4588	0.0171	-0.2305	-0.4525	-0.4596	-0.4258	-0.0439	0.1595	-0.5547	-0.8977	-0.0167	-0.5945	0.0142	0.0883	-0.1009	0.0829	0.1765
46.875	0.5592	-0.0925	0.2227	0.3901	0.9781	0.899	1.1879	0.8516	0.8743	0.759	0.6209	0.2908	0.7948	0.5839	-0.0005	-0.3207	-0.5018	-0.539	-0.4466	-0.0982	0.2256	-0.467	-0.8654	0.1847	-0.4962	0.1868	0.3019	0.0306	0.0217	0.0392
50.7812	0.5893	-0.1369	0.1555	0.287	0.8722	0.7925	1.0838	0.7771	0.8483	0.7418	0.6422	0.3512	0.7893	0.6035	-0.0143	-0.3862	-0.5273	-0.6055	-0.4764	-0.154	0.2425	-0.4448	-0.8709	0.2518	-0.4292	0.3099	0.4244	0.1203	-0.0176	-0.0544
54.6875	0.6512	-0.1721	0.1115	0.149	0.6752	0.6323	0.8887	0.6411	0.7445	0.652	0.5983	0.3467	0.6641	0.5174	-0.0198	-0.4179	-0.5202	-0.6524	-0.5039	-0.2037	0.2092	-0.4807	-0.9093	0.1822	-0.3934	0.3764	0.441	0.1486	-0.0402	-0.0922
58.5938	0.7375	-0.1995	0.088	-0.013	0.399	0.4265	0.6162	0.4625	0.58	0.4916	0.4819	0.258	0.4234	0.33	-0.0211	-0.4205	-0.4834	-0.6784	-0.5253	-0.2493	0.1219	-0.5667	-0.9753	-0.0175	-0.3849	0.3844	0.3414	0.0956	-0.0589	-0.0726
62.5	0.8279	-0.2318	0.0695	-0.1945	0.0585	0.1804	0.282	0.2663	0.3838	0.2691	0.2945	0.0725	0.0748	0.0478	-0.0339	-0.4143	-0.4353	-0.6922	-0.548	-0.3053	-0.0276	-0.6985	-1.0667	-0.3345	-0.3979	0.3369	0.1215	-0.0544	-0.0953	-0.009
66.4062	0.89	-0.2926	0.0285	-0.4003	-0.3315	-0.1048	-0.0971	0.0797	0.1924	0.0001	0.0489	-0.2103	-0.3709	-0.3228	-0.0842	-0.4336	-0.408	-0.7137	-0.5923	-0.3971	-0.252	-0.8787	-1.1877	-0.7513	-0.4266	0.2419	-0.2147	-0.3072	-0.1777	0.0704
70.3125	0.8845	-0.4129	-0.0695	-0.6432	-0.7582	-0.431	-0.503	-0.0717	0.046	-0.2918	-0.2285	-0.5733	-0.8988	-0.7749	-0.2043	-0.5202	-0.443	-0.7732	-0.6876	-0.5573	-0.5652	-1.1159	-1.3492	-1.2461	-0.4662	0.1119	-0.6519	-0.6533	-0.3357	0.1251
74.2188	0.7727	-0.6234	-0.2584	-0.9395	-1.2091	-0.7996	-0.9137	-0.1666	-0.0169	-0.574	-0.4988	-0.9801	-1.4866	-1.2979	-0.4247	-0.7139	-0.5803	-0.9046	-0.8654	-0.8168	-0.9765	-1.4207	-1.5657	-1.7923	-0.5133	-0.0361	-1.1619	-1.0644	-0.5929	0.1109
78.125	0.5258	-0.9452	-0.5617	-1.3004	-1.6692	-1.2063	-1.3003	-0.1894	0.0363	-0.8051	-0.7131	-1.3758	-2.1012	-1.8732	-0.7638	-1.0412	-0.8478	-1.1366	-1.1494	-1.1956	-1.4842	-1.7984	-1.8492	-2.356	-0.5647	-0.1821	-1.7019	-1.4941	-0.9588	-0.0109
82.0312	0.1338	-1.3795	-0.9837	-1.7235	-2.1158	-1.6353	-1.6247	-0.1303	0.228	-0.9373	-0.8188	-1.6936	-2.6956	-2.469	-1.2191	-1.5047	-1.2498	-1.4821	-1.5449	-1.6923	-2.0685	-2.2412	-2.2005	-2.8937	-0.6158	-0.3042	-2.2159	-1.8821	-1.4223	-0.262
85.9375	-0.3873	-1.9014	-1.5029	-2.1861	-2.5153	-2.056	-1.8394	0.0153	0.5677	-0.9209	-0.7675	-1.8644	-3.2076	-3.0371	-1.7611	-2.0772	-1.7607	-1.9299	-2.0316	-2.2779	-2.6871	-2.7213	-2.6021	-3.3515	-0.6592	-0.381	-2.6381	-2.1625	-1.9487	-0.6397
89.8438	-0.9917	-2.4576	-2.0698	-2.6414	-2.8216	-2.4217	-1.89	0.2484	1.0496	-0.7105	-0.5236	-1.8285	-3.5629	-3.5123	-2.3318	-2.6996	-2.3241	-2.4406	-2.5607	-2.8939	-3.2749	-3.1883	-3.0141	-3.6664	-0.6836	-0.3936	-2.8991	-2.2741	-2.4818	-1.1127
93.75	-1.6066	-2.9707	-2.6104	-3.0217	-2.9783	-2.6733	-1.7225	0.5668	1.6522	-0.2728	-0.0729	-1.5467	-3.6814	-3.8168	-2.8496	-3.2868	-2.8588	-2.949	-3.0575	-3.456	-3.7486	-3.5717	-3.3752	-3.7716	-0.6734	-0.3283	-2.9345	-2.1718	-2.9505	-1.6224
97.6562	-2.1388	-3.3484	-3.0351	-3.2459	-2.9258	-2.7458	-1.2917	0.9643	2.3384	0.4057	0.5728	-1.0094	-3.4879	-3.869	-3.2197	-3.7375	-3.2694	-3.3718	-3.4312	-3.865	-4.0164	-3.7893	-3.6099	-3.6042	-0.6111	-0.1782	-2.6939	-1.8348	-3.2788	-2.0904
101.5625	-2.4879	-3.4977	-3.2514	-3.2332	-2.6101	-2.5789	-0.5716	1.4288	3.0577	1.313	1.3744	-0.24	-2.9248	-3.5957	-3.3485	-3.9495	-3.4616	-3.6207	-3.5874	-4.0207	-3.9912	-3.7599	-3.6407	-3.1171	-0.4808	0.0539	-2.1512	-1.2725	-3.3973	-2.43
105.4688	-2.5614	-3.3402	-3.1793	-2.9169	-1.9944	-2.1274	0.4354	1.9408	3.7494	2.4076	2.2681	0.7059	-1.9652	-2.9465	-3.1585	-3.8358	-3.357	-3.6173	-3.445	-3.8382	-3.6058	-3.4179	-3.4023	-2.2897	-0.2737	0.3539	-1.3124	-0.5248	-3.2542	-2.56
109.375	-2.2896	-2.8258	-2.7644	-2.2579	-1.0678	-1.3711	1.693	2.4716	4.3482	3.6197	3.1724	1.7471	-0.6229	-1.9054	-2.603	-3.3388	-2.9071	-3.307	-2.95	-3.2629	-2.8251	-2.727	-2.856	-1.1386	0.0067	0.694	-0.2209	0.3407	-2.8228	-2.4188
113.2812	-1.638	-1.943	-1.9885	-1.2537	0.1486	-0.3202	3.1301	2.9839	4.7894	4.8556	3.9975	2.7866	1.0429	-0.499	-1.6753	-2.4419	-2.1026	-2.6692	-2.087	-2.2802	-1.6552	-1.6899	-1.9994	0.2774	0.3408	1.0322	1.0418	1.2375	-2.1059	-1.9753
117.1875	-0.615	-0.7226	-0.8737	0.0588	1.6012	0.9829	4.6464	3.4347	5.0158	6.0063	4.6562	3.7246	2.9292	1.2022	-0.4129	-1.173	-0.9759	-1.7222	-0.8848	-0.9204	-0.1451	-0.3523	-0.8699	1.858	0.6917	1.3149	2.3618	2.0702	-1.1348	-1.234
121.0938	0.7278	0.7638	0.5186	1.6058	3.2079	2.4668	6.1221	3.7805	4.9842	6.96	5.0746	4.4709	4.8984	3.0881	1.1055	0.3958	0.4013	-0.5222	0.5853	0.7438	1.6159	1.1996	0.4566	3.4701	1.0093	1.4819	3.6044	2.7471	0.0341	-0.2356
125	2.3001	2.4114	2.0946	3.2857	4.8668	4.0384	7.4328	3.9833	4.672	7.6157	5.2015	4.9562	6.7926	5.0198	2.7687	2.1569	1.9277	0.8434	2.2168	2.604	3.5079	2.8477	1.8747	4.9624	1.2364	1.4754	4.6303	3.1924	1.3266	0.9491
128.9062	3.9839	4.0951	3.7398	4.9803	6.4676	5.5933	8.4647	4.0171	4.0815	7.8967	5.0149	5.1403	8.452	6.8452	4.4463	3.9792	3.4848	2.2665	3.88	4.5282	5.3922	4.4548	3.2616	6.1841	1.3189	1.2499	5.3139	3.3552	2.6588	2.2285
132.8125	5.6473	5.6844	5.3332	6.5696	7.9034	7.0266	9.1289	3.8726	3.2423	7.7613	4.5248	5.0146	9.7337	8.4162	6.0045	5.7232	4.9517	3.6313	5.4378	6.3749	7.1269	5.8813	4.4922	7.006	1.2159	0.7821	5.5616	3.2156	3.9452	3.5024
136.7188	7.1591	7.0595	6.7612	7.9444	9.0816	8.2437	9.3717	3.5584	2.2092	7.2082	3.7708	4.6012	10.5287	9.6059	7.3203	7.2566	6.2182	4.8276	6.7616	8.0076	8.581	7.0016	5.4545	7.3378	0.9081	0.0781	5.3254	2.7863	5.1069	4.6732
140.625	8.4036	8.1243	7.9292	9.0171	9.9321	9.1686	9.1792	3.1002	1.0567	6.2762	2.8161	3.947	10.7734	10.3227	8.2947	8.4681	7.1943	5.7624	7.7448	9.3087	9.6483	7.7184	6.0624	7.141	0.4037	-0.8233	4.61	2.1089	6.0762	5.6564
144.5312	9.2919	8.8153	8.7696	9.7278	10.4108	9.749	8.5763	2.5362	-0.1304	5.0382	1.7381	3.1147	10.4552	10.5197	8.8613	9.2777	7.8165	6.3683	8.3143	10.1903	10.2566	7.9745	6.265	6.4332	-0.2612	-1.8535	3.4725	1.2476	6.8009	6.3874
148.4375	9.7696	9.1049	9.2441	10.0467	10.5008	9.9581	7.6197	1.9104	-1.2678	3.5894	0.6176	2.1739	9.611	10.198	8.9902	9.6426	8.0512	6.6085	8.4363	10.602	10.3749	7.7574	6.0518	5.285	-1.0255	-2.9206	2.0134	0.2792	7.2451	6.8254
152.3438	9.8197	8.9998	9.3434	9.973	10.2104	9.7938	6.3882	1.2667	-2.2819	2.0348	-0.4714	1.1912	8.3197	9.404	8.6886	9.5591	7.8952	6.4776	8.119	10.535	10.0143	7.1005	5.4525	3.8094	-1.8117	-3.9213	0.3631	-0.7158	7.3905	6.9555
156.25	9.4616	8.5355	9.083	9.5318	9.5706	9.2772	4.9717	0.643	-3.118	0.4758	-1.469	0.2243	6.6899	8.2218	7.9974	9.0609	7.3758	6.0002	7.4097	10.021	9.2258	6.0779	4.5328	2.146	-2.5354	-4.7539	-1.3357	-1.6628	7.2361	6.7875
160.1562	8.7441	7.7694	8.4984	8.7701	8.6319	8.4497	3.4619	0.068	-3.7444	-0.9998	-2.3335	-0.6822	4.8464	6.7613	6.9852	8.2124	6.5472	5.2266	6.3887	9.1279	8.0931	4.7945	3.3865	0.4432	-3.1168	-5.3307	-2.9452	-2.4991	6.7985	6.3539
164.0625	7.7377	6.7719	7.6404	7.7519	7.461	7.3707	1.9446	-0.4387	-4.1517	-2.3235	-3.0419	-1.4981	2.916	5.1445	5.7393	7.1004	5.4858	4.2267	5.1583	7.9505	6.722	3.373	2.1247	-1.1581	-3.4908	-5.5889	-4.3464	-3.1787	6.1115	5.7049
167.9688	6.5247	5.6197	6.5706	6.5531	6.1367	6.1139	0.4962	-0.8659	-4.3491	-3.4476	-3.5869	-2.2052	1.0167	3.4925	4.3565	5.8232	4.2814	3.0825	3.8304	6.5981	5.2279	1.9394	0.8627	-2.5396	-3.6152	-5.4979	-5.4499	-3.6732	5.224	4.9033
171.875	5.1911	4.3892	5.358	5.2556	4.745	4.7627	-0.8183	-1.2077	-4.3577	-4.3425	-3.972	-2.7947	-0.7508	1.9136	2.9333	4.4787	3.0271	1.88	2.5127	5.1813	3.7227	0.6083	-0.2934	-3.6147	-3.4756	-5.0615	-6.2002	-3.9716	4.198	4.0172
175.7812	3.8202	3.1515	4.0754	3.9413	3.3731	3.4046	-1.946	-1.4609	-4.2045	-4.9931	-4.2065	-3.2629	-2.3068	0.4956	1.5577	3.1547	1.8084	0.7011	1.2964	3.7996	2.3042	-0.5291	-1.2581	-4.3338	-3.0862	-4.3175	-6.577	-4.0783	3.1035	3.1143
179.6875	2.4873	1.9693	2.7956	2.6857	2.1023	2.1231	-2.8462	-1.6239	-3.9171	-5.394	-4.3007	-3.6087	-3.5935	-0.6993	0.3022	1.9209	0.6937	-0.3837	0.2478	2.5314	1.0477	-1.4133	-1.9761	-4.6845	-2.4882	-3.3321	-6.5919	-4.0106	2.0123	2.255
183.5938	1.2565	0.8934	1.5876	1.5517	1.0003	0.9901	-3.4911	-1.6966	-3.5209	-5.5466	-4.264	-3.8311	-4.5746	-1.6347	-0.7804	0.8243	-0.2709	-1.3216	-0.5969	1.4288	0.0019	-2.0203	-2.427	-4.6874	-1.7432	-2.1916	-6.2826	-3.795	0.9911	1.4877
187.5	0.1785	-0.0387	0.5115	0.5849	0.1152	0.0595	-3.8665	-1.6806	-3.0377	-5.4575	-4.1036	-3.929	-5.2326	-2.2984	-1.6582	-0.1105	-1.0636	-2.0807	-1.23	0.5164	-0.8112	-2.3596	-2.6245	-4.3896	-0.925	-0.9924	-5.7058	-3.4641	0.0947	0.8451
191.4062	-0.7099	-0.8034	-0.3854	-0.1877	-0.5273	-0.6373	-3.9719	-1.5796	-2.4861	-5.1379	-3.8252	-3.9009	-5.5658	-2.6968	-2.3189	-0.8782	-1.6828	-2.6502	-1.6679	-0.2043	-1.3923	-2.4678	-2.6107	-3.8552	-0.1096	0.1712	-4.9289	-3.0518	-0.6384	0.3433
195.3125	-1.3846	-1.3901	-1.0719	-0.7574	-0.9243	-1.0908	-3.8196	-1.3988	-1.8816	-4.604	-3.4338	-3.7455	-5.5854	-2.8493	-2.7655	-1.4861	-2.1418	-3.0377	-1.9415	-0.7481	-1.7585	-2.3981	-2.4454	-3.1555	0.6349	1.2174	-4.0223	-2.5896	-1.1874	-0.0172
199.2188	-1.8331	-1.7989	-1.5344	-1.1304	-1.0917	-1.3115	-3.4331	-1.1451	-1.2375	-3.8776	-2.9353	-3.4632	-5.3134	-2.7822	-3.0115	-1.9467	-2.4607	-3.2637	-2.0877	-1.1376	-1.9356	-2.2087	-2.1936	-2.3597	1.2563	2.0864	-3.0522	-2.1035	-1.5487	-0.2481
203.125	-2.0546	-2.0383	-1.7775	-1.3235	-1.0602	-1.3259	-2.846	-0.8266	-0.5662	-2.9879	-2.3389	-3.0577	-4.7812	-2.5248	-3.0766	-2.2725	-2.66	-3.3558	-2.14	-1.3959	-1.9521	-1.9528	-1.9135	-1.5282	1.7236	2.7449	-2.0756	-1.6125	-1.7331	-0.3694
207.0312	-2.0614	-2.1231	-1.8226	-1.3611	-0.8694	-1.1711	-2.0999	-0.4531	0.1192	-1.9722	-1.6591	-2.5381	-4.029	-2.1078	-2.9846	-2.4724	-2.7566	-3.3442	-2.1238	-1.5423	-1.8346	-1.6705	-1.648	-0.7079	2.0285	3.1871	-1.1366	-1.1286	-1.7631	-0.4053
210.9375	-1.8803	-2.073	-1.7047	-1.2714	-0.5632	-0.8907	-1.2429	-0.0368	0.804	-0.8759	-0.9169	-1.9203	-3.1061	-1.5631	-2.7615	-2.5525	-2.7608	-3.2575	-2.0531	-1.5902	-1.607	-1.3862	-1.4202	0.0685	2.1831	3.4319	-0.2657	-0.6583	-1.6697	-0.3801
214.8438	-1.5522	-1.9116	-1.4682	-1.0852	-0.1856	-0.5301	-0.3269	0.4073	1.4705	0.2487	-0.1401	-1.2281	-2.0692	-0.9252	-2.4358	-2.518	-2.6776	-3.1214	-1.9323	-1.5494	-1.2911	-1.1088	-1.2344	0.7817	2.2154	3.5162	0.5201	-0.2048	-1.4891	-0.3162
218.75	-1.1295	-1.6658	-1.1616	-0.834	0.2221	-0.1329	0.5947	0.861	2.0986	1.3452	0.6376	-0.4925	-0.9809	-0.2325	-2.0384	-2.3775	-2.5088	-2.9572	-1.7601	-1.4289	-0.9087	-0.8364	-1.0805	1.4226	2.1623	3.487	1.214	0.2301	-1.2584	-0.2315
222.6562	-0.6705	-1.366	-0.8324	-0.5497	0.6232	0.2623	1.4706	1.3036	2.6658	2.3572	1.3786	0.2495	0.094	0.4726	-1.602	-2.1465	-2.2578	-2.7819	-1.5344	-1.2414	-0.4847	-0.5618	-0.9409	1.9877	2.0626	3.393	1.8163	0.6434	-1.013	-0.1391
226.5625	-0.2322	-1.0448	-0.5221	-0.2639	0.9868	0.6237	2.255	1.7124	3.1488	3.2323	2.044	0.9575	1.0926	1.1457	-1.1601	-1.8499	-1.9339	-2.6082	-1.2584	-1.0055	-0.0475	-0.2789	-0.7972	2.476	1.9515	3.277	2.3295	1.0293	-0.782	-0.0466
230.4688	0.1373	-0.7363	-0.2633	-0.006	1.2889	0.928	2.9107	2.0647	3.5258	3.927	2.5967	1.5905	1.9588	1.7434	-0.7455	-1.5211	-1.5559	-2.4444	-0.9436	-0.7473	0.3709	0.0123	-0.6368	2.8851	1.8558	3.1704	2.7545	1.3784	-0.5868	0.0431
234.375	0.4044	-0.4736	-0.0772	0.1985	1.513	1.16	3.4122	2.3408	3.7792	4.4105	3.0055	2.1112	2.6478	2.2282	-0.3876	-1.1995	-1.1521	-2.2947	-0.6098	-0.4977	0.7377	0.3046	-0.4555	3.2104	1.7919	3.0903	3.0877	1.6777	-0.4382	0.1313
238.2812	0.5532	-0.2852	0.0269	0.3305	1.6512	1.313	3.7479	2.5269	3.8988	4.6675	3.2483	2.489	3.1301	2.5731	-0.1095	-0.9241	-0.7575	-2.159	-0.2832	-0.2882	1.0244	0.5842	-0.2584	3.4456	1.7654	3.0391	3.3203	1.9116	-0.3371	0.2219
242.1875	0.586	-0.1905	0.0513	0.3807	1.7058	1.3885	3.9211	2.6183	3.8848	4.7	3.3156	2.7039	3.3943	2.7664	0.075	-0.7267	-0.4078	-2.0338	0.0099	-0.1442	1.2117	0.8356	-0.0568	3.5849	1.7723	3.0061	3.4399	2.0636	-0.2752	0.3197
246.0938	0.5205	-0.1959	0.0089	0.3515	1.6895	1.3954	3.95	2.6214	3.7497	4.5278	3.2121	2.7478	3.4492	2.8145	0.1636	-0.6249	-0.1321	-1.9123	0.2497	-0.0786	1.2952	1.0473	0.1363	3.6264	1.8012	2.9715	3.4333	2.1181	-0.2384	0.4294
250	0.3861	-0.2914	-0.0795	0.2588	1.6252	1.3501	3.8658	2.554	3.5182	4.1869	2.9571	2.6258	3.3226	2.7429	0.1671	-0.6169	0.0547	-1.7856	0.4285	-0.0868	1.2878	1.2172	0.312	3.575	1.8364	2.9105	3.2909	2.0631	-0.2102	0.5531
253.9062	0.2192	-0.4507	-0.1881	0.1302	1.5445	1.2744	3.7088	2.4437	3.2251	3.726	2.5824	2.3552	3.0593	2.5933	0.1088	-0.6805	0.1567	-1.6439	0.5544	-0.1452	1.2196	1.3559	0.469	3.4443	1.861	2.7983	3.0102	1.8924	-0.1752	0.69
257.8125	0.0577	-0.6345	-0.2894	0.0015	1.4827	1.1933	3.5232	2.3232	2.9107	3.201	2.1286	1.9634	2.7156	2.4178	0.0221	-0.7764	0.1981	-1.4782	0.6501	-0.2149	1.1333	1.485	0.6154	3.2572	1.8603	2.6151	2.6001	1.6073	-0.1228	0.8358
261.7188	-0.0641	-0.7975	-0.3593	-0.0901	1.472	1.1308	3.35	2.225	2.6151	2.6684	1.6392	1.4848	2.3515	2.2704	-0.0548	-0.8562	0.2195	-1.2826	0.7479	-0.25	1.076	1.6326	0.766	3.0427	1.8244	2.35	2.0814	1.2182	-0.0494	0.9829
265.625	-0.1208	-0.8981	-0.3809	-0.1148	1.5335	1.1042	3.2199	2.1747	2.371	2.1777	1.1549	0.9568	2.0223	2.1962	-0.0867	-0.8744	0.2678	-1.0562	0.8803	-0.2092	1.0876	1.8244	0.9367	2.8324	1.7496	2.0035	1.4874	0.7446	0.0405	1.1217
269.5312	-0.1005	-0.9084	-0.3491	-0.0581	1.6699	1.1189	3.1472	2.1859	2.1981	1.7649	0.7083	0.4167	1.7696	2.221	-0.049	-0.8001	0.3837	-0.8059	1.07	-0.0678	1.1908	2.0745	1.1376	2.6542	1.6396	1.5888	0.8605	0.2139	0.1337	1.2412
273.4375	-0.008	-0.8226	-0.2726	0.073	1.8613	1.1653	3.1263	2.2567	2.0998	1.4481	0.3208	-0.1013	1.6146	2.3449	0.065	-0.6269	0.5897	-0.5472	1.3203	0.1726	1.3828	2.3774	1.366	2.5269	1.5045	1.1307	0.2483	-0.3402	0.2099	1.3302
277.3438	0.1353	-0.6594	-0.1736	0.2502	2.0667	1.2188	3.1338	2.3709	2.0643	1.2278	0.0028	-0.5675	1.5562	2.5408	0.2412	-0.376	0.8818	-0.3042	1.6111	0.4819	1.6339	2.7048	1.6037	2.4573	1.3593	0.6642	-0.3013	-0.8799	0.2448	1.378
281.25	0.2943	-0.4588	-0.0837	0.4287	2.2311	1.2453	3.1341	2.5021	2.0687	1.09	-0.2438	-0.957	1.574	2.7597	0.4464	-0.0935	1.2282	-0.1065	1.9012	0.8055	1.8927	3.0094	1.8175	2.4393	1.2215	0.2304	-0.7451	-1.3661	0.214	1.3754
285.1562	0.4274	-0.2734	-0.0376	0.5567	2.297	1.2088	3.0899	2.6206	2.0863	1.0134	-0.4208	-1.2491	1.635	2.9423	0.6352	0.1606	1.5751	0.0151	2.1363	1.076	2.0969	3.2338	1.9657	2.4573	1.1079	-0.1289	-1.0488	-1.761	0.0988	1.3149
289.0625	0.4954	-0.1559	-0.0654	0.5875	2.2178	1.0808	2.9726	2.7017	2.0941	0.9766	-0.5294	-1.4275	1.7035	3.0321	0.7607	0.3251	1.8593	0.0348	2.2616	1.2278	2.1876	3.3236	2.0072	2.4902	1.0311	-0.3783	-1.1919	-2.0321	-0.11	1.1914
292.9688	0.4704	-0.1469	-0.185	0.4904	1.9688	0.8484	2.7703	2.731	2.0788	0.964	-0.5685	-1.4806	1.7495	2.9892	0.7845	0.3522	2.0218	-0.0631	2.2347	1.2118	2.1226	3.2407	1.9112	2.5159	0.9961	-0.4957	-1.1709	-2.1569	-0.4089	1.0022
296.875	0.3431	-0.2655	-0.3976	0.2575	1.5538	0.5178	2.4915	2.7068	2.038	0.9676	-0.5352	-1.4048	1.7545	2.7986	0.6863	0.2182	2.0227	-0.2796	2.0364	1.0063	1.8862	2.9728	1.6661	2.5144	0.9989	-0.4794	-1.0032	-2.128	-0.7821	0.7483
300.7812	0.1252	-0.5054	-0.6866	-0.0947	1.0044	0.1133	2.1618	2.639	1.9787	0.9845	-0.4301	-1.2086	1.7127	2.4725	0.4679	-0.0721	1.8498	-0.6	1.6756	0.6214	1.4919	2.5379	1.2826	2.4691	1.026	-0.3507	-0.7282	-1.9579	-1.2037	0.4349
304.6875	-0.1519	-0.8376	-1.0212	-0.5298	0.3735	-0.3282	1.8161	2.5435	1.9111	1.0121	-0.2632	-0.9165	1.6278	2.046	0.1529	-0.4862	1.5223	-0.9948	1.1884	0.0965	0.9787	1.9807	0.7939	2.3671	1.0569	-0.1517	-0.4048	-1.6815	-1.6434	0.0733
308.5938	-0.4437	-1.216	-1.3625	-0.9984	-0.2747	-0.765	1.4882	2.4367	1.8423	1.0414	-0.059	-0.5704	1.509	1.5683	-0.2181	-0.971	1.0867	-1.4234	0.6319	-0.5073	0.4033	1.3649	0.2498	2.1994	1.0693	0.0614	-0.1045	-1.3542	-2.0715	-0.3188
312.5	-0.6999	-1.5865	-1.6702	-1.4471	-0.8761	-1.1581	1.2029	2.3302	1.7709	1.0535	0.1415	-0.228	1.3651	1.0922	-0.5951	-1.462	0.6084	-1.8387	0.0738	-1.1183	-0.1706	0.7616	-0.2908	1.962	1.0439	0.2295	0.0994	-1.0455	-2.4635	-0.7165
316.4062	-0.8743	-1.8946	-1.9093	-1.8261	-1.3757	-1.4765	0.9701	2.228	1.6848	1.0199	0.2847	0.0444	1.2024	0.6647	-0.9269	-1.8931	0.1604	-2.1931	-0.418	-1.6654	-0.6832	0.2379	-0.769	1.6572	0.9701	0.303	0.145	-0.8283	-2.8025	-1.0904
320.3125	-0.9319	-2.0935	-2.0539	-2.0948	-1.7344	-1.7	0.7852	2.1265	1.5633	0.9065	0.3129	0.1818	1.0229	0.3193	-1.1692	-2.2067	-0.189	-2.4441	-0.786	-2.088	-1.0864	-0.1537	-1.1352	1.2945	0.8484	0.2509	-0.0073	-0.7664	-3.0796	-1.4087
324.2188	-0.8548	-2.1497	-2.0899	-2.2261	-1.9323	-1.8191	0.6322	2.0172	1.3826	0.6818	0.1762	0.1326	0.8247	0.0727	-1.2903	-2.3606	-0.3865	-2.5601	-0.9902	-2.3444	-1.3505	-0.3821	-1.3557	0.8892	0.6893	0.0661	-0.3673	-0.9024	-3.292	-1.6428
328.125	-0.6436	-2.0476	-2.0151	-2.2087	-1.9691	-1.8341	0.49	1.8906	1.1221	0.3252	-0.1553	-0.13	0.604	-0.0766	-1.2761	-2.3343	-0.4019	-2.5258	-1.0142	-2.4161	-1.4672	-0.442	-1.419	0.4597	0.5095	-0.2357	-0.9152	-1.2488	-3.4416	-1.7725
332.0312	-0.3165	-1.7917	-1.8389	-2.0477	-1.8628	-1.7539	0.3386	1.74	0.7721	-0.1658	-0.6822	-0.6014	0.3559	-0.1462	-1.1313	-2.1309	-0.2327	-2.3453	-0.8667	-2.3098	-1.4498	-0.3546	-1.3374	0.0227	0.3255	-0.6226	-1.6066	-1.7855	-3.5325	-1.7904
335.9375	0.0958	-1.4068	-1.5799	-1.7646	-1.6457	-1.5937	0.1635	1.5647	0.3373	-0.7725	-1.3725	-1.2443	0.0763	-0.1655	-0.8787	-1.7777	0.0954	-2.0431	-0.5806	-2.0556	-1.3299	-0.1633	-1.146	-0.4112	0.1471	-1.057	-2.3838	-2.463	-3.5704	-1.7056
339.8438	0.5549	-0.9349	-1.264	-1.3941	-1.36	-1.3743	-0.0415	1.3707	-0.1619	-1.4567	-2.1658	-1.9943	-0.2378	-0.1704	-0.5556	-1.3213	0.533	-1.6615	-0.2085	-1.7013	-1.1519	0.0727	-0.8974	-0.8404	-0.0269	-1.5053	-3.1875	-3.2122	-3.5616	-1.5428
343.75	1.0202	-0.4304	-0.9209	-0.9804	-1.0518	-1.1194	-0.2746	1.1697	-0.6918	-2.1662	-2.9822	-2.7706	-0.5864	-0.1964	-0.2087	-0.8216	1.0149	-1.255	0.186	-1.3051	-0.9651	0.289	-0.6532	-1.2725	-0.2097	-1.9458	-3.9682	-3.9569	-3.5131	-1.3389
347.6562	1.4515	0.0488	-0.5813	-0.5711	-0.7647	-0.8545	-0.5274	0.9773	-1.2105	-2.8432	-3.737	-3.4905	-0.966	-0.2727	0.1131	-0.3427	1.4702	-0.8812	0.5377	-0.9259	-0.8157	0.427	-0.4738	-1.7201	-0.4229	-2.3706	-4.6919	-4.6272	-3.4331	-1.1376
351.5625	1.812	0.4489	-0.2736	-0.2106	-0.5348	-0.6037	-0.7874	0.8097	-1.6752	-3.4335	-4.3547	-4.0832	-1.3683	-0.4165	0.3651	0.057	1.8349	-0.5911	0.7914	-0.6146	-0.7385	0.4451	-0.4077	-2.1947	-0.6894	-2.7829	-5.341	-5.1699	-3.3308	-0.9811
355.4688	2.0704	0.73	-0.0215	0.0664	-0.3854	-0.3872	-1.0399	0.6808	-2.048	-3.8939	-4.7816	-4.5011	-1.779	-0.6303	0.5143	0.3341	2.0624	-0.42	0.9111	-0.4058	-0.7521	0.3262	-0.4824	-2.6988	-1.025	-3.1902	-5.9094	-5.5551	-3.2165	-0.9032
359.375	2.2045	0.8714	0.159	0.2402	-0.3248	-0.219	-1.2697	0.6004	-2.3015	-4.197	-4.9923	-4.7253	-2.1779	-0.9001	0.545	0.4663	2.1312	-0.3812	0.8868	-0.3133	-0.8551	0.0815	-0.6994	-3.2199	-1.4313	-3.5965	-6.3954	-5.777	-3.1013	-0.9234
363.2812	2.206	0.8749	0.2611	0.3082	-0.3461	-0.1046	-1.4614	0.5736	-2.4204	-4.3315	-4.9902	-4.7648	-2.5391	-1.197	0.462	0.4557	2.0482	-0.4644	0.7357	-0.329	-1.0272	-0.251	-1.0333	-3.7277	-1.8918	-3.9965	-6.7938	-5.8502	-2.9959	-1.0448
367.1875	2.0843	0.7632	0.2888	0.2854	-0.4293	-0.0408	-1.5994	0.6012	-2.4013	-4.2997	-4.8014	-4.6487	-2.8323	-1.4816	0.2898	0.3271	1.8451	-0.6392	0.4989	-0.4251	-1.2329	-0.6142	-1.4365	-4.1764	-2.3729	-4.3728	-7.0908	-5.8014	-2.9088	-1.2535
371.0938	1.8674	0.5745	0.2562	0.2002	-0.5452	-0.0165	-1.6681	0.6809	-2.2498	-4.1124	-4.4644	-4.416	-3.0254	-1.7092	0.0687	0.1225	1.5709	-0.862	0.2325	-0.5604	-1.4271	-0.9419	-1.8472	-4.5113	-2.8293	-4.6979	-7.2628	-5.66	-2.845	-1.522
375	1.5986	0.355	0.1859	0.0896	-0.6611	-0.0145	-1.6526	0.8088	-1.9784	-3.7839	-4.0196	-4.1032	-3.088	-1.8366	-0.153	-0.107	1.2809	-1.0855	-0.0027	-0.687	-1.5627	-1.1714	-2.2015	-4.6788	-3.2124	-4.9385	-7.28	-5.4502	-2.8038	-1.814
378.9062	1.3287	0.1507	0.1053	-0.0083	-0.7461	-0.0155	-1.5404	0.979	-1.6042	-3.3297	-3.5021	-3.7368	-2.9949	-1.829	-0.3275	-0.3105	1.027	-1.2674	-0.153	-0.7591	-1.598	-1.2553	-2.4438	-4.6378	-3.4796	-5.0634	-7.1138	-5.1861	-2.7789	-2.0901
382.8125	1.106	-0.0006	0.0419	-0.0603	-0.7763	-0.0013	-1.3257	1.1832	-1.1495	-2.7665	-2.9382	-3.3304	-2.7316	-1.6654	-0.4162	-0.4457	0.849	-1.3779	-0.1811	-0.7392	-1.5036	-1.1697	-2.5371	-4.369	-3.6027	-5.0511	-6.7453	-4.8715	-2.7603	-2.3149
386.7188	0.9673	-0.0741	0.0178	-0.0442	-0.7382	0.0407	-1.0124	1.4082	-0.6437	-2.116	-2.3485	-2.8879	-2.2982	-1.3431	-0.3965	-0.4847	0.77	-1.4025	-0.0719	-0.6045	-1.2668	-0.9175	-2.4681	-3.8814	-3.5731	-4.8953	-6.1744	-4.5049	-2.7365	-2.4612
390.625	0.9319	-0.0604	0.0464	0.0486	-0.6306	0.1151	-0.6175	1.6352	-0.1238	-1.4089	-1.7525	-2.4111	-1.7127	-0.8782	-0.264	-0.417	0.7954	-1.3428	0.1667	-0.3486	-0.894	-0.527	-2.2475	-3.2124	-3.4025	-4.6084	-5.4254	-4.086	-2.6979	-2.5134
394.5312	1.0014	0.0363	0.1312	0.2139	-0.4626	0.2185	-0.171	1.8405	0.3662	-0.6866	-1.1736	-1.9064	-1.0102	-0.3032	-0.0307	-0.247	0.9164	-1.2117	0.5082	0.0194	-0.4082	-0.044	-1.9059	-2.4228	-3.12	-4.2201	-4.5468	-3.6217	-2.6377	-2.4674
398.4375	1.1635	0.2029	0.2683	0.4384	-0.2503	0.3418	0.2883	1.9991	0.7809	0.0008	-0.6403	-1.3903	-0.2388	0.3395	0.2805	0.0103	1.1162	-1.0274	0.9158	0.4792	0.1565	0.4791	-1.4853	-1.5868	-2.7661	-3.7726	-3.6063	-3.1294	-2.5513	-2.3279
402.3438	1.3999	0.4238	0.4503	0.7052	-0.0107	0.4745	0.7192	2.0896	1.0802	0.6009	-0.1845	-0.889	0.547	1.0048	0.6439	0.3372	1.3774	-0.807	1.3523	1.0057	0.7623	0.995	-1.0299	-0.7794	-2.3859	-3.3144	-2.6814	-2.6363	-2.4343	-2.1056
406.25	1.6935	0.6866	0.6704	0.9997	0.243	0.6091	1.086	2.0999	1.2372	1.0674	0.1638	-0.4362	1.2949	1.6531	1.038	0.7185	1.6882	-0.5615	1.7889	1.5746	1.3756	1.4701	-0.5776	-0.0652	-2.0222	-2.893	-1.848	-2.1765	-2.281	-1.8139
410.1562	2.0322	0.9843	0.9248	1.3121	0.5039	0.7434	1.3649	2.0303	1.2429	1.3677	0.3817	-0.0674	1.9605	2.2549	1.4487	1.1443	2.0441	-0.2952	2.2094	2.1665	1.9716	1.8889	-0.1556	0.509	-1.7114	-2.5498	-1.1702	-1.7859	-2.0846	-1.4676
414.0625	2.4088	1.3143	1.2122	1.637	0.7714	0.881	1.5464	1.8936	1.1082	1.4882	0.458	0.1857	2.5116	2.7921	1.8688	1.6085	2.4455	-0.0075	2.6095	2.7663	2.5357	2.2517	0.2203	0.9173	-1.4805	-2.3164	-0.694	-1.4973	-1.8389	-1.0818
417.9688	2.817	1.6737	1.5312	1.9708	1.0472	1.0279	1.6349	1.7124	0.8607	1.4355	0.395	0.3007	2.9274	3.2549	2.2927	2.1041	2.8902	0.3017	2.9912	3.3605	3.0597	2.5674	0.5432	1.1519	-1.3465	-2.2123	-0.4437	-1.336	-1.5415	-0.6732
421.875	3.2459	2.0545	1.8767	2.3067	1.3309	1.1897	1.6442	1.5137	0.5395	1.2334	0.2086	0.2674	3.1969	3.6378	2.711	2.6174	3.3663	0.6278	3.3558	3.9329	3.5372	2.8457	0.8105	1.2193	-1.3158	-2.2438	-0.4229	-1.3161	-1.1964	-0.2599
425.7812	3.6768	2.4401	2.2372	2.632	1.6162	1.3678	1.5921	1.3241	0.1874	0.918	-0.0748	0.0903	3.3156	3.9349	3.1068	3.1252	3.8488	0.9584	3.6978	4.4617	3.9587	3.0895	1.02	1.1349	-1.385	-2.4034	-0.616	-1.4383	-0.8153	0.1386
429.6875	4.0825	2.805	2.5951	2.9277	1.889	1.5576	1.4957	1.1647	-0.1555	0.5309	-0.4221	-0.2127	3.2836	4.1379	3.4552	3.5948	4.2999	1.2745	4.0025	4.92	4.3098	3.292	1.1681	0.9199	-1.5407	-2.6702	-0.9923	-1.6898	-0.4166	0.503
433.5938	4.4326	3.119	2.9293	3.1708	2.1289	1.7487	1.3675	1.048	-0.4585	0.113	-0.7993	-0.6126	3.106	4.2374	3.7281	3.9895	4.6767	1.5538	4.2484	5.2793	4.5725	3.438	1.25	0.5989	-1.7609	-3.0121	-1.5093	-2.0452	-0.0222	0.8161
437.5	4.699	3.3527	3.2186	3.339	2.3126	1.9267	1.2148	0.9765	-0.7033	-0.302	-1.1758	-1.0736	2.7939	4.2252	3.9006	4.275	4.9402	1.776	4.412	5.5145	4.7288	3.5087	1.2619	0.2005	-2.0184	-3.3903	-2.1178	-2.4707	0.3457	1.0661
441.4062	4.8636	3.4848	3.4467	3.4158	2.419	2.0759	1.0397	0.9426	-0.8859	-0.6903	-1.5288	-1.5581	2.3665	4.0993	3.9576	4.4272	5.0642	1.9274	4.4747	5.6098	4.7662	3.4881	1.2041	-0.2436	-2.2839	-3.7657	-2.7654	-2.9282	0.6688	1.2483
445.3125	4.9223	3.5061	3.6046	3.394	2.4339	2.1816	0.8418	0.9312	-1.0152	-1.0391	-1.8448	-2.0308	1.853	3.8668	3.8985	4.4365	5.0418	2.0035	4.4285	5.5623	4.682	3.3693	1.083	-0.6986	-2.5317	-4.105	-3.4011	-3.3799	0.9346	1.3669
449.2188	4.886	3.4222	3.6916	3.2781	2.3538	2.233	0.6219	0.9223	-1.1093	-1.3447	-2.1188	-2.4608	1.2923	3.5463	3.7383	4.3099	4.8862	2.0096	4.2787	5.3838	4.4861	3.1581	0.9119	-1.1285	-2.7425	-4.3851	-3.9776	-3.7917	1.138	1.4339
453.125	4.7773	3.2512	3.7137	3.084	2.1884	2.2255	0.3852	0.8961	-1.1908	-1.608	-2.3506	-2.8226	0.7322	3.1681	3.5047	4.0686	4.6267	1.9589	4.0436	5.0991	4.2014	2.8733	0.7089	-1.4975	-2.9067	-4.5947	-4.4529	-4.1349	1.2809	1.4676
457.0312	4.6253	3.0205	3.6818	2.8364	1.96	2.1618	0.1447	0.8376	-1.2795	-1.8286	-2.5403	-3.0938	0.2259	2.7717	3.2333	3.7441	4.3017	1.8685	3.7502	4.7426	3.862	2.5437	0.4948	-1.7731	-3.023	-4.7315	-4.7907	-4.3851	1.3709	1.4876
460.9375	4.4593	2.761	3.6084	2.5654	1.7014	2.0531	-0.0776	0.7411	-1.3868	-1.9996	-2.6828	-3.2539	-0.1719	2.403	2.9607	3.3719	3.9502	1.7556	3.4292	4.3528	3.5093	2.2038	0.2892	-1.9278	-3.0959	-4.7983	-4.9597	-4.5209	1.4198	1.5106
464.8438	4.3032	2.5024	3.5063	2.3021	1.4514	1.918	-0.2512	0.6122	-1.5112	-2.1047	-2.7653	-3.2836	-0.4107	2.1086	2.7191	2.9868	3.6055	1.6343	3.1099	3.9677	3.187	1.8884	0.1085	-1.9414	-3.1322	-4.7983	-4.9356	-4.5241	1.4409	1.5465
468.75	4.1729	2.2689	3.3867	2.074	1.2494	1.7802	-0.3418	0.4676	-1.6374	-2.1198	-2.7683	-3.1668	-0.45	1.9307	2.5319	2.6182	3.2915	1.5137	2.8159	3.62	2.9355	1.6276	-0.0349	-1.8033	-3.1372	-4.7321	-4.7037	-4.3809	1.4467	1.5956
472.6562	4.0762	2.0778	3.2591	1.9024	1.1286	1.6654	-0.3175	0.3311	-1.7401	-2.0184	-2.6705	-2.8947	-0.2661	1.9009	2.4119	2.2883	3.0217	1.398	2.564	3.3342	2.787	1.4438	-0.1335	-1.5146	-3.1131	-4.5988	-4.2636	-4.0863	1.4467	1.6493
476.5625	4.0139	1.9398	3.1322	1.8004	1.1116	1.5966	-0.156	0.2287	-1.7901	-1.7791	-2.4558	-2.4707	0.1443	2.0362	2.3621	2.0122	2.8013	1.2873	2.3643	3.1259	2.7611	1.3498	-0.1833	-1.0899	-3.0592	-4.3987	-3.6335	-3.6483	1.4459	1.6928
480.4688	3.9835	1.86	3.0144	1.7733	1.2072	1.591	0.15	0.1827	-1.7617	-1.3935	-2.12	-1.9144	0.761	2.3355	2.377	1.7983	2.6302	1.1809	2.2213	3.0017	2.8631	1.3486	-0.184	-0.5574	-2.9739	-4.1372	-2.853	-3.0912	1.4454	1.7099
484.375	3.9805	1.8391	2.9136	1.819	1.4096	1.6565	0.5887	0.207	-1.6395	-0.8723	-1.6757	-1.2624	1.5409	2.7789	2.4456	1.6506	2.5052	1.0785	2.1355	2.9607	3.0835	1.4333	-0.139	0.0412	-2.8587	-3.8289	-1.9825	-2.4561	1.443	1.6872
488.2812	4.0007	1.874	2.8372	1.9296	1.6999	1.7909	1.1301	0.3039	-1.4231	-0.2468	-1.1532	-0.5659	2.4223	3.3295	2.5536	1.5689	2.4222	0.9821	2.1039	2.995	3.399	1.5881	-0.0562	0.6535	-2.7215	-3.4997	-1.0984	-1.7975	1.4345	1.617
492.1875	4.0404	1.9584	2.7903	2.0924	2.0495	1.982	1.729	0.4638	-1.1283	0.433	-0.597	0.1151	3.3303	3.9372	2.6855	1.55	2.3769	0.8959	2.1202	3.0916	3.7757	1.7898	0.0521	1.2208	-2.5781	-3.1856	-0.2857	-1.1771	1.4156	1.4987
496.0938	4.098	2.0824	2.7754	2.2922	2.4251	2.2101	2.331	0.6674	-0.7853	1.1049	-0.0598	0.7199	4.186	4.5448	2.8265	1.5878	2.3653	0.8253	2.1753	3.2337	4.1742	2.0104	0.1694	1.6837	-2.4521	-2.9285	0.3732	-0.6551	1.3831	1.3377
500	4.1742	2.2338	2.7918	2.5128	2.7938	2.4519	2.8812	0.8886	-0.4331	1.7031	0.4058	1.196	4.9155	5.0959	2.9648	1.6739	2.3844	0.7758	2.2584	3.4031	4.5546	2.2203	0.2774	1.9903	-2.3711	-2.7698	0.8091	-0.2811	1.3366	1.1444
503.9062	4.2728	2.3994	2.8366	2.7386	3.128	2.6848	3.3312	1.1	-0.1136	2.1678	0.755	1.5059	5.4592	5.5419	3.0928	1.7985	2.4323	0.7529	2.3585	3.5825	4.8829	2.3931	0.3588	2.1024	-2.3615	-2.7424	0.9766	-0.0865	1.2794	0.9329
507.8125	4.3987	2.5658	2.9046	2.9565	3.4084	2.8906	3.6461	1.2768	0.1356	2.454	0.9574	1.6327	5.7788	5.8489	3.207	1.9508	2.5068	0.7604	2.4661	3.7576	5.1353	2.5093	0.401	2.0024	-2.4422	-2.864	0.8603	-0.0806	1.2192	0.7194
511.7188	4.5549	2.721	2.9897	3.1557	3.626	3.0584	3.8088	1.4008	0.2879	2.5387	1.0013	1.5807	5.8614	6.0016	3.3066	2.1196	2.6042	0.8005	2.5739	3.9179	5.3003	2.5589	0.3983	1.6966	-2.6197	-3.1324	0.4771	-0.2496	1.1667	0.5203
515.625	4.7386	2.8547	3.0842	3.3279	3.7808	3.1849	3.8211	1.4634	0.332	2.4243	0.8955	1.3745	5.7208	6.0037	3.3914	2.2923	2.7173	0.872	2.6764	4.0566	5.3789	2.5428	0.3529	1.2154	-2.885	-3.5243	-0.1262	-0.5599	1.1328	0.3495
519.5312	4.9382	2.9572	3.1793	3.4662	3.8792	3.2732	3.7023	1.4665	0.2745	2.139	0.6678	1.0543	5.3934	5.8757	3.459	2.4551	2.8344	0.9691	2.7692	4.1685	5.3811	2.4712	0.2747	0.6099	-3.2138	-3.9975	-0.8795	-0.9643	1.1252	0.2157
523.4375	5.1327	3.0193	3.2643	3.5639	3.9308	3.33	3.4843	1.4215	0.1385	1.7328	0.3616	0.6701	4.9318	5.6491	3.5034	2.5917	2.9387	1.0807	2.8473	4.2481	5.3211	2.3606	0.1779	-0.0547	-3.5695	-4.4968	-1.6993	-1.4083	1.1448	0.1191
527.3438	5.2932	3.0311	3.3268	3.6134	3.9436	3.3628	3.2061	1.3461	-0.0405	1.2696	0.0294	0.2748	4.3962	5.3601	3.5141	2.684	3.0101	1.1904	2.9035	4.2877	5.2129	2.2293	0.078	-0.7079	-3.909	-4.9612	-2.4992	-1.8381	1.1837	0.0512
531.25	5.3881	2.9832	3.3535	3.6064	3.9221	3.3764	2.9068	1.2602	-0.2218	0.8174	-0.2757	-0.0829	3.8461	5.043	3.4784	2.7135	3.0273	1.2775	2.9287	4.2773	5.0665	2.094	-0.012	-1.2831	-4.1895	-5.3328	-3.2002	-2.2065	1.2248	-0.0051
535.1562	5.3898	2.8685	3.3324	3.5358	3.8668	3.372	2.6209	1.1806	-0.3677	0.4379	-0.5071	-0.3637	3.3334	4.7273	3.3842	2.6651	2.9722	1.3205	2.9131	4.2072	4.8886	1.9673	-0.0831	-1.7247	-4.3746	-5.5641	-3.7377	-2.4769	1.2457	-0.0719
539.0625	5.2815	2.6864	3.2559	3.3987	3.7763	3.3479	2.3743	1.1183	-0.4496	0.1777	-0.6324	-0.5408	2.8993	4.436	3.2253	2.5318	2.8342	1.3013	2.8492	4.0724	4.6844	1.8582	-0.1309	-1.9933	-4.4401	-5.6239	-4.0669	-2.6257	1.2229	-0.1711
542.9688	5.0638	2.4456	3.1239	3.2003	3.6512	3.302	2.1842	1.0769	-0.4532	0.0627	-0.6364	-0.6013	2.5734	4.1874	3.0055	2.3189	2.6145	1.2108	2.7363	3.8771	4.4621	1.7736	-0.1535	-2.068	-4.377	-5.5011	-4.1644	-2.6423	1.1387	-0.3185
546.875	4.7572	2.1656	2.9467	2.9566	3.4981	3.2341	2.06	1.0538	-0.3796	0.0969	-0.523	-0.5456	2.3743	3.997	2.7419	2.0464	2.3292	1.0531	2.5835	3.6379	4.2364	1.7206	-0.1496	-1.947	-4.1919	-5.2059	-4.0288	-2.5284	0.9862	-0.5191
550.7812	4.4017	1.8761	2.7442	2.6935	3.3312	3.149	2.0051	1.0422	-0.2438	0.2649	-0.312	-0.3852	2.3116	3.8791	2.4645	1.7478	2.0084	0.8467	2.41	3.3834	4.029	1.7071	-0.1168	-1.6463	-3.9064	-4.7683	-3.6786	-2.297	0.7729	-0.7642
554.6875	4.0501	1.6122	2.5437	2.4442	3.1712	3.056	2.0188	1.0338	-0.0706	0.5366	-0.035	-0.1401	2.3868	3.8457	2.2124	1.4655	1.6923	0.6234	2.2437	3.1499	3.8666	1.7415	-0.0514	-1.1971	-3.5525	-4.2344	-3.1497	-1.97	0.5199	-1.0322
558.5938	3.7591	1.4083	2.3747	2.243	3.0422	2.9681	2.0973	1.0215	0.1112	0.8745	0.2713	0.1639	2.593	3.9053	2.027	1.2435	1.4243	0.4219	2.1155	2.9754	3.7759	1.8303	0.051	-0.6416	-3.1679	-3.6593	-2.4908	-1.576	0.2575	-1.2926
562.5	3.5767	1.2916	2.2622	2.1186	2.966	2.8987	2.2338	1.0005	0.2742	1.24	0.5714	0.499	2.9149	4.0591	1.9429	1.1187	1.2432	0.2803	2.0536	2.8914	3.7777	1.9764	0.194	-0.0281	-2.7896	-3.0992	-1.7577	-1.1474	0.0188	-1.5126
566.4062	3.5321	1.2759	2.2217	2.0881	2.957	2.8586	2.4182	0.9701	0.3976	1.5989	0.8353	0.8375	3.3285	4.2998	1.9806	1.1139	1.1757	0.228	2.0775	2.9166	3.8818	2.1768	0.3783	0.594	-2.4488	-2.6033	-1.0077	-0.7173	-0.1674	-1.6644
570.3125	3.6293	1.3591	2.2557	2.1529	3.0188	2.8533	2.6367	0.9332	0.4698	1.924	1.0424	1.154	3.8014	4.6096	2.1413	1.233	1.2315	0.2792	2.1937	3.0529	4.0842	2.422	0.6004	1.1796	-2.1675	-2.208	-0.2951	-0.317	-0.2826	-1.7312
574.2188	3.8468	1.5233	2.3531	2.2988	3.1427	2.8818	2.8708	0.8954	0.4896	2.1961	1.1814	1.4267	4.2947	4.9621	2.4063	1.4607	1.4019	0.431	2.394	3.2842	4.3665	2.6965	0.8512	1.691	-1.9576	-1.934	0.3329	0.026	-0.3212	-1.7109
578.125	4.1446	1.7385	2.4925	2.4988	3.3099	2.9369	3.099	0.8639	0.464	2.4028	1.2498	1.6379	4.7663	5.3245	2.7407	1.7654	1.6618	0.6644	2.6569	3.5805	4.6988	2.9801	1.1161	2.1001	-1.8224	-1.787	0.8382	0.2896	-0.2904	-1.6162
582.0312	4.4744	1.9688	2.6472	2.7186	3.4947	3.007	3.2978	0.8447	0.4052	2.5366	1.2516	1.775	5.1754	5.6629	3.1016	2.106	1.9753	0.9499	2.9525	3.9024	5.0442	3.2506	1.377	2.3895	-1.7589	-1.7604	1.1934	0.4577	-0.2068	-1.4712
585.9375	4.7922	2.1796	2.7912	2.9239	3.6701	3.0783	3.4449	0.8413	0.327	2.5936	1.195	1.8311	5.488	5.947	3.4464	2.44	2.304	1.2535	3.2484	4.2099	5.3649	3.4882	1.6147	2.5522	-1.7608	-1.839	1.3826	0.5219	-0.0923	-1.3054
589.8438	5.0667	2.3449	2.9049	3.0873	3.8129	3.1379	3.5229	0.8528	0.2404	2.5723	1.09	1.8053	5.6813	6.1551	3.7417	2.7317	2.6139	1.5439	3.5164	4.469	5.6291	3.6779	1.8126	2.5908	-1.8199	-2.0033	1.4024	0.4818	0.0315	-1.1468
593.75	5.2845	2.4521	2.979	3.1934	3.908	3.1764	3.522	0.874	0.1518	2.4744	0.947	1.7033	5.7475	6.2773	3.9678	2.958	2.8807	1.7975	3.7374	4.6585	5.8157	3.8127	1.9591	2.5165	-1.9276	-2.2321	1.2616	0.3456	0.1476	-1.0162
597.6562	5.449	2.5046	3.0159	3.2419	3.9512	3.1898	3.4428	0.8954	0.0615	2.3054	0.7754	1.536	5.6939	6.3162	4.1205	3.1114	3.0921	2.0017	3.9034	4.772	5.9179	3.8934	2.0496	2.3469	-2.0748	-2.5049	0.9806	0.1294	0.2467	-0.9235
601.5625	5.5762	2.5204	3.0286	3.2471	3.9495	3.1807	3.2968	0.9054	-0.0353	2.0759	0.5831	1.3192	5.5415	6.2855	4.2097	3.1997	3.2472	2.155	4.017	4.8189	5.943	3.929	2.0873	2.1042	-2.2517	-2.8029	0.5894	-0.1447	0.3284	-0.8673
605.4688	5.6876	2.528	3.0375	3.2345	3.9194	3.158	3.1042	0.8924	-0.1458	1.8019	0.3775	1.0713	5.321	6.2068	4.2546	3.243	3.354	2.2663	4.0893	4.82	5.9104	3.9338	2.0821	1.8131	-2.447	-3.1086	0.1252	-0.4506	0.3995	-0.8367
609.375	5.804	2.5594	3.0651	3.2352	3.8834	3.135	2.8913	0.8474	-0.2767	1.5044	0.166	0.8116	5.0667	6.1044	4.279	3.2682	3.4266	2.351	4.1364	4.8029	5.8461	3.9252	2.0498	1.4991	-2.6477	-3.4055	-0.3716	-0.7617	0.4716	-0.8149
613.2812	5.94	2.6427	3.1309	3.2783	3.8647	3.1261	2.6853	0.7661	-0.4312	1.2073	-0.0435	0.5582	4.8111	6.0009	4.3062	3.3031	3.4823	2.4277	4.1751	4.7949	5.7777	3.9201	2.0089	1.1869	-2.8393	-3.6777	-0.8608	-1.0536	0.5573	-0.7845
617.1875	6.1007	2.7944	3.2465	3.3845	3.8825	3.144	2.5102	0.6509	-0.6062	0.9355	-0.2416	0.3268	4.5799	5.9129	4.3543	3.3699	3.5386	2.5129	4.22	4.8175	5.7277	3.932	1.9779	0.8995	-3.006	-3.9096	-1.3066	-1.3064	0.6659	-0.7315
621.0938	6.2803	3.015	3.4125	3.5599	3.9473	3.1962	2.3828	0.5113	-0.7914	0.7115	-0.4174	0.1298	4.3894	5.8488	4.4326	3.4805	3.6101	2.6175	4.2806	4.8807	5.7092	3.9682	1.9715	0.6567	-3.1325	-4.0865	-1.6797	-1.5059	0.801	-0.6482
625	6.4623	3.2871	3.6172	3.7939	4.0582	3.2833	2.3115	0.3635	-0.97	0.5533	-0.5587	-0.024	4.2458	5.8082	4.5396	3.633	3.7053	2.7431	4.3589	4.9813	5.7235	4.0288	1.9976	0.4738	-3.2055	-4.1955	-1.9598	-1.644	0.9588	-0.5347
628.9062	6.6221	3.5776	3.8373	4.0598	4.2024	3.3976	2.2952	0.2274	-1.1211	0.4712	-0.6548	-0.1293	4.1467	5.7826	4.663	3.8114	3.8246	2.8811	4.4493	5.1024	5.7596	4.1056	2.0559	0.3608	-3.2166	-4.2277	-2.136	-1.7184	1.1275	-0.3987
632.8125	6.7308	3.8433	4.0411	4.3189	4.3566	3.5239	2.3244	0.1226	-1.2249	0.4664	-0.6982	-0.1853	4.0827	5.7582	4.7815	3.9876	3.9591	3.0134	4.5389	5.2161	5.7968	4.1835	2.137	0.3199	-3.1636	-4.1805	-2.2077	-1.7328	1.2875	-0.2541
636.7188	6.7596	4.0382	4.1925	4.5268	4.4906	3.6409	2.3835	0.0638	-1.2671	0.5298	-0.6879	-0.1954	4.0411	5.7186	4.8686	4.1266	4.0922	3.1155	4.6096	5.2884	5.8085	4.2423	2.224	0.3453	-3.0525	-4.059	-2.1829	-1.6959	1.4135	-0.1201
640.625	6.6846	4.1221	4.2573	4.6418	4.5733	3.7244	2.4542	0.0577	-1.243	0.6441	-0.6296	-0.1663	4.0084	5.6485	4.8978	4.1925	4.2022	3.1616	4.6415	5.2863	5.7686	4.2608	2.2954	0.4236	-2.8974	-3.8764	-2.0764	-1.6197	1.4784	-0.018
644.5312	6.4914	4.0683	4.2099	4.6329	4.5793	3.7527	2.5193	0.1018	-1.1579	0.7872	-0.5349	-0.1061	3.9741	5.5375	4.8483	4.1567	4.2665	3.1307	4.6166	5.1841	5.6573	4.2207	2.3284	0.536	-2.7185	-3.6527	-1.9061	-1.5164	1.4592	0.0322
648.4375	6.1795	3.8697	4.039	4.4868	4.4944	3.711	2.567	0.1864	-1.0254	0.9375	-0.4175	-0.0217	3.9331	5.383	4.7095	4.004	4.2661	3.0118	4.5231	4.9705	5.4664	4.1117	2.3045	0.6627	-2.5393	-3.4117	-1.6892	-1.3959	1.3439	0.0167
652.3438	5.764	3.5403	3.7512	4.2107	4.3203	3.5957	2.5932	0.2979	-0.8632	1.0786	-0.2902	0.0828	3.8871	5.192	4.485	3.7366	4.1894	2.8079	4.3578	4.6516	5.2021	3.9342	2.213	0.7866	-2.3831	-3.1766	-1.4397	-1.2639	1.1367	-0.0685
656.25	5.2749	3.1137	3.3712	3.8322	4.0743	3.4161	2.602	0.422	-0.6887	1.2021	-0.1618	0.2063	3.8442	4.9804	4.1919	3.3752	4.0348	2.5363	4.1281	4.2515	4.8849	3.7012	2.0545	0.897	-2.2685	-2.9668	-1.1672	-1.1212	0.8586	-0.2155
660.1562	4.7541	2.6376	2.9375	3.3948	3.7871	3.1926	2.6034	0.5468	-0.5164	1.3075	-0.0371	0.3489	3.817	4.7703	3.8597	2.9557	3.8123	2.2261	3.8518	3.8092	4.5463	3.4365	1.8412	0.9908	-2.2061	-2.7949	-0.8779	-0.9664	0.5447	-0.405
664.0625	4.2486	2.166	2.4965	2.9501	3.4965	2.9529	2.6099	0.6635	-0.3559	1.4004	0.0828	0.5097	3.8192	4.5867	3.5244	2.5245	3.5434	1.9135	3.5555	3.3731	4.2241	3.1712	1.5963	1.0724	-2.1971	-2.6659	-0.577	-0.7976	0.2368	-0.6102
667.9688	3.8031	1.7514	2.0941	2.5508	3.2415	2.7267	2.6334	0.7666	-0.2123	1.4889	0.1982	0.6847	3.8628	4.4539	3.224	2.1309	3.2584	1.6358	3.2711	2.9938	3.9569	2.9395	1.3499	1.1507	-2.2325	-2.5769	-0.2713	-0.6157	-0.0247	-0.8018
671.875	3.4533	1.4371	1.7691	2.2418	3.0557	2.541	2.6822	0.8531	-0.0875	1.5804	0.3093	0.8661	3.9559	4.392	2.9918	1.8206	2.9925	1.4248	3.0323	2.7168	3.7782	2.7734	1.1347	1.2367	-2.2955	-2.5195	0.0297	-0.4256	-0.2087	-0.9538
675.7812	3.2202	1.2516	1.5478	2.0549	2.9624	2.4159	2.7598	0.922	0.0187	1.6793	0.4147	1.0429	4.1006	4.4141	2.8509	1.6287	2.7792	1.3024	2.8691	2.5758	3.712	2.6976	0.9803	1.3391	-2.3647	-2.4817	0.3128	-0.2363	-0.2985	-1.0481
679.6875	3.1078	1.2056	1.4402	2.0038	2.9715	2.362	2.8643	0.9727	0.1062	1.7855	0.5109	1.2021	4.2921	4.5238	2.8108	1.5741	2.6438	1.2758	2.8026	2.5868	3.7684	2.7255	0.9075	1.4613	-2.4192	-2.4514	0.5623	-0.0597	-0.2945	-1.0778
683.5938	3.1039	1.2909	1.4407	2.0831	3.0781	2.3797	2.9892	1.0053	0.1744	1.8944	0.5921	1.331	4.5185	4.7139	2.8653	1.6566	2.5979	1.3374	2.8408	2.745	3.9417	2.8565	0.9253	1.5992	-2.4431	-2.4197	0.7615	0.0907	-0.2125	-1.0473
687.5	3.1833	1.483	1.5298	2.2701	3.2641	2.46	3.1237	1.0203	0.2213	1.9977	0.6516	1.4194	4.7616	4.9665	2.9945	1.8569	2.6377	1.466	2.9771	3.0255	4.2106	3.0756	1.0287	1.7412	-2.4281	-2.3823	0.8956	0.2025	-0.0803	-0.9715
691.4062	3.3131	1.7451	1.6794	2.5282	3.501	2.5867	3.255	1.0198	0.2447	2.0858	0.6835	1.4616	4.9987	5.255	3.1685	2.1405	2.7458	1.6317	3.1909	3.3868	4.5409	3.3555	1.2	1.8704	-2.3749	-2.3403	0.9536	0.2669	0.0697	-0.8716
695.3125	3.4579	2.0341	1.8577	2.8137	3.7542	2.7397	3.3687	1.0072	0.2427	2.1486	0.6841	1.457	5.2053	5.5465	3.3528	2.4624	2.8953	1.8023	3.4519	3.7768	4.8899	3.6609	1.4126	1.9679	-2.2917	-2.2992	0.931	0.2797	0.2065	-0.7703
699.2188	3.5849	2.3068	2.0348	3.0809	3.9877	2.897	3.4503	0.9862	0.2141	2.1761	0.6518	1.4097	5.3574	5.8057	3.5134	2.7742	3.0547	1.9495	3.7237	4.1402	5.2123	3.953	1.6355	2.017	-2.1923	-2.2672	0.8298	0.2421	0.3075	-0.6875
703.125	3.6681	2.5244	2.186	3.2885	4.168	3.0373	3.4854	0.9597	0.1574	2.1592	0.5868	1.3264	5.4334	5.9987	3.6218	3.0295	3.1929	2.0533	3.969	4.4249	5.4649	4.1953	1.8378	2.0054	-2.0931	-2.2539	0.6583	0.1589	0.362	-0.6357
707.0312	3.6902	2.6571	2.2944	3.4037	4.2675	3.1409	3.4602	0.9271	0.071	2.0886	0.4895	1.2138	5.4162	6.096	3.6573	3.1891	3.2826	2.1039	4.1536	4.588	5.6121	4.3573	1.9927	1.9277	-2.0107	-2.2683	0.429	0.0374	0.3716	-0.6177
710.9375	3.6444	2.6865	2.351	3.4055	4.2666	3.1917	3.3625	0.8842	-0.048	1.9554	0.3594	1.077	5.2945	6.0762	3.6092	3.2247	3.3038	2.1011	4.2503	4.5998	5.6285	4.4174	2.0801	1.7854	-1.9595	-2.317	0.1574	-0.1152	0.3484	-0.6263
714.8438	3.5343	2.6067	2.3543	3.2865	4.1559	3.1777	3.1836	0.8229	-0.2022	1.7531	0.1956	0.9194	5.0643	5.9275	3.4768	3.1221	3.2455	2.0511	4.2407	4.4465	5.5019	4.3648	2.0878	1.5868	-1.9497	-2.4024	-0.1397	-0.291	0.3105	-0.6474
718.75	3.3717	2.4238	2.3088	3.0529	3.9361	3.0929	2.9207	0.7343	-0.3926	1.4792	-0.0014	0.7439	4.7296	5.6503	3.2683	2.8815	3.1061	1.9636	4.1171	4.1312	5.2336	4.1994	2.012	1.3461	-1.9855	-2.5212	-0.444	-0.4819	0.2774	-0.6634
722.6562	3.1736	2.154	2.2229	2.7232	3.618	2.9382	2.579	0.6112	-0.6165	1.1388	-0.2275	0.5551	4.3037	5.2566	2.9985	2.5174	2.8926	1.8477	3.882	3.6724	4.8378	3.9312	1.8564	1.0812	-2.0644	-2.6632	-0.7361	-0.6773	0.2647	-0.6593
726.5625	2.9573	1.8206	2.1074	2.3246	3.2214	2.7216	2.1741	0.4511	-0.8656	0.747	-0.4724	0.3615	3.8097	4.7704	2.6856	2.0555	2.6171	1.7095	3.5478	3.1021	4.3403	3.5784	1.6313	0.813	-2.1767	-2.8118	-0.995	-0.8637	0.28	-0.6268
730.4688	2.7363	1.4499	1.9736	1.8894	2.7731	2.4582	1.7323	0.2589	-1.1255	0.3295	-0.7191	0.177	3.2794	4.2252	2.3482	1.5295	2.295	1.5516	3.1357	2.4611	3.7756	3.1666	1.3524	0.5638	-2.3072	-2.9457	-1.1988	-1.024	0.3219	-0.567
734.375	2.5176	1.0681	1.8317	1.4503	2.3048	2.1692	1.2895	0.0471	-1.3757	-0.0776	-0.9439	0.0205	2.7527	3.6622	2.0031	0.9765	1.9418	1.3743	2.6735	1.7946	3.1845	2.7266	1.0405	0.3563	-2.436	-3.0417	-1.3253	-1.1388	0.3802	-0.4903
738.2812	2.3008	0.6981	1.6901	1.0373	1.8502	1.8795	0.888	-0.1655	-1.5926	-0.4319	-1.12	-0.0862	2.2741	3.1264	1.6647	0.433	1.5726	1.1774	2.1938	1.1477	2.6099	2.2927	0.7196	0.212	-2.5423	-3.0786	-1.3545	-1.189	0.4387	-0.4138
742.1875	2.0804	0.3583	1.555	0.6744	1.4419	1.6143	0.571	-0.3564	-1.7526	-0.6898	-1.2217	-0.1228	1.8888	2.6621	1.3451	-0.068	1.2024	0.963	1.731	0.5612	2.0934	1.8998	0.4159	0.1499	-2.6067	-3.0417	-1.2714	-1.1595	0.4796	-0.356
746.0938	1.8506	0.0623	1.4308	0.3789	1.1083	1.3965	0.3763	-0.5037	-1.836	-0.814	-1.2295	-0.0744	1.6369	2.3088	1.0558	-0.4992	0.8472	0.7383	1.3183	0.0689	1.6716	1.58	0.1547	0.1833	-2.6151	-2.9255	-1.0696	-1.0428	0.4883	-0.3321
750	1.6105	-0.1798	1.3217	0.1611	0.8708	1.2428	0.3299	-0.5897	-1.8308	-0.7797	-1.1338	0.0649	1.5484	2.0965	0.8097	-0.8396	0.5257	0.5161	0.985	-0.3043	1.373	1.3594	-0.0414	0.3185	-2.5607	-2.7352	-0.7528	-0.8411	0.4575	-0.3486
753.9062	1.368	-0.3605	1.2327	0.0252	0.7419	1.1625	0.4411	-0.6034	-1.7343	-0.5798	-0.9373	0.2906	1.6381	2.0419	0.6208	-1.0748	0.2592	0.3149	0.7536	-0.543	1.2155	1.2547	-0.1557	0.552	-2.4448	-2.4855	-0.3367	-0.5664	0.3899	-0.4016
757.8125	1.1417	-0.4745	1.1697	-0.0301	0.7227	1.1554	0.6996	-0.5432	-1.5541	-0.2282	-0.6552	0.5871	1.9016	2.1457	0.5036	-1.1977	0.0694	0.1551	0.6373	-0.6425	1.2042	1.2709	-0.1789	0.8703	-2.2767	-2.1976	0.1517	-0.2395	0.2974	-0.4778
761.7188	0.9568	-0.5196	1.1385	-0.012	0.8024	1.2116	1.0747	-0.4173	-1.3084	0.24	-0.3141	0.9293	2.3132	2.3909	0.4691	-1.2103	-0.0264	0.0546	0.6374	-0.6102	1.3297	1.3995	-0.1113	1.2484	-2.0727	-1.8967	0.6755	0.1122	0.1977	-0.5586
765.625	0.8395	-0.4998	1.1416	0.0649	0.9572	1.3112	1.5175	-0.2444	-1.0248	0.7713	0.0499	1.2839	2.826	2.7429	0.5201	-1.1255	-0.0208	0.0237	0.7413	-0.4662	1.5677	1.6177	0.0356	1.6515	-1.854	-1.609	1.19	0.4568	0.1084	-0.6256
769.5312	0.8096	-0.4272	1.1758	0.178	1.152	1.4261	1.9663	-0.0516	-0.7383	1.2995	0.3948	1.6124	3.3764	3.1525	0.6479	-0.9678	0.0802	0.061	0.9237	-0.2428	1.8802	1.8912	0.2405	2.0375	-1.6441	-1.3599	1.6472	0.7607	0.0422	-0.6662
773.4375	0.8755	-0.3223	1.2304	0.2983	1.3445	1.5234	2.3554	0.1286	-0.4872	1.7552	0.6779	1.8754	3.8928	3.5626	0.8323	-0.7713	0.2565	0.1524	1.1495	0.0188	2.2207	2.178	0.4742	2.3618	-1.4665	-1.172	2.0014	0.9922	0.0022	-0.6762
777.3438	1.0326	-0.2117	1.2888	0.3938	1.4924	1.5704	2.626	0.2639	-0.3072	2.0769	0.862	2.0385	4.3067	3.917	1.0444	-0.5747	0.4776	0.2744	1.38	0.2747	2.5416	2.4363	0.7046	2.585	-1.3406	-1.0626	2.216	1.1253	-0.0183	-0.6608
781.25	1.2657	-0.1223	1.3324	0.4358	1.5608	1.5412	2.7368	0.3289	-0.2247	2.2224	0.9225	2.0785	4.5665	4.1713	1.2533	-0.4141	0.7095	0.399	1.5803	0.486	2.8029	2.6317	0.9035	2.6798	-1.2788	-1.0408	2.27	1.1446	-0.0333	-0.6319
785.1562	1.5531	-0.0755	1.3452	0.4055	1.5298	1.4218	2.6723	0.3101	-0.2513	2.1775	0.8523	1.9887	4.6474	4.3011	1.4337	-0.315	0.923	0.5015	1.7261	0.6268	2.98	2.7445	1.0521	2.6376	-1.284	-1.1053	2.1633	1.0487	-0.0592	-0.604
789.0625	1.872	-0.0807	1.3193	0.2988	1.3987	1.2139	2.4463	0.2095	-0.3797	1.9587	0.6642	1.7817	4.5577	4.3077	1.5715	-0.2869	1.0998	0.5669	1.8088	0.6891	3.0684	2.773	1.1448	2.4713	-1.3484	-1.2436	1.9179	0.8519	-0.1082	-0.5885
792.9688	2.2031	-0.1335	1.2573	0.1281	1.187	0.9357	2.0996	0.0444	-0.5854	1.6114	0.3897	1.4887	4.337	4.2168	1.6671	-0.3212	1.2365	0.5933	1.8358	0.6842	3.0835	2.7335	1.19	2.2136	-1.4551	-1.4328	1.5752	0.5833	-0.1837	-0.5907
796.875	2.5322	-0.2167	1.1721	-0.0798	0.9295	0.6184	1.6914	-0.1558	-0.8306	1.1998	0.0735	1.154	4.0472	4.0725	1.7335	-0.3943	1.3432	0.5911	1.8278	0.6386	3.0561	2.6554	1.2064	1.9113	-1.5816	-1.6436	1.1888	0.2821	-0.2791	-0.6076
