time	FP1	F3	F7	FC3	C3	C5	P3	P7	PO7	PO3	O1	Oz	Pz	CPz	FP2	Fz	F4	F8	FC4	FCz	Cz	C4	C6	P4	P8	PO8	PO4	O2	HEOG_left	HEOG_right
-199.2188	0.9083	0.9671	0.9096	1.2463	1.4191	0.9283	0.3628	0.3521	0.3287	0.1365	-0.0964	0.5625	-0.1978	0.8366	0.2093	0.8767	1.3674	0.5335	1.7103	1.3959	1.3836	1.9472	1.5929	0.0873	0.3785	0.3844	-0.2091	0.1079	0.1338	0.1494
-195.3125	0.7419	0.9317	0.9236	1.2372	1.3618	1.0234	0.5517	0.6093	0.4005	0.2586	-0.1556	0.3767	-0.1966	0.7463	0.2722	0.8419	1.1192	0.3835	1.3742	1.3021	1.3322	1.5191	1.4475	0.085	0.4079	0.2507	-0.3462	-0.0144	0.1735	0.0617
-191.4062	0.5805	0.8812	0.9328	1.214	1.2926	1.0977	0.7243	0.8365	0.4715	0.3784	-0.1948	0.2212	-0.1933	0.6487	0.3182	0.789	0.8723	0.2415	1.0482	1.1903	1.2607	1.1214	1.313	0.0842	0.4249	0.1384	-0.4598	-0.1099	0.2086	-0.018
-187.5	0.4278	0.8029	0.9306	1.1627	1.1991	1.1298	0.8625	1.0054	0.5367	0.4899	-0.2015	0.1176	-0.188	0.5374	0.3336	0.7038	0.6271	0.1135	0.7404	1.0466	1.1524	0.7776	1.194	0.0874	0.4285	0.0654	-0.5293	-0.1597	0.2315	-0.0861
-183.5938	0.2848	0.6886	0.9111	1.0734	1.0729	1.1049	0.9542	1.0976	0.5917	0.5878	-0.1683	0.0786	-0.1799	0.4097	0.3113	0.5813	0.3893	0.0062	0.4614	0.8655	0.9988	0.503	1.0928	0.0985	0.4266	0.0445	-0.5382	-0.1515	0.2363	-0.1409
-179.6875	0.1504	0.5366	0.8698	0.9415	0.9111	1.0165	0.9933	1.1067	0.6325	0.6674	-0.094	0.1061	-0.168	0.2675	0.2513	0.4259	0.1693	-0.0751	0.2229	0.6516	0.8008	0.3025	1.0093	0.1215	0.4332	0.0813	-0.4776	-0.0818	0.22	-0.1826
-175.7812	0.024	0.3529	0.8036	0.7689	0.7166	0.8669	0.9795	1.0374	0.6547	0.7239	0.0149	0.1914	-0.1524	0.116	0.1605	0.2511	-0.021	-0.1277	0.0352	0.418	0.5687	0.1715	0.9402	0.1591	0.4628	0.1729	-0.3481	0.0427	0.1828	-0.2128
-171.875	-0.0925	0.1516	0.7116	0.5643	0.4975	0.6659	0.9163	0.9026	0.653	0.7516	0.1447	0.3167	-0.1347	-0.0373	0.0503	0.0753	-0.1709	-0.1536	-0.0962	0.1831	0.3193	0.0975	0.8797	0.2113	0.523	0.3083	-0.1606	0.206	0.1271	-0.2338
-167.9688	-0.1937	-0.0477	0.5953	0.3413	0.2657	0.4294	0.8096	0.7204	0.6216	0.7445	0.2759	0.4588	-0.1188	-0.1842	-0.0656	-0.0817	-0.2742	-0.1598	-0.1723	-0.0333	0.0733	0.0642	0.8209	0.2738	0.61	0.469	0.0646	0.3852	0.0573	-0.2477
-164.0625	-0.2709	-0.2228	0.4591	0.1174	0.0361	0.1767	0.6661	0.5097	0.555	0.697	0.3869	0.5933	-0.1103	-0.3169	-0.1739	-0.2032	-0.3298	-0.1558	-0.2005	-0.214	-0.1487	0.0566	0.7578	0.3392	0.7083	0.6323	0.3005	0.5548	-0.021	-0.2557
-160.1562	-0.3136	-0.3533	0.3098	-0.0897	-0.1755	-0.071	0.4936	0.2886	0.4503	0.6056	0.4581	0.6985	-0.1147	-0.4284	-0.2625	-0.2786	-0.3412	-0.1505	-0.1931	-0.3475	-0.3292	0.0638	0.687	0.3976	0.7932	0.7748	0.518	0.6909	-0.1015	-0.2574
-156.25	-0.313	-0.4248	0.1563	-0.2638	-0.3534	-0.2929	0.3016	0.0732	0.3095	0.472	0.4772	0.7591	-0.1358	-0.5128	-0.3214	-0.3044	-0.3149	-0.1482	-0.1644	-0.4287	-0.4557	0.0812	0.609	0.4382	0.8375	0.8758	0.6905	0.7756	-0.1772	-0.2513
-152.3438	-0.265	-0.4317	0.0088	-0.3924	-0.4836	-0.4698	0.1026	-0.1225	0.1412	0.3044	0.442	0.7686	-0.1733	-0.5651	-0.3436	-0.2837	-0.259	-0.1468	-0.1269	-0.4588	-0.5214	0.1097	0.5288	0.4525	0.8176	0.921	0.7987	0.8	-0.2398	-0.2344
-148.4375	-0.1729	-0.378	-0.1229	-0.4678	-0.5557	-0.586	-0.0872	-0.2861	-0.039	0.1183	0.3622	0.7299	-0.2221	-0.5813	-0.3253	-0.2252	-0.182	-0.1387	-0.0894	-0.4433	-0.5253	0.153	0.4546	0.4354	0.7203	0.9046	0.8337	0.7647	-0.2805	-0.2038
-144.5312	-0.0487	-0.2765	-0.2304	-0.488	-0.5638	-0.6316	-0.249	-0.407	-0.2105	-0.0648	0.2569	0.6538	-0.2723	-0.5588	-0.2671	-0.1401	-0.0929	-0.1147	-0.0559	-0.3907	-0.4716	0.2142	0.3952	0.3873	0.5467	0.8294	0.7979	0.6785	-0.2913	-0.1575
-140.625	0.0884	-0.1464	-0.3082	-0.4563	-0.5088	-0.6043	-0.3638	-0.4767	-0.3505	-0.2207	0.1497	0.5549	-0.3113	-0.4974	-0.1749	-0.0413	-0.0015	-0.0688	-0.0271	-0.3102	-0.3687	0.2921	0.3564	0.3134	0.3129	0.705	0.7038	0.555	-0.2671	-0.0962
-136.7188	0.2158	-0.0094	-0.3541	-0.3811	-0.3982	-0.5104	-0.4163	-0.4904	-0.4392	-0.3278	0.0631	0.4481	-0.3274	-0.4004	-0.0594	0.0593	0.0807	-0.0019	-0.0019	-0.2114	-0.2283	0.3794	0.3373	0.2231	0.0477	0.5459	0.57	0.4085	-0.2082	-0.0247
-132.8125	0.3128	0.1149	-0.3694	-0.2742	-0.2455	-0.3643	-0.3987	-0.4474	-0.4635	-0.3717	0.0129	0.3445	-0.3132	-0.275	0.0641	0.1512	0.1423	0.0768	0.0202	-0.1032	-0.0643	0.4627	0.3282	0.127	-0.2134	0.3677	0.4173	0.252	-0.1225	0.0479
-128.9062	0.3653	0.2124	-0.358	-0.1493	-0.0686	-0.1866	-0.3131	-0.3524	-0.4204	-0.3486	0.0049	0.2493	-0.2676	-0.1328	0.1772	0.2272	0.1736	0.1522	0.0384	0.0062	0.108	0.5254	0.3127	0.0346	-0.4355	0.1849	0.2634	0.0951	-0.0245	0.109
-125	0.3681	0.2764	-0.3255	-0.0198	0.1133	-0.0007	-0.1724	-0.2157	-0.3182	-0.2668	0.034	0.1623	-0.1968	0.0121	0.2605	0.283	0.1696	0.2081	0.0509	0.1101	0.2731	0.552	0.2714	-0.0474	-0.5916	0.0092	0.1209	-0.0552	0.0668	0.1452
-121.0938	0.3246	0.3078	-0.2792	0.1018	0.2822	0.171	0.002	-0.0526	-0.1749	-0.1444	0.0862	0.0797	-0.1121	0.1448	0.2972	0.3175	0.1317	0.2323	0.0555	0.2025	0.4169	0.5323	0.189	-0.1162	-0.6675	-0.151	-0.0037	-0.1938	0.132	0.1454
-117.1875	0.2435	0.3125	-0.2269	0.2056	0.4235	0.3098	0.1839	0.1182	-0.0146	-0.0054	0.1424	-0.0028	-0.0266	0.2524	0.2763	0.3317	0.0683	0.2204	0.0518	0.2793	0.528	0.4645	0.06	-0.1722	-0.6631	-0.2898	-0.1089	-0.3154	0.1556	0.1036
-113.2812	0.1361	0.2987	-0.1774	0.2834	0.5262	0.4033	0.3467	0.2767	0.1382	0.1259	0.1842	-0.0867	0.0481	0.3262	0.1965	0.3278	-0.0077	0.1757	0.0406	0.337	0.5984	0.3563	-0.1093	-0.2171	-0.5916	-0.4027	-0.1957	-0.4141	0.1298	0.0214
-109.375	0.0136	0.2731	-0.1393	0.3295	0.5839	0.4459	0.4683	0.4045	0.2627	0.2295	0.198	-0.1699	0.1052	0.3631	0.0669	0.3078	-0.0816	0.1077	0.0248	0.3731	0.6245	0.2234	-0.3014	-0.252	-0.4744	-0.4855	-0.2651	-0.483	0.0558	-0.0917
-105.4688	-0.1133	0.2398	-0.1205	0.3404	0.5942	0.4384	0.5344	0.487	0.3453	0.2932	0.1786	-0.2461	0.1441	0.366	-0.093	0.2731	-0.1405	0.029	0.0081	0.3852	0.6072	0.0861	-0.4927	-0.276	-0.3357	-0.5339	-0.3162	-0.5151	-0.0564	-0.2196
-101.5625	-0.234	0.1996	-0.126	0.3159	0.5589	0.3874	0.5402	0.5153	0.381	0.3135	0.1291	-0.3069	0.1694	0.3428	-0.2566	0.2242	-0.1758	-0.0471	-0.0053	0.372	0.5515	-0.0348	-0.6591	-0.2851	-0.1962	-0.5437	-0.3452	-0.5049	-0.1899	-0.342
-97.6562	-0.3376	0.1521	-0.1564	0.2599	0.4841	0.3041	0.4902	0.4876	0.372	0.2941	0.0591	-0.3435	0.1897	0.3045	-0.3951	0.1623	-0.1848	-0.1091	-0.0115	0.3334	0.4658	-0.122	-0.7817	-0.2732	-0.0691	-0.5113	-0.3459	-0.4497	-0.3238	-0.4384
-93.75	-0.4127	0.0974	-0.2064	0.1814	0.3797	0.2028	0.3959	0.4088	0.3253	0.2435	-0.0186	-0.3495	0.214	0.2628	-0.483	0.0902	-0.1704	-0.1478	-0.0071	0.2721	0.3607	-0.1649	-0.8499	-0.2338	0.0402	-0.4351	-0.3114	-0.351	-0.437	-0.4917
-89.8438	-0.4482	0.038	-0.2646	0.0934	0.259	0.0989	0.2735	0.2899	0.251	0.1725	-0.0918	-0.3228	0.2489	0.2278	-0.5033	0.0129	-0.1394	-0.1579	0.0101	0.1933	0.2479	-0.1617	-0.8635	-0.163	0.1326	-0.3174	-0.2366	-0.2148	-0.5117	-0.4914
-85.9375	-0.4358	-0.0208	-0.3159	0.0108	0.1362	0.0069	0.1397	0.1467	0.1595	0.0915	-0.1517	-0.2665	0.2965	0.2055	-0.4514	-0.0628	-0.1001	-0.1385	0.041	0.1053	0.1383	-0.1191	-0.8307	-0.0617	0.2105	-0.1654	-0.1208	-0.0518	-0.5368	-0.4357
-82.0312	-0.3731	-0.0728	-0.3457	-0.053	0.0238	-0.0624	0.0091	-0.003	0.0608	0.0096	-0.1938	-0.189	0.3537	0.1968	-0.3363	-0.1297	-0.0605	-0.0945	0.0842	0.017	0.0404	-0.0516	-0.7668	0.0627	0.2747	0.0078	0.0294	0.1231	-0.5104	-0.3325
-78.125	-0.2669	-0.1132	-0.3444	-0.0898	-0.0694	-0.104	-0.1078	-0.1416	-0.0368	-0.0666	-0.218	-0.1025	0.4119	0.1976	-0.1786	-0.1825	-0.0265	-0.0364	0.1351	-0.0634	-0.0408	0.0219	-0.6905	0.1959	0.3219	0.1835	0.2002	0.2926	-0.4398	-0.1981
-74.2188	-0.1339	-0.1406	-0.3109	-0.0993	-0.1404	-0.1196	-0.205	-0.2548	-0.127	-0.1325	-0.227	-0.021	0.4602	0.1999	-0.0059	-0.2197	-0.0022	0.0206	0.1858	-0.1311	-0.1049	0.0807	-0.6205	0.3191	0.3448	0.3394	0.3713	0.4382	-0.3399	-0.0539
-70.3125	0.0001	-0.1581	-0.2532	-0.0888	-0.1918	-0.1171	-0.2811	-0.3337	-0.2059	-0.185	-0.2251	0.0426	0.4874	0.1945	0.1528	-0.2437	0.0096	0.0599	0.2259	-0.1849	-0.1554	0.1072	-0.5724	0.4124	0.3349	0.454	0.5192	0.5433	-0.2284	0.0779
-66.4062	0.1062	-0.1721	-0.1864	-0.0714	-0.2304	-0.1085	-0.3375	-0.377	-0.2722	-0.2231	-0.2168	0.0787	0.4858	0.1733	0.2725	-0.2606	0.0064	0.0687	0.2432	-0.2278	-0.1988	0.0897	-0.5547	0.4592	0.2865	0.5108	0.6224	0.5959	-0.1222	0.1796
-62.5	0.1584	-0.1909	-0.1285	-0.0621	-0.2652	-0.1076	-0.3778	-0.3903	-0.3258	-0.2469	-0.2058	0.0831	0.4528	0.1322	0.3363	-0.2779	-0.014	0.0407	0.2267	-0.2654	-0.2426	0.0249	-0.568	0.4501	0.1988	0.502	0.6656	0.5912	-0.0334	0.2407
-58.5938	0.1416	-0.2215	-0.095	-0.0744	-0.3051	-0.1266	-0.4063	-0.3847	-0.3676	-0.258	-0.1933	0.0573	0.392	0.0715	0.3378	-0.3025	-0.0536	-0.0211	0.1685	-0.3038	-0.2932	-0.0824	-0.6043	0.3848	0.0778	0.4311	0.6432	0.5325	0.0317	0.2598
-54.6875	0.0563	-0.2673	-0.0951	-0.1162	-0.3567	-0.1741	-0.4275	-0.3738	-0.3982	-0.2594	-0.1787	0.0079	0.3117	-0.0038	0.2817	-0.3381	-0.1122	-0.106	0.066	-0.3477	-0.3547	-0.2209	-0.6504	0.2719	-0.0649	0.3109	0.5598	0.4305	0.0727	0.2434
-50.7812	-0.0802	-0.3268	-0.1296	-0.1882	-0.4229	-0.2525	-0.4455	-0.3697	-0.4175	-0.2551	-0.1594	-0.0554	0.223	-0.0858	0.1828	-0.3838	-0.1864	-0.1985	-0.076	-0.3983	-0.4271	-0.3759	-0.6908	0.1272	-0.2141	0.1606	0.4285	0.3004	0.0934	0.2039
-46.875	-0.2367	-0.3935	-0.1907	-0.2837	-0.5019	-0.3577	-0.4636	-0.3806	-0.4246	-0.2498	-0.1327	-0.1227	0.1371	-0.165	0.0625	-0.434	-0.269	-0.2817	-0.2453	-0.4525	-0.5064	-0.5317	-0.7118	-0.0304	-0.3538	0.0002	0.2677	0.1584	0.1	0.1562
-42.9688	-0.376	-0.457	-0.2651	-0.3907	-0.5874	-0.479	-0.4841	-0.4089	-0.4189	-0.2479	-0.0968	-0.1868	0.0628	-0.2328	-0.056	-0.4796	-0.3496	-0.341	-0.4236	-0.5038	-0.5851	-0.6742	-0.7048	-0.1826	-0.4706	-0.1538	0.0961	0.0172	0.0993	0.1145
-39.0625	-0.4645	-0.5059	-0.3371	-0.4951	-0.6702	-0.6008	-0.5084	-0.4515	-0.4009	-0.2536	-0.053	-0.2443	0.0046	-0.2831	-0.1525	-0.5107	-0.4165	-0.366	-0.5895	-0.5441	-0.6548	-0.7922	-0.6679	-0.3153	-0.5566	-0.2926	-0.0708	-0.1165	0.098	0.0901
-35.1562	-0.4817	-0.5305	-0.3931	-0.5848	-0.7405	-0.7056	-0.5371	-0.5016	-0.3731	-0.2702	-0.0061	-0.2968	-0.0375	-0.3137	-0.2143	-0.5195	-0.4591	-0.3517	-0.723	-0.5669	-0.7087	-0.8794	-0.6064	-0.4205	-0.6121	-0.4153	-0.2236	-0.2425	0.1016	0.0895
-31.25	-0.4258	-0.5254	-0.424	-0.6521	-0.7901	-0.7767	-0.57	-0.5504	-0.3402	-0.2999	0.0356	-0.3498	-0.068	-0.327	-0.2368	-0.5027	-0.4707	-0.2991	-0.8093	-0.5698	-0.7434	-0.9346	-0.5313	-0.4977	-0.6453	-0.5277	-0.359	-0.3657	0.1151	0.1144
-27.3438	-0.3137	-0.4907	-0.4262	-0.695	-0.8142	-0.8021	-0.6075	-0.5903	-0.3081	-0.3439	0.0628	-0.4105	-0.0938	-0.3285	-0.2231	-0.4629	-0.4504	-0.2136	-0.8425	-0.556	-0.7608	-0.9616	-0.4571	-0.5518	-0.6709	-0.6382	-0.4789	-0.4919	0.1419	0.1624
-23.4375	-0.1753	-0.4324	-0.4015	-0.7175	-0.8123	-0.7773	-0.6498	-0.6161	-0.2834	-0.4024	0.0667	-0.4856	-0.1223	-0.3253	-0.1803	-0.408	-0.4029	-0.1038	-0.8257	-0.5337	-0.7674	-0.9679	-0.3977	-0.5911	-0.7068	-0.754	-0.5872	-0.6246	0.1841	0.2283
-19.5312	-0.0442	-0.3605	-0.3551	-0.727	-0.788	-0.7063	-0.6981	-0.6267	-0.2717	-0.4749	0.0413	-0.5794	-0.1588	-0.3242	-0.1164	-0.3492	-0.3374	0.02	-0.77	-0.5146	-0.7725	-0.9623	-0.3631	-0.6242	-0.7693	-0.8776	-0.6876	-0.7621	0.2409	0.3056
-15.625	0.0521	-0.2872	-0.2943	-0.7327	-0.7479	-0.6015	-0.7546	-0.6253	-0.2775	-0.5614	-0.017	-0.6928	-0.2058	-0.33	-0.0374	-0.2983	-0.2645	0.147	-0.691	-0.5102	-0.7865	-0.9531	-0.3566	-0.6574	-0.8674	-1.0046	-0.7806	-0.897	0.3086	0.3882
-11.7188	0.1001	-0.2239	-0.226	-0.7427	-0.7006	-0.4816	-0.822	-0.6186	-0.304	-0.662	-0.1094	-0.824	-0.2622	-0.344	0.0536	-0.2641	-0.1933	0.2662	-0.6047	-0.5291	-0.8178	-0.9459	-0.3746	-0.6928	-0.999	-1.1247	-0.8637	-1.018	0.3808	0.4704
-7.8125	0.1036	-0.1788	-0.1554	-0.7617	-0.6537	-0.3674	-0.9032	-0.6144	-0.3529	-0.7775	-0.235	-0.9686	-0.3238	-0.3648	0.1557	-0.251	-0.1298	0.3676	-0.5247	-0.5746	-0.8711	-0.9427	-0.4077	-0.7286	-1.1491	-1.2237	-0.9315	-1.1128	0.4495	0.5486
-3.9062	0.0822	-0.1553	-0.0848	-0.7907	-0.6128	-0.2772	-0.9993	-0.6195	-0.4232	-0.9074	-0.3898	-1.1217	-0.3845	-0.3882	0.2685	-0.2576	-0.076	0.4437	-0.4603	-0.6438	-0.9461	-0.9429	-0.4434	-0.7594	-1.2923	-1.2879	-0.9775	-1.1723	0.5077	0.6205
0	0.0645	-0.151	-0.0139	-0.8263	-0.5798	-0.2228	-1.1085	-0.6366	-0.5109	-1.0489	-0.5662	-1.2779	-0.4377	-0.4091	0.3904	-0.2783	-0.0323	0.4911	-0.417	-0.7281	-1.0372	-0.9446	-0.4699	-0.7786	-1.3993	-1.3076	-0.9964	-1.1934	0.5505	0.6856
3.9062	0.0786	-0.1599	0.0585	-0.8626	-0.5532	-0.2074	-1.2255	-0.6631	-0.6078	-1.1962	-0.7518	-1.4328	-0.4777	-0.4227	0.5183	-0.3051	0.0007	0.5119	-0.3982	-0.8162	-1.1355	-0.9474	-0.4798	-0.7809	-1.4453	-1.2816	-0.9866	-1.1807	0.5767	0.7437
7.8125	0.1429	-0.1751	0.1321	-0.8936	-0.5297	-0.2265	-1.3421	-0.691	-0.7027	-1.3401	-0.9306	-1.5825	-0.5013	-0.4271	0.6464	-0.3312	0.0191	0.5124	-0.4081	-0.897	-1.2313	-0.9551	-0.4726	-0.7648	-1.4182	-1.2182	-0.9518	-1.1455	0.5879	0.794
11.7188	0.2585	-0.1914	0.2032	-0.9158	-0.5066	-0.2701	-1.4485	-0.7086	-0.7829	-1.4699	-1.0857	-1.7236	-0.5089	-0.4237	0.7661	-0.353	0.0156	0.5015	-0.4521	-0.9632	-1.3164	-0.9764	-0.4552	-0.7344	-1.323	-1.1342	-0.9016	-1.1031	0.5876	0.8335
15.625	0.409	-0.2078	0.2653	-0.9293	-0.483	-0.3267	-1.5358	-0.704	-0.8368	-1.5756	-1.2023	-1.8519	-0.5045	-0.4181	0.8669	-0.3711	-0.0186	0.4882	-0.5365	-1.0124	-1.3861	-1.0235	-0.44	-0.6989	-1.1809	-1.0519	-0.8498	-1.0686	0.5801	0.858
19.5312	0.565	-0.2263	0.3112	-0.9375	-0.4609	-0.3853	-1.5972	-0.6677	-0.8566	-1.6498	-1.2714	-1.9618	-0.4949	-0.4177	0.938	-0.389	-0.0899	0.4799	-0.6652	-1.0475	-1.4394	-1.1082	-0.4405	-0.6707	-1.024	-0.9935	-0.8113	-1.0531	0.5706	0.8637
23.4375	0.6942	-0.2501	0.3372	-0.9449	-0.4436	-0.4364	-1.6295	-0.5949	-0.8397	-1.6891	-1.2917	-2.0474	-0.4881	-0.4305	0.9712	-0.4104	-0.1986	0.4824	-0.8359	-1.0737	-1.478	-1.2373	-0.4663	-0.6617	-0.8866	-0.9753	-0.7983	-1.0609	0.5652	0.8499
27.3438	0.7714	-0.2804	0.3453	-0.9546	-0.4344	-0.4725	-1.6328	-0.4872	-0.7889	-1.6941	-1.2697	-2.1029	-0.4911	-0.4618	0.9646	-0.4367	-0.3357	0.5	-1.0377	-1.0966	-1.5043	-1.4076	-0.5195	-0.6801	-0.7954	-1.004	-0.8166	-1.089	0.5719	0.8211
31.25	0.7862	-0.3143	0.3433	-0.9662	-0.4343	-0.4879	-1.6105	-0.3524	-0.712	-1.669	-1.2179	-2.1255	-0.5093	-0.5131	0.9247	-0.4655	-0.4832	0.5359	-1.2504	-1.1189	-1.5206	-1.6046	-0.5931	-0.7271	-0.7627	-1.0738	-0.8634	-1.1278	0.5995	0.7872
35.1562	0.746	-0.345	0.3424	-0.9765	-0.4417	-0.4788	-1.5683	-0.2029	-0.6203	-1.6206	-1.1526	-2.1165	-0.545	-0.5819	0.866	-0.4909	-0.6173	0.5913	-1.4473	-1.1408	-1.5276	-1.804	-0.673	-0.7966	-0.7837	-1.1674	-0.9271	-1.1637	0.6551	0.7614
39.0625	0.6731	-0.3643	0.3525	-0.9806	-0.4528	-0.4444	-1.5131	-0.054	-0.5266	-1.5571	-1.0905	-2.0829	-0.5978	-0.6621	0.8081	-0.5055	-0.7133	0.6649	-1.6001	-1.1595	-1.525	-1.9759	-0.7416	-0.8756	-0.8391	-1.2593	-0.9894	-1.1825	0.7414	0.7561
42.9688	0.5981	-0.3654	0.3786	-0.9747	-0.4625	-0.3876	-1.4527	0.0786	-0.4435	-1.4877	-1.0472	-2.0377	-0.6653	-0.7459	0.7702	-0.5026	-0.7511	0.7526	-1.6858	-1.1712	-1.512	-2.092	-0.7848	-0.9469	-0.9009	-1.3205	-1.0287	-1.1731	0.854	0.7786
46.875	0.5501	-0.3462	0.4182	-0.9584	-0.4666	-0.3154	-1.3952	0.181	-0.3828	-1.4228	-1.0367	-2	-0.7439	-0.8258	0.7663	-0.479	-0.7204	0.848	-1.6927	-1.1726	-1.4877	-2.132	-0.796	-0.9925	-0.9398	-1.3243	-1.0251	-1.1306	0.9804	0.8276
50.7812	0.5473	-0.3106	0.4619	-0.9361	-0.4635	-0.2395	-1.3492	0.243	-0.3537	-1.3738	-1.0718	-1.9931	-0.8297	-0.896	0.8011	-0.436	-0.6232	0.9435	-1.6232	-1.1625	-1.453	-2.0885	-0.7795	-0.9976	-0.9322	-1.2518	-0.9649	-1.0588	1.1012	0.8926
54.6875	0.5907	-0.2686	0.496	-0.9164	-0.4555	-0.1741	-1.3242	0.2599	-0.3622	-1.3532	-1.1639	-2.0424	-0.9194	-0.953	0.8697	-0.3802	-0.4747	1.0314	-1.4946	-1.1419	-1.4103	-1.9682	-0.7488	-0.9535	-0.8645	-1.0965	-0.8444	-0.9705	1.1934	0.9558
58.5938	0.6625	-0.2342	0.5067	-0.9099	-0.4478	-0.1341	-1.3291	0.2334	-0.4088	-1.3726	-1.3207	-2.1705	-1.0098	-0.9956	0.9589	-0.3219	-0.3003	1.1049	-1.3349	-1.1141	-1.3632	-1.7903	-0.7219	-0.8588	-0.7362	-0.8668	-0.6715	-0.8863	1.2355	0.9969
62.5	0.7315	-0.2225	0.4843	-0.9267	-0.4475	-0.1319	-1.3715	0.173	-0.487	-1.4407	-1.5439	-2.3918	-1.0969	-1.023	1.0498	-0.274	-0.1307	1.1588	-1.1759	-1.0831	-1.3152	-1.5805	-0.7144	-0.7194	-0.558	-0.585	-0.464	-0.8302	1.2115	0.9985
66.4062	0.7621	-0.2459	0.4261	-0.9732	-0.4607	-0.1743	-1.4545	0.0943	-0.584	-1.5598	-1.8257	-2.7072	-1.1739	-1.0328	1.1215	-0.2486	0.0054	1.1888	-1.046	-1.0519	-1.2678	-1.3648	-0.7341	-0.5458	-0.35	-0.2846	-0.2466	-0.8241	1.1141	0.9502
70.3125	0.7251	-0.3104	0.3384	-1.0502	-0.4897	-0.2603	-1.5749	0.017	-0.6824	-1.7241	-2.1484	-3.1005	-1.2295	-1.0186	1.1534	-0.2543	0.0885	1.1915	-0.9636	-1.0203	-1.218	-1.163	-0.7774	-0.3501	-0.1367	-0.0044	-0.0447	-0.882	0.9471	0.8525
74.2188	0.6064	-0.4131	0.2359	-1.1511	-0.5305	-0.3793	-1.7209	-0.04	-0.7646	-1.919	-2.4853	-3.5386	-1.246	-0.9687	1.1294	-0.2933	0.1128	1.1651	-0.9327	-0.9842	-1.157	-0.985	-0.8292	-0.1426	0.0563	0.2178	0.1197	-1.0058	0.7246	0.7173
78.125	0.4121	-0.5403	0.1405	-1.2625	-0.5705	-0.5115	-1.8729	-0.0639	-0.8183	-2.123	-2.8052	-3.9753	-1.1998	-0.8656	1.042	-0.3597	0.088	1.1107	-0.9425	-0.9344	-1.0699	-0.8293	-0.8657	0.0696	0.2064	0.3514	0.2312	-1.1842	0.4709	0.5673
82.0312	0.1684	-0.6687	0.0779	-1.3642	-0.5897	-0.6294	-2.0055	-0.0527	-0.8415	-2.3121	-3.079	-4.3587	-1.0633	-0.6877	0.8969	-0.438	0.0376	1.0359	-0.9688	-0.8578	-0.9361	-0.6835	-0.8582	0.284	0.2976	0.3763	0.2824	-1.395	0.218	0.4339
85.9375	-0.0816	-0.7687	0.0746	-1.432	-0.5628	-0.7022	-2.0925	-0.0188	-0.8464	-2.4664	-3.2866	-4.6418	-0.8095	-0.4125	0.7161	-0.5047	-0.0065	0.9569	-0.978	-0.7382	-0.7323	-0.5267	-0.7783	0.5011	0.3225	0.2852	0.2715	-1.6108	0.0041	0.3541
89.8438	-0.2836	-0.8086	0.154	-1.4397	-0.4635	-0.7006	-2.1133	0.0104	-0.8598	-2.5758	-3.4217	-4.7909	-0.418	-0.0209	0.5391	-0.5296	-0.0097	0.9009	-0.9326	-0.5577	-0.4353	-0.3329	-0.6032	0.7221	0.2831	0.0811	0.1989	-1.8066	-0.1295	0.3676
93.75	-0.3809	-0.7605	0.3342	-1.3621	-0.2695	-0.6021	-2.058	-0.0037	-0.92	-2.6445	-3.4939	-4.7931	0.1183	0.4977	0.4202	-0.4802	0.0592	0.9046	-0.7969	-0.2989	-0.0266	-0.0745	-0.3191	0.9461	0.1889	-0.2256	0.0633	-1.9662	-0.142	0.5121
97.6562	-0.3218	-0.6041	0.6257	-1.1781	0.0334	-0.3942	-1.9305	-0.1048	-1.0705	-2.6908	-3.5271	-4.6577	0.7892	1.1417	0.4211	-0.3255	0.2231	1.0107	-0.5426	0.0536	0.5047	0.273	0.0765	1.168	0.053	-0.6221	-0.1409	-2.0867	0.0034	0.8192
101.5625	-0.068	-0.3288	1.0314	-0.8721	0.4491	-0.0757	-1.7482	-0.3325	-1.3514	-2.7442	-3.554	-4.4152	1.5656	1.8963	0.6013	-0.04	0.4945	1.262	-0.1526	0.5114	1.1585	0.7271	0.5751	1.3775	-0.112	-1.0962	-0.4243	-2.1796	0.3336	1.309
105.4688	0.401	0.0662	1.5464	-0.4348	0.9719	0.3446	-1.5374	-0.7132	-1.7905	-2.8381	-3.6104	-4.1112	2.4023	2.7343	1.0054	0.393	0.876	1.693	0.3777	1.0823	1.9243	1.2951	1.1592	1.5608	-0.2981	-1.6384	-0.7996	-2.2682	0.8618	1.986
109.375	1.085	0.5751	2.1595	0.1368	1.5889	0.8506	-1.3269	-1.2516	-2.3962	-3.0015	-3.7289	-3.7992	3.2452	3.621	1.6528	0.9799	1.3637	2.3235	1.0413	1.7693	2.7824	1.9728	1.8059	1.7028	-0.5035	-2.2407	-1.2775	-2.3822	1.5835	2.8362
113.2812	1.9645	1.1883	2.855	0.8396	2.284	1.4233	-1.1405	-1.9273	-3.1538	-3.2513	-3.9335	-3.5313	4.0402	4.5199	2.5308	1.7167	1.9517	3.1533	1.823	2.5714	3.7078	2.7447	2.4906	1.7917	-0.7315	-2.8935	-1.8598	-2.5504	2.475	3.8264
117.1875	3.0019	1.8959	3.6151	1.6655	3.0404	2.0437	-0.9907	-2.6953	-4.0245	-3.5856	-4.2345	-3.3494	4.742	5.398	3.595	2.5897	2.6366	4.1603	2.7032	3.4824	4.6742	3.5856	3.1913	1.8224	-0.987	-3.5815	-2.534	-2.7925	3.4946	4.9069
121.0938	4.1458	2.6886	4.4209	2.6003	3.8427	2.695	-0.8753	-3.4912	-4.9488	-3.9807	-4.6234	-3.2766	5.3218	6.2299	4.7762	3.5762	3.4189	5.3026	3.66	4.4899	5.6564	4.4637	3.8904	1.8003	-1.2721	-4.2797	-3.2691	-3.1124	4.5867	6.0169
125	5.3341	3.556	5.2521	3.6222	4.6749	3.3624	-0.7774	-4.2407	-5.8513	-4.3919	-5.0707	-3.3123	5.7695	6.9988	5.9919	4.6449	4.2999	6.5224	4.6697	5.5718	6.6305	5.3431	4.5747	1.7412	-1.5826	-4.9525	-4.0151	-3.4942	5.6873	7.0908
128.9062	6.4982	4.4815	6.0856	4.6992	5.518	4.0311	-0.669	-4.8713	-6.6497	-4.7589	-5.5272	-3.432	6.093	7.6941	7.1575	5.7557	5.2752	7.7511	5.704	6.6937	7.5726	6.186	5.2335	1.6698	-1.9058	-5.5546	-4.7069	-3.9018	6.7311	8.0656
132.8125	7.5669	5.4371	6.8934	5.7878	6.3469	4.6834	-0.5176	-5.3227	-7.2644	-5.0155	-5.9302	-3.5914	6.3125	8.308	8.197	6.859	6.3265	8.9144	6.7278	7.8074	8.4562	6.9547	5.8555	1.6159	-2.221	-6.0353	-5.2709	-4.2841	7.6574	8.8863
136.7188	8.4719	6.3799	7.6407	6.8334	7.129	5.2969	-0.2929	-5.555	-7.6291	-5.0998	-6.2136	-3.7356	6.454	8.8326	9.0492	7.8969	7.415	9.9379	7.6967	8.8521	9.2506	7.6133	6.4262	1.6091	-2.5022	-6.3453	-5.6351	-4.5819	8.4156	9.5106
140.625	9.1534	7.2533	8.288	7.7747	7.8259	5.8448	0.0266	-5.5532	-7.6991	-4.9654	-6.3188	-3.8081	6.5429	9.2576	9.6704	8.8056	8.4778	10.753	8.5582	9.7599	9.922	8.131	6.9264	1.6731	-2.7212	-6.4432	-5.7388	-4.7377	8.9686	9.9107
144.5312	9.5668	7.9919	8.7935	8.5502	8.3981	6.2986	0.4496	-5.3254	-7.4559	-4.5879	-6.2037	-3.7608	6.5989	9.5709	10.0347	9.5202	9.4325	11.3026	9.2558	10.4638	10.437	8.4838	7.3328	1.8217	-2.8518	-6.3029	-5.5424	-4.7052	9.2954	10.0748
148.4375	9.6875	8.5311	9.1188	9.1068	8.8109	6.6331	0.9711	-4.8981	-6.9083	-3.9689	-5.8488	-3.562	6.6335	9.7604	10.1321	9.9818	10.1858	11.547	9.7355	10.9076	10.7672	8.6569	7.621	2.0558	-2.8727	-5.9177	-5.0338	-4.4576	9.391	10.0055
152.3438	9.5137	8.8165	9.2343	9.4069	9.041	6.831	1.5727	-4.3093	-6.0899	-3.135	-5.2594	-3.2015	6.6494	9.8164	9.966	10.1446	10.648	11.467	9.9542	11.0547	10.8942	8.6457	7.7689	2.3633	-2.7705	-5.3032	-4.2326	-3.9928	9.2656	9.7178
156.25	9.0668	8.8139	9.1234	9.4344	9.0797	6.8872	2.2259	-3.6017	-5.0544	-2.1346	-4.4649	-2.6937	6.6414	9.7347	9.5508	9.9833	10.748	11.0665	9.8863	10.894	10.8139	8.4554	7.7607	2.72	-2.541	-4.4967	-3.1894	-3.3359	8.9415	9.236
160.1562	8.3884	8.5146	8.7866	9.1961	8.9356	6.811	2.8958	-2.8177	-3.8704	-1.0314	-3.5158	-2.0754	6.5996	9.5187	8.9107	9.4985	10.4477	10.3722	9.5294	10.4418	10.5379	8.1008	7.591	3.0938	-2.19	-3.5542	-1.981	-2.5366	8.4501	8.5905
164.0625	7.5355	7.9381	8.2423	8.7217	8.6329	6.6252	3.5455	-1.9955	-2.6139	0.1029	-2.4785	-1.4016	6.5121	9.1807	8.0802	8.7189	9.7514	9.4322	8.9061	9.7405	10.093	7.6052	7.2678	3.4493	-1.7336	-2.544	-0.7019	-1.6634	7.8282	7.8156
167.9688	6.5743	7.1302	7.5268	8.0595	8.2085	6.3629	4.1407	-1.1688	-1.3621	1.1969	-1.4282	-0.7377	6.3692	8.7425	7.1041	7.7004	8.7085	8.3125	8.0636	8.853	9.5187	7.0007	6.8143	3.7543	-1.1969	-1.5388	0.5476	-0.7946	7.1158	6.9486
171.875	5.5739	6.1583	6.692	7.2712	7.7075	6.0626	4.6531	-0.367	-0.1857	2.1863	-0.4415	-0.1496	6.1666	8.2346	6.0378	6.521	7.4083	7.0916	7.0688	7.8558	8.8642	6.3272	6.2692	3.9847	-0.6119	-0.6078	1.6733	-0.0077	6.3546	6.0301
175.7812	4.6	5.1037	5.8015	6.4265	7.1788	5.7629	5.0634	0.3832	0.8559	3.02	0.4122	0.3051	5.9083	7.6946	4.9452	5.273	5.9684	5.8542	6.0018	6.8316	8.1843	5.6326	5.6843	4.1286	-0.0145	0.1922	2.5992	0.6318	5.5865	5.1039
179.6875	3.7111	4.0531	4.9253	5.5966	6.6709	5.4989	5.363	1.0568	1.7193	3.6634	1.0772	0.5855	5.6074	7.165	3.8945	4.0536	4.5182	4.6838	4.9482	5.8618	7.5364	4.9701	5.1201	4.1881	0.56	0.8225	3.2753	1.0787	4.8532	4.2167
183.5938	2.9572	3.0902	4.1329	4.8494	6.2287	5.299	5.5536	1.6301	2.3781	4.1002	1.5178	0.673	5.2856	6.69	2.9532	2.9557	3.182	3.656	3.9908	5.0208	6.9771	4.3958	4.6398	4.1785	1.0813	1.2667	3.6828	1.3142	4.1947	3.4165
187.5	2.3792	2.2877	3.4865	4.244	5.8907	5.1842	5.6469	2.0832	2.8244	4.3325	1.7217	0.5723	4.9711	6.3119	2.1823	2.0589	2.0639	2.8322	3.202	4.371	6.5589	3.9632	4.3019	4.1255	1.5291	1.5303	3.8332	1.3465	3.6474	2.7494
191.4062	2.0094	1.7007	3.0346	3.8263	5.6873	5.1679	5.6622	2.4026	3.0668	4.3791	1.7004	0.3103	4.6947	6.067	1.6306	1.4232	1.2371	2.2556	2.6372	3.9589	6.3261	3.7167	4.1517	4.0604	1.8951	1.6381	3.7637	1.2083	3.2414	2.2544
195.3125	1.8681	1.3616	2.8059	3.6252	5.6381	5.256	5.6244	2.5854	3.1284	4.272	1.4871	-0.0699	4.4855	5.9815	1.3296	1.0835	0.7375	1.9468	2.329	3.8115	6.3098	3.6839	4.2142	4.0144	2.1834	1.6279	3.5292	0.9491	2.9971	1.9581
199.2188	1.9599	1.2764	2.8047	3.6483	5.7488	5.4454	5.5598	2.6403	3.043	4.052	1.1302	-0.5173	4.3662	6.0678	1.2888	1.0461	0.563	1.9011	2.2838	3.9333	6.5222	3.8693	4.4876	4.0127	2.4076	1.5434	3.1924	0.6261	2.9217	1.8699
203.125	2.2676	1.4245	3.0092	3.8795	6.0086	5.7229	5.4923	2.5876	2.8507	3.7621	0.6845	-0.9827	4.3483	6.3217	1.4928	1.2879	0.6764	2.0884	2.4799	4.3039	6.9522	4.251	4.9416	4.0702	2.5864	1.4251	2.8134	0.2927	3.0056	1.9779
207.0312	2.7492	1.7596	3.3727	4.2788	6.3888	6.0633	5.4392	2.4552	2.5929	3.4423	0.2024	-1.4275	4.4299	6.7207	1.8994	1.7576	1.0127	2.4546	2.8701	4.8778	7.5632	4.7832	5.5197	4.1884	2.7376	1.3045	2.4417	-0.0101	3.2216	2.2491
210.9375	3.3385	2.2157	3.8295	4.785	6.8441	6.4299	5.4087	2.2739	2.3072	3.1244	-0.2739	-1.8289	4.5957	7.2265	2.4431	2.3809	1.4889	2.9288	3.3873	5.5875	8.2951	5.4018	6.147	4.3568	2.8734	1.1995	2.1116	-0.2593	3.5261	2.6323
214.8438	3.9511	2.7147	4.3033	5.3232	7.3174	6.7776	5.4007	2.0725	2.0242	2.8304	-0.7165	-2.1794	4.8205	7.7896	3.0421	3.0694	2.0165	3.4315	3.9544	6.3506	9.0714	6.0358	6.7421	4.5558	2.9972	1.1148	1.842	-0.4499	3.8637	3.0646
218.75	4.4953	3.1779	4.7193	5.8147	7.7477	7.0587	5.4084	1.8743	1.7659	2.5731	-1.1104	-2.4829	5.0752	8.3571	3.6097	3.7328	2.5145	3.8869	4.4956	7.0812	9.8107	6.6187	7.2305	4.7631	3.1029	1.0464	1.6402	-0.5893	4.1745	3.4806
222.6562	4.8861	3.5369	5.0146	6.1895	8.0809	7.2313	5.4238	1.6964	1.5465	2.3593	-1.4492	-2.7463	5.3333	8.8813	4.0674	4.2915	2.9195	4.2322	4.9473	7.7021	10.4398	7.0987	7.5569	4.9597	3.1786	0.9869	1.5066	-0.6898	4.4027	3.8212
226.5625	5.0582	3.7439	5.1471	6.3977	8.2779	7.267	5.4415	1.551	1.3747	2.1938	-1.7295	-2.9735	5.5774	9.327	4.3561	4.6884	3.1929	4.4269	5.2667	8.1565	10.9058	7.4458	7.6941	5.1351	3.2129	0.9313	1.4406	-0.7619	4.5049	4.0417
230.4688	4.9765	3.778	5.1	6.4164	8.322	7.1569	5.4618	1.447	1.2566	2.0821	-1.9459	-3.1608	5.8018	9.6767	4.4429	4.8952	3.3229	4.4556	5.4362	8.4159	11.1838	7.653	7.6446	5.2897	3.2018	0.8798	1.4429	-0.8101	4.4555	4.1162
234.375	4.64	3.6458	4.8815	6.2524	8.2204	6.9128	5.4919	1.392	1.1965	2.0315	-2.09	-3.2987	6.0127	9.9306	4.3235	4.9143	3.322	4.3276	5.4634	8.4818	11.2795	7.7343	7.4382	5.4337	3.1539	0.8382	1.516	-0.8337	4.2492	4.0387
238.2812	4.0809	3.378	4.5209	5.9384	8.0016	6.5656	5.5434	1.3915	1.1972	2.0492	-2.1535	-3.3757	6.2243	10.1041	4.019	4.7748	3.2222	4.0723	5.3777	8.3827	11.2249	7.7194	7.1242	5.5834	3.0902	0.8154	1.6618	-0.8289	3.8998	3.8215
242.1875	3.3582	3.0217	4.062	5.526	7.7102	6.1591	5.629	1.4485	1.2579	2.1383	-2.1326	-3.3847	6.4539	10.2228	3.5704	4.5248	3.0672	3.7326	5.2241	8.1661	11.0705	7.6474	6.762	5.7564	3.0404	0.8201	1.8786	-0.7937	3.4362	3.4913
246.0938	2.5478	2.6317	3.5564	5.0763	7.3986	5.7431	5.7585	1.5608	1.3709	2.2948	-2.0341	-3.3286	6.7172	10.3171	3.031	4.2216	2.9056	3.3593	5.0567	7.8894	10.8759	7.5614	6.4124	5.967	3.0352	0.8577	2.1579	-0.7307	2.8972	3.0842
250	1.731	2.2622	3.0565	4.6512	7.1198	5.3667	5.9357	1.7201	1.5203	2.5039	-1.8793	-3.2238	7.0237	10.4168	2.4596	3.9231	2.7845	3.0056	4.9307	7.6106	10.7001	7.5035	6.1299	6.2218	3.0985	0.9278	2.4826	-0.65	2.326	2.6402
253.9062	0.9833	1.9607	2.6102	4.3058	6.9196	5.0717	6.1552	1.9107	1.6804	2.7392	-1.705	-3.1004	7.3739	10.5464	1.9143	3.6796	2.7441	2.7228	4.8953	7.3812	10.5937	7.5106	5.9574	6.5185	3.2409	1.0228	2.8263	-0.5696	1.7646	2.1991
257.8125	0.367	1.7643	2.2567	4.0828	6.8316	4.8884	6.4028	2.1112	1.8182	2.9647	-1.5599	-2.9992	7.7591	10.7226	1.4466	3.5293	2.8131	2.5551	4.9877	7.2406	10.5932	7.6113	5.9237	6.8443	3.4566	1.1275	3.1543	-0.5153	1.2495	1.7958
261.7188	-0.0748	1.6971	2.023	4.0093	6.8739	4.8328	6.6559	2.2969	1.8979	3.1389	-1.4983	-2.9663	8.1615	10.9512	1.0963	3.4945	3.0068	2.5343	5.2276	7.2131	10.7171	7.8227	6.0415	7.1783	3.7243	1.221	3.4267	-0.5175	0.8078	1.4574
265.625	-0.3206	1.7704	1.9223	4.0954	7.0474	4.9053	6.8868	2.4439	1.8875	3.2221	-1.5695	-3.0446	8.5564	11.2274	0.8878	3.5804	3.3255	2.6735	5.6146	7.307	10.9655	8.1488	6.3077	7.494	4.0112	1.2801	3.6042	-0.6064	0.4555	1.2005
269.5312	-0.3713	1.9817	1.9526	4.3336	7.3378	5.0914	7.0682	2.5331	1.7655	3.1842	-1.8083	-3.2659	8.9161	11.5357	0.8267	3.7766	3.7554	2.9643	6.1281	7.5149	11.3205	8.579	6.7034	7.7646	4.2799	1.2839	3.6549	-0.8058	0.1961	1.0302
273.4375	-0.2496	2.3162	2.0976	4.7006	7.7179	5.364	7.1786	2.5547	1.5273	3.0129	-2.2254	-3.643	9.2139	11.8534	0.8994	4.0586	4.2696	3.3754	6.7295	7.8156	11.7501	9.0894	7.1953	7.9681	4.4974	1.2194	3.5625	-1.126	0.0219	0.9399
277.3438	0.0029	2.7473	2.3286	5.1597	8.152	5.6873	7.2082	2.5106	1.1898	2.7189	-2.8004	-4.1643	9.4285	12.1532	1.0743	4.3932	4.8316	3.8571	7.3679	8.1781	12.2129	9.6445	7.7375	8.0917	4.6432	1.0867	3.3316	-1.5583	-0.0842	0.913
281.25	0.3313	3.2404	2.6088	5.6662	8.6005	6.0214	7.1621	2.4145	0.7908	2.3376	-3.4811	-4.7912	9.5482	12.4086	1.307	4.743	5.399	4.348	7.987	8.5664	12.6645	10.201	8.2756	8.134	4.7145	0.9	2.9902	-2.0722	-0.1444	0.9256
285.1562	0.6757	3.7565	2.8978	6.1733	9.0257	6.328	7.0606	2.2906	0.3852	1.925	-4.188	-5.4607	9.5729	12.5971	1.5472	5.0731	5.9284	4.7847	8.5329	8.9446	13.0636	10.713	8.7524	8.105	4.7258	0.6867	2.586	-2.6174	-0.1826	0.9506
289.0625	0.9806	4.2578	3.1575	6.6392	9.3961	6.5763	6.935	2.1686	0.0353	1.5482	-4.8262	-6.0933	9.5143	12.7045	1.7466	5.3569	6.381	5.1122	8.9623	9.2831	13.3784	11.1377	9.1153	8.0214	4.7022	0.4799	2.1757	-3.1315	-0.2203	0.9622
292.9688	1.2054	4.7141	3.3586	7.0341	9.6917	6.7478	6.8209	2.0788	-0.2016	1.272	-5.3031	-6.6061	9.3935	12.7263	1.8675	5.5815	6.7282	5.292	9.2489	9.5639	13.5915	11.4423	9.3243	7.9008	4.668	0.3089	1.8123	-3.5526	-0.2737	0.9402
296.875	1.3321	5.1074	3.485	7.3463	9.9077	6.8398	6.7495	2.046	-0.2864	1.1437	-5.5482	-6.9299	9.2364	12.6695	1.8899	5.7509	6.9575	5.3083	9.3884	9.7847	13.7032	11.6095	9.3593	7.7565	4.6365	0.1887	1.5299	-3.834	-0.3522	0.8727
300.7812	1.3686	5.4372	3.5381	7.5841	10.0555	6.8659	6.7404	2.0844	-0.2088	1.1823	-5.5293	-7.0242	9.069	12.5516	1.8162	5.8881	7.0766	5.1702	9.4	9.9618	13.7323	11.6424	9.2249	7.5931	4.6027	0.1125	1.334	-3.9567	-0.4572	0.7584
304.6875	1.3487	5.721	3.5374	7.7763	10.1627	6.8552	6.7972	2.1951	0.0087	1.372	-5.2628	-6.8886	8.913	12.4001	1.6739	6.0337	7.1157	4.9107	9.326	10.1297	13.715	11.5659	8.9528	7.4066	4.5439	0.0507	1.1983	-3.936	-0.5822	0.6075
308.5938	1.326	5.9939	3.5196	7.9682	10.269	6.8475	6.9076	2.3662	0.3136	1.6647	-4.8129	-6.5662	8.7832	12.2493	1.5125	6.2412	7.1261	4.583	9.2277	10.3378	13.7007	11.4252	8.5989	7.1879	4.4277	-0.0429	1.0711	-3.82	-0.7124	0.4412
312.5	1.3645	6.3023	3.5324	8.2139	10.4209	6.8875	7.0464	2.5759	0.634	1.9885	-4.2809	-6.1375	8.6864	12.1375	1.3969	6.5698	7.1733	4.2542	9.1779	10.6442	13.7461	11.2799	8.237	6.9285	4.2234	-0.2195	0.8875	-3.6801	-0.8258	0.2897
316.4062	1.5264	6.6949	3.6265	8.5671	10.6633	7.0163	7.1822	2.7964	0.8921	2.2621	-3.7869	-5.7065	8.6217	12.1014	1.3952	7.0742	7.3259	3.9954	9.2507	11.1056	13.907	11.196	7.9475	6.6268	3.9142	-0.5207	0.5871	-3.5959	-0.8954	0.188
320.3125	1.8591	7.2104	3.8437	9.0687	11.0303	7.2631	7.283	3.0001	1.0199	2.4098	-3.4469	-5.3803	8.5816	12.17	1.5644	7.7931	7.6419	3.8708	9.5076	11.7665	14.228	11.2345	7.8038	6.291	3.5044	-0.9666	0.1288	-3.6371	-0.894	0.1691
324.2188	2.3826	7.8665	4.2069	9.7367	11.5368	7.6385	7.3223	3.1641	0.9721	2.3751	-3.3511	-5.2479	8.5526	12.3574	1.9369	8.7384	8.1537	3.9259	9.9847	12.6469	14.7326	11.4394	7.857	5.9389	3.0208	-1.5486	-0.4982	-3.8495	-0.8002	0.2566
328.125	3.082	8.6519	4.7119	10.559	12.1725	8.1299	7.2821	3.2737	0.7339	2.1315	-3.5457	-5.3621	8.5171	12.6583	2.5117	9.8883	8.8582	4.1781	10.6823	13.7353	15.4163	11.8276	8.1242	5.5941	2.5076	-2.2294	-1.271	-4.2443	-0.605	0.4573
332.0312	3.9069	9.526	5.3262	11.4922	12.9016	8.7028	7.1558	3.3249	0.324	1.6865	-4.0237	-5.7273	8.4559	13.0467	3.2527	11.1873	9.7138	4.6125	11.562	14.986	16.244	12.3835	8.5826	5.2802	2.0173	-2.9493	-2.1368	-4.7964	-0.3151	0.7581
335.9375	4.7788	10.4244	5.9937	12.4681	13.6675	9.3064	6.9488	3.3242	-0.2093	1.081	-4.7258	-6.2995	8.3522	13.4798	4.0942	12.5521	10.6463	5.1833	12.5507	16.325	17.1553	13.0604	9.1712	5.016	1.6005	-3.6376	-3.0229	-5.4493	0.0455	1.1263
339.8438	5.6059	11.272	6.6456	13.4052	14.4026	9.8823	6.6777	3.2868	-0.7967	0.3817	-5.5519	-6.9944	8.1958	13.906	4.9521	13.8857	11.5626	5.8227	13.5536	17.6615	18.0735	13.7878	9.8025	4.8117	1.2968	-4.2257	-3.8492	-6.1268	0.4398	1.5155
343.75	6.3004	11.9971	7.2134	14.2239	15.0406	10.3755	6.3686	3.2337	-1.3603	-0.3305	-6.381	-7.7058	7.9865	14.2753	5.738	15.0925	12.3684	6.4521	14.4705	18.9032	18.9204	14.4852	10.3797	4.6683	1.1293	-4.6588	-4.5423	-6.7474	0.8234	1.8743
347.6562	6.7943	12.5452	7.6418	14.8607	15.528	10.744	6.0526	3.187	-1.8271	-0.974	-7.0944	-8.3269	7.7359	14.5493	6.3734	16.0942	12.9861	6.9966	15.2141	19.9716	19.6292	15.0757	10.8157	4.5794	1.1031	-4.9047	-5.0458	-7.2391	1.1532	2.1556
351.5625	7.0501	12.8866	7.8972	15.2782	15.8327	10.9652	5.7614	3.1661	-2.1408	-1.4802	-7.5974	-8.7701	7.4661	14.7074	6.8007	16.8408	13.3677	7.3962	15.7238	20.8127	20.1557	15.5	11.0496	4.534	1.2061	-4.956	-5.3277	-7.551	1.3946	2.3249
355.4688	7.0642	13.019	7.9715	15.4695	15.9472	11.0368	5.5216	3.1838	-2.2706	-1.8039	-7.8352	-8.9827	7.2056	14.7495	6.9899	17.3149	13.5	7.614	15.9737	21.4024	20.4831	15.7244	11.0559	4.5193	1.4129	-4.8298	-5.383	-7.6601	1.5268	2.3656
359.375	6.8632	12.9625	7.8798	15.4547	15.8871	10.975	5.3494	3.2443	-2.2151	-1.9296	-7.7997	-8.9532	6.9826	14.6925	6.9403	17.5285	13.4028	7.6396	15.9721	21.7447	20.6205	15.7432	10.8447	4.5227	1.6879	-4.5616	-5.2323	-7.5729	1.5452	2.2798
363.2812	6.4954	12.7524	7.6552	15.2743	15.6842	10.8082	5.2485	3.3423	-2.0007	-1.8716	-7.5265	-8.7087	6.819	14.5638	6.6774	17.5152	13.1198	7.4873	15.7552	21.8646	20.5965	15.5755	10.4549	4.5337	1.9913	-4.1982	-4.9164	-7.3204	1.4609	2.0858
367.1875	6.0193	12.4296	7.3408	14.9783	15.3799	10.5708	5.2098	3.4655	-1.6749	-1.6677	-7.0824	-8.3029	6.7261	14.3944	6.2475	17.32	12.7072	7.1921	15.376	21.7999	20.4502	15.2592	9.9429	4.5442	2.2844	-3.7886	-4.4887	-6.9491	1.297	1.814
371.0938	5.4929	12.0346	6.9827	14.6171	15.0174	10.2979	5.2154	3.5978	-1.2948	-1.3693	-6.5475	-7.8006	6.7036	14.2125	5.7096	16.9899	12.2214	6.8015	14.8939	21.592	20.222	14.8427	9.371	4.5491	2.5353	-3.3762	-4.0054	-6.5095	1.0848	1.501
375	4.966	11.6022	6.6231	14.2342	14.6367	10.021	5.245	3.7238	-0.9148	-1.0289	-5.995	-7.2607	6.7421	14.0397	5.1264	16.5664	11.71	6.3673	14.3646	21.2806	19.9475	14.3771	8.7973	4.5471	2.7224	-2.9934	-3.5169	-6.0455	0.8575	1.1841
378.9062	4.4758	11.1606	6.296	13.8618	14.2711	9.7658	5.2814	3.8326	-0.5762	-0.6895	-5.4768	-6.7249	6.8273	13.8904	4.5571	16.0827	11.2069	5.9372	13.8342	20.8993	19.6543	13.91	8.2693	4.5403	2.8355	-2.659	-3.0607	-5.588	0.6458	0.8966
382.8125	4.0464	10.7317	6.0246	13.5198	13.9462	9.5512	5.3149	3.9199	-0.3011	-0.3776	-5.0169	-6.2135	6.9447	13.7725	4.0498	15.5633	10.7308	5.5498	13.3364	20.4755	19.3616	13.4797	7.8209	4.5332	2.875	-2.3792	-2.6581	-5.1523	0.4741	0.6647
386.7188	3.6912	10.332	5.8213	13.2179	13.6799	9.3897	5.3451	3.9877	-0.0919	-0.1022	-4.6141	-5.7287	7.0818	13.6887	3.6372	15.0252	10.2881	5.2313	12.8922	20.0303	19.0822	13.1118	7.4711	4.5316	2.8491	-2.1507	-2.3147	-4.7415	0.36	0.506
390.625	3.4165	9.9742	5.6899	12.9584	13.4833	9.2885	5.379	4.0434	0.0642	0.1422	-4.2515	-5.2627	7.2298	13.6386	3.3348	14.4808	9.8766	4.9962	12.511	19.5795	18.8245	12.818	7.2245	4.5403	2.771	-1.9649	-2.0239	-4.3519	0.3144	0.4299
394.5312	3.2249	9.6673	5.6288	12.7397	13.362	9.2504	5.4281	4.0967	0.1887	0.3698	-3.9075	-4.807	7.3826	13.6189	3.1419	13.9395	9.49	4.8487	12.193	19.1343	18.5936	12.5969	7.0728	4.5619	2.6559	-1.8128	-1.7729	-3.9794	0.3441	0.439
398.4375	3.1178	9.4167	5.6338	12.5594	13.3157	9.2747	5.5042	4.1578	0.3047	0.5968	-3.565	-4.3587	7.5352	13.6245	3.0459	13.4094	9.1224	4.7853	11.9317	18.7027	18.3918	12.4372	6.9976	4.5958	2.5189	-1.6877	-1.5478	-3.6242	0.4524	0.5306
402.3438	3.0959	9.2231	5.6999	12.4153	13.339	9.357	5.6163	4.2351	0.4321	0.8363	-3.2163	-3.9231	7.6824	13.6478	3.028	12.8977	8.7712	4.7964	11.7172	18.2894	18.2183	12.3225	6.9751	4.6384	2.3736	-1.5867	-1.3385	-3.2912	0.6394	0.6979
406.25	3.1584	9.0824	5.8216	12.3053	13.4206	9.4889	5.7675	4.3339	0.5844	1.0948	-2.8635	-3.5115	7.8171	13.6791	3.0685	12.411	8.4381	4.8676	11.5384	17.8969	18.0681	12.2357	6.9812	4.6841	2.2314	-1.5099	-1.1409	-2.9894	0.9013	0.9311
410.1562	3.3005	8.985	5.9912	12.2258	13.5426	9.6564	5.9546	4.4548	0.7674	1.3713	-2.5163	-3.1381	7.9306	13.7066	3.1508	11.9539	8.1284	4.9814	11.3848	17.5249	17.9315	12.1626	6.9953	4.7261	2.1012	-1.4596	-0.9571	-2.7294	1.228	1.217
414.0625	3.5113	8.9161	6.197	12.1698	13.6817	9.8403	6.1678	4.5937	0.9789	1.6584	-2.1885	-2.8152	8.012	13.7164	3.263	11.5283	7.848	5.1184	11.2462	17.1704	17.7941	12.0927	7.0031	4.7578	1.9888	-1.4376	-0.7939	-2.5196	1.6024	1.5386
417.9688	3.7723	8.8568	6.4219	12.125	13.8103	10.0169	6.3921	4.7412	1.2096	1.9438	-1.8949	-2.5508	8.0495	13.6936	3.3972	11.132	7.5998	5.2596	11.1127	16.8271	17.6384	12.0189	6.9974	4.7736	1.8965	-1.4437	-0.6596	-2.3646	2.0008	1.8756
421.875	4.0581	8.7866	6.6434	12.0741	13.8999	10.1611	6.609	4.8841	1.4454	2.2136	-1.6474	-2.3468	8.0326	13.6231	3.5479	10.7586	7.3815	5.3889	10.9736	16.4852	17.4448	11.9355	6.9762	4.7695	1.8235	-1.4742	-0.5611	-2.2628	2.3949	2.2052
425.7812	4.3391	8.6854	6.8357	11.9958	13.9239	10.2496	6.7996	5.007	1.6696	2.4548	-1.4535	-2.1993	7.9532	13.4911	3.7097	10.3976	7.1841	5.4942	10.8168	16.1318	17.1945	11.8365	6.9405	4.7435	1.765	-1.5217	-0.5009	-2.2065	2.7553	2.5047
429.6875	4.5857	8.5362	6.9719	11.8672	13.8605	10.2639	6.9462	5.0944	1.8667	2.6566	-1.3148	-2.1004	7.8075	13.2866	3.8761	10.0364	6.9935	5.568	10.6301	15.7521	16.8715	11.7144	6.8923	4.6948	1.7137	-1.5756	-0.4764	-2.1826	3.055	2.7536
433.5938	4.7735	8.3273	7.0284	11.6671	13.695	10.1924	7.0342	5.1334	2.0241	2.8115	-1.228	-2.0401	7.5964	13.0026	4.039	9.6625	6.7933	5.6064	10.4028	15.3314	16.4648	11.5597	6.8334	4.6242	1.6605	-1.6238	-0.4809	-2.1759	3.2728	2.9364
437.5	4.8874	8.0541	6.9885	11.3793	13.421	10.0315	7.0532	5.1156	2.1335	2.9153	-1.1866	-2.0089	7.3256	12.6372	4.1894	9.2657	6.5694	5.6086	10.1284	14.8579	15.97	11.3626	6.7659	4.5335	1.5966	-1.6552	-0.5051	-2.1714	3.3958	3.0443
441.4062	4.9236	7.7204	6.8463	10.9966	13.0412	9.7853	6.9979	5.038	2.191	2.9661	-1.1836	-1.9996	7.0051	12.1952	4.3175	8.8413	6.3139	5.5753	9.8069	14.3255	15.3916	11.1152	6.6924	4.4252	1.5151	-1.6613	-0.5403	-2.1582	3.4206	3.0768
445.3125	4.8901	7.3384	6.6085	10.5234	12.5675	9.4646	6.8688	4.9037	2.1967	2.9646	-1.2131	-2.0079	6.6483	11.6883	4.414	8.3912	6.0279	5.5095	9.4458	13.7367	14.7435	10.8145	6.6166	4.3031	1.4131	-1.6375	-0.5799	-2.1313	3.3535	3.0407
449.2188	4.8046	6.928	6.2948	9.9765	12.0202	9.0856	6.672	4.7215	2.1542	2.9137	-1.2704	-2.0317	6.2716	11.1355	4.4704	7.9247	5.7224	5.4163	9.0599	13.1036	14.0487	10.4648	6.5433	4.1716	1.2939	-1.5845	-0.6201	-2.0924	3.2094	2.9498
453.125	4.69	6.5137	5.9345	9.3836	11.4257	8.668	6.4188	4.5049	2.0711	2.8191	-1.3511	-2.0699	5.8935	10.5617	4.4795	7.4573	5.4167	5.3038	8.6687	12.4469	13.3377	10.0786	6.4778	4.036	1.1663	-1.5071	-0.6604	-2.0482	3.0087	2.8212
457.0312	4.5694	6.1208	5.5616	8.7789	10.814	8.2328	6.1243	4.2702	1.9583	2.6889	-1.4492	-2.121	5.5323	9.9946	4.4362	7.0077	5.1339	5.1825	8.2935	11.7938	12.6437	9.6748	6.4242	3.9014	1.0437	-1.4144	-0.7025	-2.0094	2.7744	2.6732
460.9375	4.4591	5.771	5.2079	8.1976	10.2143	7.7996	5.8041	4.0335	1.8291	2.5324	-1.5562	-2.1818	5.2046	9.4613	4.3379	6.5944	4.8961	5.0641	7.9529	11.1729	11.9982	9.2759	6.3847	3.7716	0.941	-1.318	-0.7497	-1.9869	2.5287	2.5221
464.8438	4.3632	5.4786	4.8975	7.6698	9.6514	7.3844	5.4722	3.8079	1.6971	2.3583	-1.6619	-2.2475	4.9222	8.9833	4.1851	6.232	4.7183	4.9596	7.6606	10.6097	11.4253	8.9028	6.3584	3.6477	0.8704	-1.2305	-0.8055	-1.9897	2.2899	2.3796
468.75	4.2716	5.2479	4.6438	7.2157	9.143	6.9982	5.1381	3.6012	1.5733	2.1736	-1.7559	-2.3118	4.6905	8.5742	3.9821	5.9284	4.6053	4.8772	7.4228	10.1221	10.9381	8.5708	6.3412	3.5285	0.8387	-1.1637	-0.8731	-2.0218	2.0709	2.2523
472.6562	4.1617	5.0731	4.4488	6.8432	8.6984	6.6461	4.8064	3.4154	1.4651	1.9823	-1.829	-2.3667	4.508	8.2377	3.7382	5.683	4.5502	4.8196	7.2374	9.7183	10.5377	8.2872	6.327	3.4097	0.8452	-1.1269	-0.9544	-2.0809	1.8789	2.1415
476.5625	4.0053	4.9391	4.3051	6.5474	8.3181	6.3278	4.4778	3.2475	1.3748	1.787	-1.8732	-2.403	4.3672	7.9683	3.467	5.4879	4.5364	4.7835	7.0945	9.3953	10.2139	8.0498	6.3082	3.2858	0.8817	-1.1256	-1.0492	-2.1578	1.7148	2.044
480.4688	3.7767	4.8249	4.199	6.3125	7.9953	6.0389	4.151	3.0917	1.3015	1.59	-1.8828	-2.4107	4.2567	7.7536	3.1846	5.3283	4.541	4.7587	6.9782	9.1408	9.9481	7.8485	6.277	3.1511	0.9339	-1.1606	-1.1551	-2.238	1.5748	1.954
484.375	3.4609	4.7069	4.1137	6.1159	7.7178	5.7723	3.825	2.9409	1.2415	1.3946	-1.8537	-2.3803	4.1645	7.5769	2.907	5.1851	4.5383	4.7302	6.8683	8.9343	9.7177	7.6677	6.2254	3.0018	0.9834	-1.2276	-1.2669	-2.3043	1.4517	1.8641
488.2812	3.0593	4.563	4.0331	5.9322	7.4701	5.5201	3.5006	2.789	1.1901	1.2054	-1.7853	-2.305	4.0797	7.4207	2.6464	5.0378	4.5044	4.6813	6.7441	8.7514	9.4999	7.4887	6.1455	2.8366	1.0111	-1.3184	-1.3775	-2.34	1.3361	1.7676
492.1875	2.5907	4.3771	3.9438	5.7385	7.2365	5.2747	3.1816	2.6316	1.1419	1.028	-1.6817	-2.1831	3.9945	7.2693	2.4087	4.8678	4.4192	4.5977	6.5873	8.5677	9.2767	7.2938	6.0297	2.658	1.0003	-1.4216	-1.4792	-2.3325	1.219	1.6594
496.0938	2.0889	4.1422	3.838	5.5188	7.0039	5.0313	2.8748	2.4664	1.0911	0.8677	-1.5535	-2.0197	3.9053	7.1116	2.194	4.662	4.2697	4.4727	6.3864	8.3633	9.0375	7.0696	5.8729	2.4729	0.9407	-1.5248	-1.565	-2.2763	1.0932	1.5373
500	1.5963	3.8628	3.7145	5.2684	6.7646	4.7887	2.5892	2.2933	1.032	0.7285	-1.4162	-1.8262	3.812	6.9428	1.9994	4.4165	4.0526	4.3092	6.1398	8.1274	8.7821	6.8114	5.6751	2.2919	0.8307	-1.6161	-1.6291	-2.1733	0.9549	1.4025
503.9062	1.1564	3.5557	3.579	4.9946	6.5183	4.5505	2.3354	2.1151	0.9598	0.613	-1.2883	-1.6183	3.7183	6.7654	1.822	4.1393	3.777	4.1207	5.8575	7.8614	8.5208	6.5255	5.4446	2.1288	0.6795	-1.6853	-1.6675	-2.0323	0.8046	1.2598
507.8125	0.8068	3.2478	3.4428	4.7164	6.2729	4.3253	2.1244	1.9378	0.872	0.5223	-1.1857	-1.4129	3.6302	6.5886	1.6616	3.8496	3.4652	3.9293	5.561	7.5787	8.2719	6.2302	5.1998	1.9989	0.5055	-1.7246	-1.6779	-1.8665	0.647	1.1168
511.7188	0.5728	2.9722	3.3205	4.4604	6.0431	4.1257	1.9659	1.7704	0.7708	0.4574	-1.1179	-1.2235	3.5546	6.426	1.5218	3.5752	3.1517	3.761	5.2799	7.3028	8.0577	5.9528	4.9682	1.9163	0.3338	-1.7286	-1.659	-1.6906	0.4909	0.9828
515.625	0.4654	2.7619	3.2266	4.255	5.8475	3.9662	1.8672	1.624	0.6631	0.4197	-1.0838	-1.0577	3.4984	6.2928	1.4081	3.3472	2.8782	3.6411	5.0471	7.0616	7.8993	5.7252	4.7821	1.8918	0.1921	-1.6946	-1.6096	-1.517	0.347	0.8676
519.5312	0.4805	2.6437	3.1732	4.1243	5.7053	3.8598	1.8318	1.5099	0.5608	0.4115	-1.0725	-0.916	3.467	6.2024	1.3258	3.1932	2.6865	3.5885	4.8916	6.881	7.8111	5.5764	4.6718	1.931	0.1059	-1.6216	-1.5283	-1.354	0.2266	0.7791
523.4375	0.6008	2.6324	3.1667	4.0823	5.6312	3.8156	1.8588	1.4373	0.4782	0.4352	-1.0666	-0.793	3.4638	6.1631	1.277	3.1312	2.6084	3.6123	4.8323	6.7794	7.7968	5.5262	4.6576	2.033	0.0939	-1.5103	-1.4138	-1.204	0.1385	0.7223
527.3438	0.7999	2.7279	3.2071	4.1296	5.6322	3.836	1.9415	1.4104	0.4287	0.4926	-1.0478	-0.6803	3.4893	6.1762	1.2597	3.1646	2.6572	3.7092	4.8727	6.7624	7.8478	5.579	4.7431	2.1902	0.164	-1.3632	-1.2655	-1.0644	0.0862	0.6974
531.25	1.0459	2.9143	3.2877	4.2524	5.705	3.9151	2.0675	1.427	0.4211	0.582	-1.004	-0.5705	3.5404	6.2346	1.2676	3.2811	2.8222	3.8653	4.9982	6.8211	7.9435	5.7218	4.9125	2.3884	0.3112	-1.1842	-1.0848	-0.9297	0.0666	0.6989
535.1562	1.3064	3.162	3.396	4.4248	5.8347	4.0384	2.2184	1.4778	0.4564	0.6964	-0.9333	-0.4605	3.6102	6.3231	1.2916	3.4538	3.0678	4.0577	5.1779	6.9327	8.0547	5.9245	5.1327	2.6079	0.5183	-0.9799	-0.8774	-0.7943	0.0694	0.7162
539.0625	1.5508	3.432	3.5156	4.613	5.997	4.1843	2.3706	1.5474	0.5264	0.822	-0.8458	-0.3533	3.6871	6.42	1.3213	3.6458	3.3401	4.2594	5.3688	7.0637	8.1475	6.1443	5.36	2.8243	0.7583	-0.7602	-0.6544	-0.6553	0.0789	0.7346
542.9688	1.7536	3.6817	3.6292	4.7806	6.1609	4.3271	2.4971	1.6158	0.6138	0.9383	-0.7617	-0.258	3.7557	6.4992	1.3469	3.8164	3.5769	4.4429	5.5241	7.1755	8.1893	6.3329	5.5499	3.0111	1.0001	-0.5384	-0.4332	-0.5151	0.0777	0.7381
546.875	1.8955	3.872	3.7206	4.8945	6.2938	4.4404	2.5703	1.6625	0.6958	1.0202	-0.7062	-0.1884	3.7971	6.534	1.3603	3.9283	3.7216	4.5831	5.6014	7.2308	8.1532	6.4449	5.666	3.142	1.2139	-0.3312	-0.2362	-0.3816	0.0504	0.7132
550.7812	1.9657	3.9738	3.7778	4.9303	6.3665	4.5023	2.5663	1.6698	0.7482	1.0419	-0.7032	-0.1606	3.7919	6.5007	1.3565	3.9542	3.7348	4.6605	5.572	7.2005	8.0227	6.4465	5.6886	3.1942	1.376	-0.1569	-0.0886	-0.2676	-0.0128	0.6513
554.6875	1.9629	3.9736	3.7946	4.876	6.3581	4.4986	2.4685	1.6266	0.7511	0.9815	-0.769	-0.1897	3.7227	6.3826	1.333	3.8815	3.6033	4.6625	5.4254	7.0689	7.7936	6.322	5.6178	3.1516	1.4709	-0.0338	-0.014	-0.1894	-0.1133	0.5515
558.5938	1.8957	3.8751	3.7715	4.7343	6.2595	4.4263	2.2711	1.5311	0.6936	0.8262	-0.9088	-0.2864	3.5772	6.1723	1.2903	3.7142	3.3416	4.5862	5.1715	6.8363	7.4742	6.0764	5.4724	3.0077	1.4915	0.0235	-0.0304	-0.1628	-0.2432	0.4212
562.5	1.7823	3.698	3.7149	4.5211	6.0748	4.293	1.9803	1.3911	0.5764	0.5747	-1.1142	-0.4542	3.3508	5.8726	1.2308	3.4704	2.987	4.4389	4.8368	6.5186	7.0826	5.7335	5.2843	2.766	1.4385	0.0065	-0.1469	-0.2007	-0.3864	0.2753
566.4062	1.6482	3.4732	3.636	4.2624	5.8199	4.1161	1.6127	1.2226	0.4112	0.2378	-1.3656	-0.6875	3.0472	5.4962	1.1579	3.1782	2.5907	4.2385	4.4581	6.1425	6.6434	5.3304	5.0906	2.4401	1.3179	-0.0853	-0.3613	-0.3091	-0.521	0.1338
570.3125	1.5241	3.2361	3.5491	3.9889	5.5198	3.9191	1.1922	1.0454	0.2174	-0.1637	-1.6371	-0.9721	2.6783	5.0628	1.076	2.8697	2.2054	4.0117	4.0742	5.7406	6.1828	4.909	4.9247	2.0509	1.1405	-0.2435	-0.6611	-0.486	-0.6235	0.0175
574.2188	1.4423	3.0199	3.4696	3.7302	5.204	3.7275	0.7448	0.8786	0.0159	-0.6047	-1.9033	-1.2881	2.262	4.5965	0.9904	2.5743	1.8756	3.7896	3.7192	5.3446	5.7253	4.5073	4.8093	1.6234	0.9197	-0.4523	-1.0257	-0.7207	-0.6733	-0.0552
578.125	1.432	2.8497	3.4127	3.5097	4.9021	3.5644	0.2939	0.7357	-0.1775	-1.0604	-2.147	-1.6144	1.8193	4.1226	0.9084	2.3148	1.6306	3.6027	3.4169	4.9807	5.2907	4.1532	4.7532	1.1833	0.6708	-0.6914	-1.4294	-0.9956	-0.6565	-0.0717
582.0312	1.514	2.7397	3.3909	3.341	4.6387	3.4469	-0.1434	0.622	-0.3567	-1.5119	-2.364	-1.9324	1.371	3.6643	0.8396	2.1048	1.4817	3.4757	3.1786	4.666	4.8933	3.8608	4.7516	0.7543	0.4105	-0.9389	-1.8455	-1.2892	-0.5684	-0.027
585.9375	1.697	2.6913	3.4119	3.2269	4.4298	3.3829	-0.5574	0.5334	-0.5267	-1.9474	-2.5622	-2.2294	0.9354	3.2408	0.7955	1.9475	1.4232	3.4236	3.004	4.4083	4.5419	3.6307	4.79	0.3557	0.1557	-1.1759	-2.2491	-1.5799	-0.4136	0.0758
589.8438	1.9741	2.6949	3.4767	3.1601	4.2811	3.3702	-0.9446	0.4594	-0.6998	-2.3621	-2.7572	-2.4982	0.5265	2.866	0.7868	1.8379	1.4354	3.4506	2.8835	4.2064	4.2406	3.4534	4.8491	0.0024	-0.0776	-1.388	-2.6198	-1.8487	-0.2052	0.2267
593.75	2.3233	2.7328	3.5793	3.1263	4.188	3.397	-1.3047	0.387	-0.8902	-2.7544	-2.9641	-2.736	0.1537	2.5478	0.8225	1.7649	1.4903	3.5508	2.8027	4.053	3.9901	3.3141	4.9114	-0.2954	-0.2764	-1.5669	-2.9422	-2.0816	0.0382	0.4111
597.6562	2.7111	2.7845	3.7079	3.1087	4.1382	3.446	-1.6372	0.3056	-1.1073	-3.122	-3.1904	-2.9419	-0.1771	2.289	0.9078	1.7158	1.5583	3.7104	2.747	3.937	3.7892	3.1986	4.9653	-0.5315	-0.4317	-1.7094	-3.2063	-2.2694	0.2957	0.6126
601.5625	3.0986	2.8321	3.8479	3.0928	4.1159	3.4985	-1.9384	0.2105	-1.3517	-3.4589	-3.4319	-3.1147	-0.462	2.0884	1.0449	1.6799	1.6148	3.9112	2.7057	3.8477	3.6355	3.0973	5.0084	-0.7017	-0.5388	-1.8157	-3.4067	-2.4079	0.5476	0.8157
605.4688	3.4491	2.865	3.9854	3.0706	4.1059	3.5387	-2.2003	0.1044	-1.6133	-3.7538	-3.6729	-3.2522	-0.6975	1.9425	1.2336	1.6522	1.6456	4.1332	2.6749	3.7765	3.5266	3.0081	5.047	-0.8036	-0.5966	-1.8863	-3.5409	-2.4958	0.778	1.0086
609.375	3.7351	2.8815	4.1099	3.0413	4.097	3.5572	-2.4108	-0.0037	-1.8736	-3.9912	-3.8893	-3.3515	-0.8796	1.8467	1.4723	1.6336	1.6497	4.3574	2.6568	3.7186	3.4602	2.9358	5.0937	-0.836	-0.6065	-1.9207	-3.6087	-2.5341	0.9764	1.1837
613.2812	3.9427	2.8889	4.216	3.0115	4.0838	3.551	-2.5566	-0.1018	-2.1095	-4.1542	-4.0552	-3.4097	-1.0042	1.7953	1.7574	1.63	1.6377	4.5672	2.6581	3.6729	3.4332	2.8897	5.1631	-0.799	-0.572	-1.9168	-3.6111	-2.5244	1.1383	1.3384
617.1875	4.0732	2.899	4.3027	2.9916	4.0655	3.5227	-2.6267	-0.1787	-2.2982	-4.2283	-4.1482	-3.425	-1.0679	1.7821	2.0808	1.6486	1.6274	4.7496	2.6856	3.6405	3.4409	2.8792	5.2666	-0.6961	-0.4987	-1.8714	-3.5506	-2.4689	1.264	1.4737
621.0938	4.1407	2.9241	4.3724	2.9922	4.0442	3.4778	-2.6166	-0.2281	-2.4226	-4.206	-4.1547	-3.3979	-1.0711	1.7982	2.4273	1.6937	1.6372	4.8941	2.7422	3.6223	3.4751	2.9098	5.4076	-0.5352	-0.3948	-1.7832	-3.4324	-2.3706	1.3575	1.5923
625	4.1672	2.9713	4.4275	3.0195	4.0217	3.4213	-2.5309	-0.2503	-2.475	-4.0907	-4.0745	-3.3329	-1.0202	1.8318	2.7729	1.7626	1.6797	4.9933	2.8235	3.6159	3.5231	2.9796	5.5792	-0.3309	-0.2722	-1.6557	-3.2658	-2.2359	1.4233	1.6958
628.9062	4.1753	3.039	4.4682	3.0725	3.9967	3.3559	-2.385	-0.2528	-2.4599	-3.8985	-3.9211	-3.2389	-0.9293	1.8673	3.0851	1.8436	1.7565	5.0418	2.9167	3.6141	3.5676	3.0771	5.7631	-0.1036	-0.1471	-1.4985	-3.0653	-2.075	1.4647	1.7827
632.8125	4.1819	3.1164	4.4914	3.1417	3.9637	3.2816	-2.2036	-0.2475	-2.3924	-3.6567	-3.7201	-3.1288	-0.8188	1.8865	3.3286	1.9176	1.857	5.0368	3.0023	3.6046	3.5884	3.1829	5.933	0.1218	-0.0383	-1.3276	-2.8496	-1.9026	1.482	1.8475
636.7188	4.1946	3.1858	4.4913	3.2109	3.9144	3.1959	-2.0158	-0.2473	-2.2943	-3.3995	-3.504	-3.0169	-0.7127	1.8716	3.4728	1.9613	1.9616	4.9779	3.058	3.5729	3.566	3.2724	6.0597	0.3205	0.0369	-1.1619	-2.6392	-1.736	1.4725	1.8815
640.625	4.2113	3.228	4.4622	3.2611	3.8396	3.0965	-1.8504	-0.2624	-2.189	-3.161	-3.305	-2.9161	-0.6329	1.8096	3.5006	1.9538	2.0466	4.8682	3.0643	3.5057	3.4859	3.3218	6.1182	0.4723	0.0679	-1.019	-2.4521	-1.5916	1.4326	1.8762
644.5312	4.2231	3.2278	4.4009	3.2757	3.7336	2.9831	-1.729	-0.2974	-2.0962	-2.9687	-3.1483	-2.8339	-0.5942	1.6957	3.4144	1.8824	2.0916	4.714	3.009	3.3962	3.343	3.3133	6.0948	0.566	0.055	-0.9101	-2.3005	-1.4808	1.3606	1.8268
648.4375	4.2188	3.1786	4.3095	3.2443	3.5956	2.858	-1.6634	-0.3512	-2.0288	-2.8391	-3.048	-2.7714	-0.6013	1.5355	3.2373	1.7466	2.0844	4.5252	2.8904	3.2463	3.1433	3.2397	5.9905	0.6012	0.0106	-0.8371	-2.1883	-1.4072	1.2594	1.7355
652.3438	4.1885	3.0832	4.1942	3.1657	3.4312	2.7257	-1.6543	-0.4181	-1.9927	-2.7765	-3.0059	-2.7238	-0.6479	1.3441	3.0089	1.5588	2.023	4.3146	2.7168	3.0669	2.903	3.1048	5.8213	0.5873	-0.0442	-0.7933	-2.1119	-1.3662	1.1379	1.6121
656.25	4.1265	2.9523	4.0643	3.0467	3.2507	2.5917	-1.694	-0.4909	-1.9887	-2.7757	-3.0144	-2.683	-0.7203	1.1428	2.7754	1.3408	1.9147	4.0967	2.5037	2.8752	2.6455	2.9228	5.6135	0.5395	-0.0868	-0.7662	-2.0631	-1.3468	1.0105	1.4735
660.1562	4.0327	2.8007	3.929	2.9001	3.0663	2.4604	-1.7705	-0.5632	-2.0145	-2.8255	-3.0602	-2.6419	-0.8021	0.9537	2.578	1.1188	1.7723	3.8857	2.2698	2.6907	2.3964	2.7138	5.3968	0.4742	-0.1002	-0.7429	-2.033	-1.3366	0.8943	1.3389
664.0625	3.9125	2.6427	3.7952	2.741	2.8892	2.334	-1.8716	-0.6313	-2.0667	-2.9137	-3.1294	-2.5977	-0.8788	0.7951	2.4423	0.9172	1.6108	3.6936	2.0331	2.5302	2.1785	2.4997	5.1968	0.404	-0.0783	-0.7148	-2.0158	-1.326	0.8046	1.2266
667.9688	3.7771	2.4902	3.6667	2.5838	2.7277	2.2131	-1.9877	-0.6946	-2.1411	-3.0291	-3.2097	-2.5533	-0.9415	0.6779	2.3723	0.7542	1.4438	3.5288	1.8081	2.4049	2.0085	2.3	5.0296	0.3351	-0.0274	-0.6809	-2.0102	-1.3114	0.7519	1.1487
671.875	3.6407	2.3509	3.5442	2.4399	2.5859	2.0971	-2.1123	-0.7546	-2.2323	-3.1627	-3.2921	-2.5163	-0.9877	0.604	2.3511	0.6389	1.2819	3.3955	1.6051	2.3183	1.8946	2.1284	4.899	0.2679	0.0363	-0.6466	-2.0184	-1.2959	0.7383	1.1094
675.7812	3.5183	2.2292	3.4269	2.3166	2.4641	1.9863	-2.2406	-0.8132	-2.3325	-3.3064	-3.3696	-2.4959	-1.0197	0.5679	2.3477	0.5711	1.1315	3.2937	1.4291	2.2665	1.8361	1.9915	4.7975	0.1991	0.0922	-0.6215	-2.0436	-1.2864	0.7574	1.104
679.6875	3.421	2.127	3.3133	2.217	2.3598	1.8819	-2.3676	-0.871	-2.4313	-3.4513	-3.4366	-2.499	-1.0415	0.5592	2.3275	0.543	0.9957	3.219	1.2806	2.2394	1.8248	1.8882	4.7107	0.1256	0.1207	-0.6139	-2.0856	-1.2898	0.7952	1.1204
683.5938	3.3529	2.0432	3.2013	2.1398	2.2686	1.7856	-2.4859	-0.9269	-2.5173	-3.5857	-3.4871	-2.5257	-1.0552	0.5665	2.2617	0.541	0.8746	3.1627	1.1553	2.2235	1.8472	1.8113	4.6225	0.0483	0.1088	-0.6276	-2.1393	-1.3087	0.8326	1.1415
687.5	3.3078	1.9743	3.0882	2.0797	2.185	1.6977	-2.5851	-0.9775	-2.579	-3.6946	-3.514	-2.5684	-1.0587	0.5805	2.1335	0.5492	0.7661	3.1116	1.0455	2.2038	1.8878	1.7502	4.5209	-0.0264	0.0525	-0.6594	-2.1932	-1.3397	0.8488	1.1483
691.4062	3.2703	1.9131	2.9699	2.0276	2.1032	1.6161	-2.6527	-1.0185	-2.6063	-3.7603	-3.5091	-2.6117	-1.0454	0.5955	1.9401	0.5513	0.6669	3.049	0.9407	2.1674	1.9314	1.6934	4.4022	-0.0864	-0.0428	-0.6996	-2.2313	-1.3737	0.8245	1.1234
695.3125	3.218	1.8485	2.8412	1.9721	2.0172	1.535	-2.6754	-1.0455	-2.5927	-3.7644	-3.4641	-2.6366	-1.0059	0.61	1.6909	0.533	0.5729	2.9572	0.8301	2.1045	1.9657	1.6317	4.272	-0.1171	-0.1629	-0.7341	-2.236	-1.3983	0.7459	1.0535
699.2188	3.1282	1.7673	2.6969	1.9017	1.9222	1.4466	-2.6429	-1.0552	-2.5359	-3.6916	-3.3734	-2.6243	-0.931	0.6252	1.4038	0.4837	0.4799	2.8207	0.7044	2.0109	1.9824	1.5596	4.1442	-0.1041	-0.2879	-0.748	-2.1919	-1.4015	0.6072	0.9319
703.125	2.9836	1.657	2.5329	1.8071	1.8148	1.3426	-2.5502	-1.0469	-2.4391	-3.5336	-3.2354	-2.5619	-0.8157	0.6432	1.1008	0.3988	0.3844	2.6303	0.5587	1.8885	1.978	1.4756	4.0366	-0.0378	-0.3957	-0.7288	-2.0891	-1.3751	0.4125	0.7601
707.0312	2.7782	1.5091	2.3483	1.6838	1.6939	1.2171	-2.4002	-1.0225	-2.3106	-3.2923	-3.0552	-2.4446	-0.6619	0.6649	0.8047	0.2805	0.2845	2.3867	0.3936	1.7457	1.9532	1.3821	3.9663	0.0842	-0.4654	-0.6688	-1.9256	-1.3158	0.1751	0.547
710.9375	2.5203	1.3225	2.1457	1.5331	1.5609	1.0681	-2.2042	-0.9865	-2.164	-2.9817	-2.8442	-2.2766	-0.4789	0.6898	0.5356	0.1383	0.1809	2.1034	0.2166	1.5967	1.9123	1.284	3.9458	0.2561	-0.4811	-0.5662	-1.7077	-1.225	-0.0855	0.3079
714.8438	2.2313	1.1054	1.9312	1.3623	1.4198	0.8982	-1.9806	-0.9457	-2.0157	-2.6268	-2.6195	-2.069	-0.282	0.7149	0.3091	-0.012	0.0779	1.8061	0.0408	1.4592	1.8618	1.1874	3.9799	0.4651	-0.4331	-0.4245	-1.4484	-1.106	-0.3468	0.0613
718.75	1.941	0.8747	1.7141	1.1825	1.276	0.7145	-1.752	-0.9073	-1.8829	-2.2595	-2.4001	-1.8366	-0.0894	0.736	0.1344	-0.1509	-0.0168	1.53	-0.1177	1.3516	1.8094	1.0988	4.0644	0.6937	-0.3193	-0.2515	-1.1653	-0.9624	-0.588	-0.1735
722.6562	1.6807	0.6532	1.5052	1.0064	1.1359	0.5267	-1.5404	-0.8777	-1.7793	-1.9132	-2.203	-1.5944	0.082	0.7489	0.0132	-0.2592	-0.0933	1.3139	-0.2433	1.2882	1.7618	1.0241	4.1865	0.9234	-0.1449	-0.0571	-0.8769	-0.797	-0.7932	-0.3801
726.5625	1.4747	0.4647	1.3154	0.8454	1.0057	0.3461	-1.3627	-0.8611	-1.712	-1.6154	-2.0386	-1.3548	0.2203	0.7499	-0.0601	-0.3223	-0.1418	1.1922	-0.3243	1.2763	1.7245	0.9685	4.3267	1.1379	0.0778	0.1481	-0.5995	-0.612	-0.9544	-0.5474
730.4688	1.3348	0.3295	1.154	0.7078	0.89	0.1832	-1.2271	-0.8585	-1.6799	-1.3833	-1.909	-1.1263	0.3211	0.7376	-0.097	-0.333	-0.1551	1.1856	-0.3555	1.314	1.7004	0.9357	4.4629	1.3255	0.3303	0.3537	-0.3448	-0.4104	-1.0723	-0.6717
734.375	1.2574	0.2596	1.0265	0.5974	0.7914	0.0462	-1.1324	-0.8682	-1.6739	-1.2206	-1.8088	-0.9135	0.3877	0.7129	-0.1128	-0.2937	-0.1305	1.2954	-0.3388	1.39	1.6899	0.9281	4.5747	1.4806	0.5897	0.5509	-0.1184	-0.1976	-1.1556	-0.7565
738.2812	1.226	0.2564	0.9329	0.514	0.7098	-0.0597	-1.0692	-0.8858	-1.6802	-1.1191	-1.7283	-0.7187	0.4296	0.6789	-0.1234	-0.2151	-0.0712	1.5002	-0.2827	1.486	1.6908	0.9454	4.6471	1.6035	0.832	0.7323	0.0792	0.018	-1.2186	-0.8117
742.1875	1.2158	0.3109	0.8677	0.4535	0.6426	-0.1333	-1.0239	-0.9061	-1.6836	-1.0622	-1.6571	-0.5435	0.4592	0.6396	-0.1433	-0.1144	0.0136	1.7589	-0.2005	1.5804	1.698	0.9837	4.6736	1.6983	1.0355	0.8924	0.251	0.2247	-1.2779	-0.8512
746.0938	1.2011	0.4058	0.82	0.4096	0.5851	-0.1774	-0.9827	-0.9227	-1.6711	-1.0305	-1.5874	-0.3896	0.488	0.5992	-0.1834	-0.0114	0.1103	2.0181	-0.1091	1.6521	1.7046	1.0356	4.6567	1.7711	1.1842	1.0269	0.4005	0.4087	-1.3483	-0.8892
750	1.1609	0.519	0.7766	0.3747	0.5321	-0.1977	-0.936	-0.9299	-1.634	-1.0067	-1.5148	-0.2595	0.5235	0.5611	-0.2504	0.0747	0.2026	2.2234	-0.0262	1.6845	1.7026	1.091	4.6063	1.8276	1.2705	1.1328	0.5304	0.557	-1.4388	-0.937
753.9062	1.0835	0.6279	0.7249	0.3417	0.4792	-0.2019	-0.8796	-0.9229	-1.5685	-0.9788	-1.4387	-0.1552	0.568	0.5273	-0.3459	0.1298	0.2753	2.3314	0.0325	1.6684	1.6852	1.1394	4.5374	1.8718	1.2968	1.2089	0.6409	0.6602	-1.5501	-0.9996
757.8125	0.9676	0.7141	0.6566	0.3058	0.4244	-0.1973	-0.8152	-0.8993	-1.476	-0.942	-1.3614	-0.0776	0.6187	0.4985	-0.4655	0.1466	0.3171	2.3197	0.0562	1.604	1.649	1.1726	4.4663	1.9054	1.2741	1.2557	0.7299	0.7145	-1.6742	-1.0748
761.7188	0.8222	0.7665	0.5702	0.2651	0.3691	-0.1896	-0.749	-0.8603	-1.3625	-0.8981	-1.287	-0.0259	0.6687	0.4751	-0.5994	0.1263	0.3231	2.1918	0.0414	1.5006	1.5959	1.1868	4.4066	1.9277	1.2207	1.2747	0.7938	0.7225	-1.7959	-1.1536
765.625	0.6639	0.7829	0.4724	0.222	0.3183	-0.1814	-0.6899	-0.8115	-1.2393	-0.8544	-1.2226	0.001	0.7091	0.4569	-0.7331	0.0776	0.2957	1.9754	-0.0079	1.375	1.5335	1.1828	4.366	1.9366	1.1586	1.2684	0.8279	0.692	-1.8964	-1.2227
769.5312	0.513	0.7692	0.377	0.1826	0.2793	-0.1718	-0.6475	-0.7631	-1.1211	-0.8216	-1.1783	0.003	0.7308	0.4437	-0.8501	0.0146	0.2435	1.7147	-0.0812	1.2478	1.4745	1.1649	4.344	1.9285	1.1107	1.2392	0.8278	0.6331	-1.9572	-1.268
773.4375	0.3898	0.7371	0.302	0.1559	0.2607	-0.1563	-0.6299	-0.7279	-1.0254	-0.8122	-1.1682	-0.0222	0.7267	0.435	-0.9339	-0.0467	0.1784	1.4597	-0.1645	1.1399	1.4339	1.139	4.3315	1.9003	1.0981	1.1897	0.7902	0.5563	-1.9633	-1.2773
777.3438	0.3105	0.7008	0.2659	0.1516	0.27	-0.128	-0.6419	-0.7191	-0.969	-0.8373	-1.2074	-0.0787	0.6928	0.4305	-0.9707	-0.0919	0.1125	1.255	-0.2441	1.0686	1.4261	1.1106	4.313	1.8497	1.1378	1.1238	0.7141	0.4711	-1.9054	-1.243
781.25	0.2842	0.673	0.2835	0.1779	0.312	-0.0794	-0.6845	-0.7467	-0.9641	-0.904	-1.3088	-0.1702	0.6294	0.4304	-0.9511	-0.1102	0.0552	1.1315	-0.3093	1.0447	1.4622	1.0835	4.2716	1.777	1.2407	1.0463	0.6019	0.3855	-1.7809	-1.1627
785.1562	0.3114	0.6626	0.3618	0.2398	0.3879	-0.0049	-0.7542	-0.8151	-1.0154	-1.0137	-1.4784	-0.2975	0.5407	0.4346	-0.872	-0.0971	0.0119	1.1019	-0.3544	1.071	1.5468	1.0599	4.1939	1.6848	1.41	0.9631	0.4596	0.3053	-1.5943	-1.0391
789.0625	0.3847	0.6733	0.4983	0.3362	0.494	0.0967	-0.8445	-0.9217	-1.1185	-1.1616	-1.7121	-0.4569	0.4334	0.443	-0.7382	-0.0538	-0.0166	1.1606	-0.3792	1.1423	1.677	1.0406	4.0744	1.578	1.6398	0.8792	0.2957	0.234	-1.3561	-0.8796
792.9688	0.4904	0.7036	0.6802	0.4603	0.6226	0.2216	-0.9474	-1.0576	-1.26	-1.3373	-1.9951	-0.6403	0.3153	0.4549	-0.5632	0.013	-0.0328	1.287	-0.3872	1.2462	1.8425	1.0255	3.9175	1.4622	1.9151	0.7976	0.1194	0.1719	-1.0825	-0.6954
796.875	0.6112	0.7477	0.8872	0.5999	0.7628	0.3603	-1.0547	-1.2095	-1.421	-1.5271	-2.3038	-0.8354	0.1937	0.4684	-0.3676	0.0932	-0.0408	1.4511	-0.3848	1.3666	2.0271	1.014	3.7366	1.3427	2.2134	0.7188	-0.0607	0.1164	-0.7933	-0.5
