FP1,F3,F7,FC3,C3,C5,P3,P7,PO7,PO3,O1,Oz,Pz,CPz,FP2,Fz,F4,F8,FC4,FCz,Cz,C4,C6,P4,P8,PO8,PO4,O2,(corr) HEOG,(corr) VEOG
-1.6549,-1.4353,-1.3949,-1.9327,-1.4115,-1.1992,-1.1365,-0.5725,-0.8008,-0.6963,-0.4361,-0.5253,-1.0205,-1.0432,-1.3132,-1.8023,-1.3672,-1.3931,-1.5226,-1.7428,-1.5961,-0.4068,-0.382,-0.2495,0.1088,-0.095,-0.4175,-0.3029,-0.2127,0.8611
-1.4257,-1.5701,-1.3171,-1.9227,-1.3392,-1.0314,-1.0308,-0.4819,-0.6884,-0.619,-0.3734,-0.4693,-1.05,-1.106,-1.2926,-1.8646,-1.455,-1.4943,-1.6072,-1.7637,-1.6096,-0.6073,-0.5232,-0.3788,0.0599,-0.1296,-0.5126,-0.3666,-0.1604,0.7963
-1.1999,-1.6674,-1.2277,-1.8891,-1.2529,-0.8662,-0.9193,-0.3901,-0.5762,-0.5343,-0.3055,-0.4073,-1.0575,-1.1436,-1.2505,-1.888,-1.5104,-1.5655,-1.6551,-1.7523,-1.5928,-0.7673,-0.6401,-0.4867,0.022,-0.1544,-0.5865,-0.4118,-0.1094,0.7269
-0.9812,-1.6952,-1.1181,-1.8129,-1.1421,-0.7074,-0.7959,-0.2979,-0.4659,-0.4363,-0.2278,-0.3352,-1.025,-1.1354,-1.171,-1.8418,-1.5078,-1.5816,-1.6376,-1.6834,-1.5219,-0.8569,-0.714,-0.5563,0.0035,-0.1619,-0.6227,-0.4229,-0.0615,0.6484
-0.773,-1.6338,-0.984,-1.6833,-1.0022,-0.5596,-0.6575,-0.2074,-0.36,-0.3227,-0.1384,-0.2516,-0.9423,-1.0685,-1.046,-1.7096,-1.4329,-1.5275,-1.5385,-1.5432,-1.3835,-0.8591,-0.7339,-0.5776,0.0082,-0.148,-0.6121,-0.3917,-0.0187,0.558
-0.5791,-1.4797,-0.827,-1.4998,-0.8358,-0.428,-0.5049,-0.1219,-0.2616,-0.195,-0.0384,-0.1591,-0.8087,-0.9405,-0.8774,-1.492,-1.2859,-1.4004,-1.3576,-1.3323,-1.1777,-0.7732,-0.6977,-0.5487,0.0345,-0.1136,-0.5548,-0.3192,0.0173,0.4552
-0.4041,-1.2453,-0.6544,-1.2725,-0.6524,-0.318,-0.3423,-0.0453,-0.174,-0.0586,0.068,-0.0631,-0.6327,-0.7595,-0.6768,-1.2058,-1.0802,-1.2098,-1.1095,-1.0653,-0.918,-0.6139,-0.6124,-0.4762,0.0761,-0.0631,-0.4589,-0.2137,0.0452,0.3427
-0.2539,-0.9563,-0.4786,-1.0194,-0.4664,-0.2343,-0.1773,0.0179,-0.0999,0.0781,0.175,0.0295,-0.4303,-0.543,-0.463,-0.8804,-0.839,-0.975,-0.8198,-0.7678,-0.6283,-0.4083,-0.4921,-0.3728,0.1238,-0.0036,-0.339,-0.0894,0.0641,0.2256
-0.1342,-0.6457,-0.3135,-0.762,-0.2938,-0.1793,-0.0189,0.0638,-0.041,0.2049,0.2757,0.112,-0.2214,-0.3144,-0.2582,-0.5503,-0.59,-0.7211,-0.5203,-0.4704,-0.3378,-0.1897,-0.3554,-0.2547,0.1677,0.0569,-0.2119,0.0383,0.0733,0.1109
-0.0496,-0.3465,-0.1721,-0.5217,-0.1491,-0.153,0.1231,0.0898,0.002,0.3113,0.363,0.1786,-0.0272,-0.0988,-0.083,-0.2489,-0.3597,-0.4743,-0.2422,-0.2027,-0.0758,0.0079,-0.2217,-0.1384,0.1996,0.1113,-0.0942,0.1551,0.0726,0.006
-0.0017,-0.0866,-0.0643,-0.316,-0.0433,-0.1523,0.2387,0.0945,0.0282,0.3873,0.4296,0.2252,0.1335,0.0811,0.0478,-0.0025,-0.1684,-0.2576,-0.0113,0.0113,0.1334,0.1561,-0.1078,-0.0383,0.2147,0.1541,0.0008,0.2502,0.0623,-0.0819
0.0111,0.1152,0.0046,-0.157,0.017,-0.1727,0.3189,0.0783,0.0373,0.425,0.4685,0.2492,0.2458,0.2077,0.1268,0.1732,-0.0282,-0.0874,0.1558,0.1573,0.2738,0.2368,-0.0253,0.0355,0.2113,0.1811,0.0644,0.3173,0.0434,-0.1474
-0.0072,0.2495,0.0336,-0.0515,0.0297,-0.209,0.3562,0.043,0.029,0.4193,0.4736,0.2493,0.3011,0.2715,0.1546,0.2734,0.0581,0.0279,0.2532,0.2308,0.3392,0.2443,0.0215,0.078,0.1913,0.1899,0.0936,0.3538,0.0183,-0.1869
-0.0501,0.3158,0.0254,-0.0012,-0.0029,-0.2562,0.3474,-0.0077,0.0046,0.3696,0.4412,0.2259,0.2982,0.2721,0.1379,0.303,0.0952,0.0885,0.2859,0.2372,0.3335,0.1863,0.0361,0.0901,0.1587,0.1795,0.0907,0.3608,-0.0101,-0.1988
-0.1101,0.3207,-0.0137,-0.0021,-0.0742,-0.3098,0.2946,-0.0681,-0.0323,0.2806,0.3714,0.1812,0.2442,0.2184,0.0873,0.2746,0.0936,0.1022,0.2679,0.1893,0.2697,0.0816,0.029,0.0786,0.1189,0.1503,0.0629,0.3418,-0.0385,-0.184
-0.1781,0.2768,-0.0741,-0.0454,-0.1725,-0.3645,0.2075,-0.1314,-0.0753,0.1628,0.2696,0.1196,0.1538,0.1275,0.0154,0.2058,0.0672,0.0823,0.2198,0.1052,0.1672,-0.0435,0.015,0.0552,0.0783,0.1047,0.0206,0.3021,-0.0638,-0.1459
-0.244,0.2011,-0.1435,-0.1171,-0.2817,-0.4137,0.1032,-0.1896,-0.1151,0.0315,0.1461,0.0472,0.0473,0.0218,-0.0644,0.1162,0.0309,0.0455,0.1648,0.0057,0.0498,-0.1608,0.0097,0.0337,0.0423,0.0465,-0.0242,0.248,-0.0836,-0.0911
-0.2967,0.1143,-0.207,-0.1985,-0.382,-0.4487,0.0039,-0.234,-0.1409,-0.0946,0.0161,-0.028,-0.0522,-0.0738,-0.1388,0.0264,-0.0002,0.0093,0.1258,-0.088,-0.0582,-0.2456,0.0266,0.0275,0.0153,-0.0188,-0.0601,0.1861,-0.0965,-0.0289
-0.3255,0.0384,-0.2489,-0.2681,-0.4515,-0.4589,-0.0664,-0.2566,-0.1424,-0.1964,-0.1029,-0.0966,-0.1229,-0.1365,-0.1953,-0.0445,-0.0129,-0.0107,0.1213,-0.1564,-0.1346,-0.2804,0.0735,0.0465,-0.0008,-0.0845,-0.078,0.1233,-0.1015,0.03
-0.3218,-0.0063,-0.2553,-0.3046,-0.4702,-0.4341,-0.0864,-0.2503,-0.1119,-0.2567,-0.1932,-0.1484,-0.1475,-0.1495,-0.2227,-0.0806,0.0039,-0.004,0.1631,-0.1838,-0.1624,-0.2585,0.1513,0.0951,-0.0063,-0.1439,-0.0724,0.0661,-0.0982,0.0744
-0.2811,-0.0047,-0.2166,-0.291,-0.4239,-0.3666,-0.042,-0.2105,-0.046,-0.2641,-0.2402,-0.1733,-0.1169,-0.1047,-0.2134,-0.0714,0.0566,0.033,0.2545,-0.1608,-0.1327,-0.1843,0.2535,0.1703,-0.0039,-0.19,-0.0417,0.0209,-0.0864,0.0957
-0.2057,0.0491,-0.1305,-0.2183,-0.3076,-0.2538,0.0703,-0.1364,0.0532,-0.2149,-0.2352,-0.1634,-0.0319,-0.0053,-0.1655,-0.014,0.1462,0.0952,0.3893,-0.0861,-0.046,-0.0728,0.3672,0.2626,0.0018,-0.2178,0.0115,-0.0071,-0.0661,0.0892
-0.1051,0.1507,-0.003,-0.0882,-0.1275,-0.0996,0.2423,-0.0315,0.1781,-0.1145,-0.1773,-0.1146,0.0968,0.1353,-0.0839,0.0852,0.2662,0.1703,0.5525,0.0326,0.0871,0.0541,0.4755,0.3576,0.0053,-0.2239,0.0817,-0.0142,-0.0388,0.0561
0.0051,0.2861,0.152,0.0877,0.099,0.0852,0.4537,0.0958,0.3164,0.0229,-0.0748,-0.0291,0.2502,0.2952,0.0192,0.2114,0.4026,0.2409,0.7217,0.179,0.2473,0.1719,0.5603,0.4386,0.0011,-0.2082,0.1605,0.0005,-0.007,0.0031
0.1055,0.4336,0.315,0.2895,0.3459,0.2849,0.6757,0.2328,0.4527,0.176,0.056,0.0842,0.4036,0.4482,0.1265,0.343,0.5358,0.2883,0.8708,0.3303,0.4097,0.2583,0.6056,0.4898,-0.0154,-0.1745,0.2377,0.0342,0.0251,-0.0589
0.1774,0.5676,0.4635,0.4922,0.5827,0.4803,0.8741,0.3639,0.5699,0.3198,0.1926,0.2088,0.5306,0.5678,0.2185,0.4549,0.6428,0.2967,0.9731,0.4605,0.5475,0.2964,0.5992,0.4983,-0.0475,-0.13,0.3016,0.0789,0.0529,-0.117
0.2062,0.6633,0.5765,0.67,0.7787,0.6523,1.0152,0.4722,0.6516,0.4293,0.3096,0.323,0.6075,0.6319,0.2774,0.5237,0.7019,0.2566,1.0062,0.5449,0.636,0.2776,0.5353,0.4564,-0.0967,-0.0856,0.3397,0.1222,0.0718,-0.1593
0.1847,0.7005,0.6369,0.8001,0.9085,0.784,1.0713,0.5422,0.684,0.4836,0.3834,0.4033,0.6164,0.6261,0.2902,0.5311,0.6965,0.1667,0.9555,0.5642,0.6573,0.2016,0.4144,0.3619,-0.1625,-0.0531,0.341,0.1491,0.0789,-0.1773
0.1138,0.6673,0.6351,0.8666,0.9556,0.8627,1.0258,0.5619,0.6579,0.4698,0.3957,0.4291,0.5491,0.5464,0.2515,0.4686,0.6196,0.0345,0.8179,0.509,0.6034,0.0768,0.2445,0.2198,-0.2419,-0.0434,0.2977,0.145,0.0728,-0.1672
0.0027,0.5626,0.5696,0.8627,0.9148,0.881,0.8769,0.5253,0.5702,0.3845,0.3378,0.3872,0.4083,0.3999,0.1645,0.3391,0.4754,-0.1243,0.6028,0.3817,0.4781,-0.0817,0.0403,0.0415,-0.329,-0.0628,0.2077,0.0998,0.0545,-0.1306
-0.1336,0.3964,0.4475,0.7913,0.7921,0.8374,0.6379,0.4336,0.4248,0.235,0.2114,0.2753,0.2075,0.2033,0.0407,0.1574,0.2799,-0.2886,0.3315,0.1965,0.2961,-0.2537,-0.1776,-0.156,-0.4149,-0.1113,0.0768,0.0108,0.0267,-0.0732
-0.2758,0.1886,0.2834,0.6636,0.6037,0.736,0.3353,0.295,0.2325,0.0377,0.0288,0.1027,-0.0301,-0.0195,-0.1024,-0.053,0.0575,-0.4352,0.0337,-0.0226,0.081,-0.4166,-0.3851,-0.3516,-0.4888,-0.1814,-0.0817,-0.1151,-0.0071,-0.004
-0.4041,-0.0347,0.0967,0.4973,0.3728,0.5862,0.0044,0.1239,0.0105,-0.1847,-0.1889,-0.1107,-0.2757,-0.2412,-0.2441,-0.2632,-0.1624,-0.5423,-0.2568,-0.2461,-0.139,-0.5487,-0.558,-0.5232,-0.5389,-0.2598,-0.2483,-0.2623,-0.043,0.0673
-0.5001,-0.2449,-0.0902,0.3139,0.1271,0.4027,-0.3164,-0.0611,-0.2199,-0.4059,-0.4156,-0.3372,-0.4982,-0.4344,-0.3638,-0.444,-0.3505,-0.5928,-0.507,-0.4433,-0.3353,-0.6318,-0.6753,-0.6503,-0.5544,-0.3292,-0.4003,-0.4087,-0.0776,0.1311
-0.5495,-0.4143,-0.2544,0.1374,-0.104,0.2044,-0.5914,-0.2399,-0.4355,-0.5993,-0.6231,-0.5459,-0.6684,-0.5752,-0.4439,-0.5698,-0.4816,-0.5763,-0.6893,-0.5864,-0.4818,-0.6524,-0.722,-0.7165,-0.5272,-0.3722,-0.5149,-0.5296,-0.1086,0.1797
-0.5427,-0.5195,-0.3751,-0.0083,-0.2916,0.0135,-0.7922,-0.3933,-0.6141,-0.7418,-0.7857,-0.7074,-0.7628,-0.6451,-0.4717,-0.6215,-0.5384,-0.4903,-0.784,-0.6534,-0.5581,-0.6035,-0.6913,-0.7117,-0.4537,-0.3746,-0.5726,-0.6026,-0.1347,0.2071
-0.4756,-0.5439,-0.4353,-0.1011,-0.4112,-0.1468,-0.9015,-0.5054,-0.7376,-0.8158,-0.8832,-0.7984,-0.766,-0.6329,-0.44,-0.5883,-0.5127,-0.3392,-0.7819,-0.6303,-0.5514,-0.485,-0.5856,-0.6328,-0.336,-0.3282,-0.5606,-0.6117,-0.1553,0.2096
-0.3493,-0.4802,-0.424,-0.1241,-0.4455,-0.2559,-0.9146,-0.5661,-0.7945,-0.8123,-0.9035,-0.8051,-0.6736,-0.5367,-0.348,-0.4686,-0.407,-0.1341,-0.6848,-0.5127,-0.4578,-0.3038,-0.4161,-0.4851,-0.1824,-0.2327,-0.4744,-0.5504,-0.1705,0.1857
-0.17,-0.3312,-0.3386,-0.0686,-0.3883,-0.2992,-0.8387,-0.5718,-0.7805,-0.7316,-0.8447,-0.7254,-0.4933,-0.3644,-0.2006,-0.2702,-0.2337,0.1088,-0.5057,-0.3075,-0.2835,-0.0738,-0.2014,-0.2815,-0.0066,-0.0959,-0.3197,-0.423,-0.1802,0.1363
0.0519,-0.1109,-0.1853,0.0628,-0.2469,-0.2717,-0.6913,-0.5254,-0.6992,-0.5836,-0.7147,-0.5688,-0.2443,-0.1342,-0.0086,-0.0101,-0.013,0.3702,-0.2672,-0.0323,-0.0454,0.1851,0.0346,-0.042,0.1735,0.0672,-0.1118,-0.2441,-0.1837,0.0644
0.3017,0.1566,0.0197,0.2547,-0.0417,-0.1794,-0.4972,-0.4355,-0.5606,-0.3866,-0.53,-0.3552,0.0442,0.1272,0.2124,0.2876,0.2294,0.6296,0.0012,0.2857,0.2301,0.4484,0.266,0.208,0.3382,0.2371,0.126,-0.0364,-0.1794,-0.0244
0.5611,0.4402,0.2527,0.4811,0.1962,-0.0391,-0.2844,-0.3139,-0.3792,-0.1644,-0.313,-0.1115,0.3373,0.3881,0.4433,0.5937,0.4669,0.8679,0.2677,0.6128,0.5102,0.69,0.468,0.4402,0.4685,0.3924,0.3651,0.1734,-0.1644,-0.1229
0.8097,0.7062,0.4857,0.7105,0.4315,0.1254,-0.0793,-0.1732,-0.1717,0.0577,-0.0884,0.1325,0.5995,0.6166,0.6645,0.8788,0.6758,1.0701,0.5031,0.914,0.7606,0.8852,0.6205,0.627,0.5484,0.5131,0.5758,0.358,-0.1351,-0.2229
1.0273,0.9247,0.6914,0.912,0.632,0.2883,0.0971,-0.0245,0.0452,0.2571,0.1213,0.3489,0.8011,0.7865,0.8583,1.1178,0.8394,1.2274,0.6861,1.1593,0.9514,1.015,0.7105,0.7454,0.5675,0.5837,0.7323,0.4944,-0.0881,-0.3169
1.1977,1.0747,0.8483,1.0624,0.7754,0.4271,0.2324,0.1239,0.2566,0.4174,0.2982,0.5157,0.9232,0.8829,1.0125,1.2948,0.9504,1.3385,0.807,1.3294,1.0633,1.069,0.7344,0.782,0.5227,0.5958,0.8165,0.5669,-0.0207,-0.399
1.3122,1.1493,0.9455,1.1502,0.854,0.5275,0.3241,0.2665,0.4504,0.5307,0.4323,0.6198,0.9617,0.9053,1.123,1.4066,1.0125,1.4088,0.8696,1.4199,1.0919,1.0482,0.6987,0.7355,0.4188,0.5497,0.8217,0.5699,0.0676,-0.4662
1.3726,1.1573,0.9852,1.1782,0.8756,0.5864,0.3793,0.4007,0.6185,0.5983,0.5221,0.6592,0.9278,0.8685,1.1947,1.4635,1.0398,1.4503,0.8904,1.4427,1.0492,0.9663,0.6196,0.6187,0.2689,0.4546,0.7538,0.5082,0.1744,-0.5191
1.3922,1.1223,0.9825,1.1626,0.8618,0.612,0.4122,0.5257,0.757,0.6293,0.5735,0.6415,0.8453,0.7998,1.2408,1.4884,1.0541,1.4786,0.8958,1.4246,0.9616,0.8484,0.521,0.4575,0.0932,0.3277,0.6306,0.3964,0.294,-0.5614
1.3939,1.0785,0.9625,1.1294,0.8423,0.6213,0.4398,0.6416,0.8651,0.6378,0.5979,0.5824,0.7458,0.7331,1.2799,1.5109,1.0805,1.5111,0.9159,1.4006,0.8643,0.7271,0.4305,0.2863,-0.0844,0.1908,0.4781,0.2558,0.4179,-0.5994
1.4047,1.0614,0.9532,1.1075,0.8463,0.6345,0.4773,0.7481,0.9443,0.6383,0.6082,0.5007,0.6611,0.7006,1.3316,1.5604,1.1417,1.5623,0.9776,1.4063,0.7932,0.636,0.374,0.1413,-0.2395,0.0668,0.3257,0.1099,0.5361,-0.6396
1.4476,1.0982,0.9775,1.1203,0.8941,0.6682,0.5327,0.8429,0.9962,0.6419,0.6142,0.4139,0.6152,0.7241,1.4108,1.6569,1.2511,1.641,1.0972,1.467,0.7746,0.6012,0.3693,0.0522,-0.3518,-0.0255,0.1998,-0.0203,0.6383,-0.687
1.534,1.1985,1.0455,1.1773,0.9902,0.7291,0.6039,0.9209,1.0206,0.6522,0.6198,0.3338,0.618,0.8083,1.5223,1.8044,1.4083,1.7467,1.2751,1.5899,0.8184,0.6349,0.4218,0.0351,-0.4089,-0.0745,0.1186,-0.1202,0.716,-0.7427
1.6586,1.3505,1.1499,1.2698,1.1202,0.8114,0.6778,0.9738,1.0144,0.6637,0.6205,0.2638,0.6631,0.9384,1.6583,1.9874,1.5969,1.8694,1.4941,1.7602,0.9136,0.731,0.5219,0.0889,-0.4078,-0.0779,0.0883,-0.1836,0.7633,-0.8029
1.7996,1.523,1.2677,1.3728,1.2544,0.8977,0.7325,0.9913,0.9712,0.6629,0.605,0.1988,0.7285,1.0828,1.7992,2.1735,1.7875,1.991,1.7217,1.9435,1.031,0.8665,0.6478,0.195,-0.3553,-0.0421,0.103,-0.2134,0.7771,-0.8598
1.9239,1.6742,1.3662,1.4526,1.3561,0.9646,0.7422,0.9624,0.8835,0.6311,0.5577,0.1273,0.7831,1.2006,1.9178,2.3209,1.9432,2.089,1.9175,2.094,1.1303,1.0081,0.7704,0.3236,-0.2652,0.0208,0.1469,-0.2191,0.7571,-0.9024
1.9961,1.7636,1.4126,1.4774,1.3921,0.99,0.685,0.8795,0.7451,0.5506,0.4638,0.0362,0.7952,1.2526,1.9863,2.3897,2.03,2.1433,2.0424,2.168,1.1717,1.122,0.8619,0.4413,-0.1541,0.0971,0.2002,-0.2133,0.705,-0.9204
1.9894,1.764,1.3847,1.429,1.3435,0.9605,0.5493,0.7404,0.5547,0.4098,0.3144,-0.0847,0.7425,1.2125,1.9849,2.3536,2.0251,2.1411,2.0688,2.1362,1.1279,1.184,0.9026,0.5206,-0.0373,0.1751,0.2448,-0.2083,0.6239,-0.9062
1.8943,1.6701,1.2778,1.3096,1.2119,0.8763,0.3396,0.5515,0.3186,0.2091,0.1106,-0.2376,0.6185,1.0754,1.9084,2.2088,1.9253,2.0822,1.9882,1.9945,0.9939,1.1873,0.888,0.5473,0.0748,0.2483,0.27,-0.2118,0.5187,-0.8578
1.7233,1.5011,1.108,1.1427,1.0209,0.7523,0.0787,0.3286,0.0523,-0.0373,-0.1345,-0.4154,0.4364,0.8614,1.7695,1.9776,1.7493,1.9804,1.8153,1.7676,0.7909,1.1451,0.8296,0.5245,0.1787,0.3159,0.2752,-0.2258,0.3959,-0.78
1.5099,1.2971,0.9095,0.9686,0.8117,0.6158,-0.1955,0.0952,-0.2198,-0.3016,-0.3969,-0.6012,0.2272,0.6126,1.5981,1.7057,1.5353,1.8616,1.5863,1.505,0.5634,1.0869,0.7533,0.4707,0.2766,0.382,0.2701,-0.2456,0.2639,-0.6845
1.3017,1.1104,0.7278,0.8345,0.6348,0.5011,-0.4356,-0.1202,-0.4676,-0.5467,-0.6442,-0.7716,0.0335,0.385,1.4348,1.4528,1.3337,1.7586,1.3522,1.2713,0.3703,1.051,0.6928,0.4154,0.3743,0.4529,0.2717,-0.2621,0.1332,-0.5881
1.15,0.9937,0.6098,0.7838,0.539,0.4429,-0.5946,-0.2888,-0.6599,-0.7324,-0.8425,-0.9019,-0.0997,0.2365,1.323,1.2807,1.1964,1.7037,1.1691,1.1314,0.2712,1.0736,0.6819,0.3909,0.4777,0.5336,0.2994,-0.2643,0.0149,-0.5097
1.0975,0.9893,0.5938,0.8463,0.5612,0.469,-0.6358,-0.3863,-0.7699,-0.824,-0.9618,-0.971,-0.1341,0.2136,1.2984,1.239,1.1657,1.7215,1.0861,1.1356,0.313,1.1796,0.7455,0.4242,0.5893,0.6259,0.3696,-0.2426,-0.0803,-0.4666
1.1682,1.119,0.7003,1.0308,0.7181,0.5945,-0.541,-0.3978,-0.7811,-0.7992,-0.9835,-0.9666,-0.0478,0.3412,1.3812,1.3539,1.2638,1.8219,1.1346,1.308,0.5174,1.3753,0.8941,0.53,0.7068,0.7265,0.4908,-0.192,-0.1442,-0.4704
1.3618,1.3792,0.9276,1.3223,1.0014,0.8177,-0.3154,-0.3204,-0.6906,-0.6534,-0.9034,-0.8883,0.1606,0.6158,1.571,1.6219,1.488,1.998,1.3205,1.6392,0.8748,1.6458,1.12,0.7069,0.8217,0.8273,0.6612,-0.1137,-0.1722,-0.5247
1.6535,1.7405,1.2509,1.6838,1.3786,1.1192,0.0136,-0.1644,-0.5105,-0.4016,-0.7338,-0.7475,0.4703,1.0055,1.8464,2.0092,1.8101,2.2267,1.6218,2.0876,1.3445,1.9566,1.3982,0.9372,0.9213,0.9167,0.8673,-0.0157,-0.1641,-0.6237
1.9998,2.1532,1.6267,2.0628,1.7983,1.4643,0.4008,0.0488,-0.2656,-0.0754,-0.5003,-0.5657,0.8422,1.4557,2.169,2.4581,2.1816,2.473,1.9923,2.5869,1.8621,2.2601,1.6906,1.1899,0.9912,0.9822,1.0866,0.0885,-0.1241,-0.7532
2.3469,2.5565,2.0012,2.4015,2.1999,1.8091,0.7929,0.2904,0.011,0.2822,-0.2373,-0.3699,1.2261,1.9001,2.491,2.8979,2.5435,2.6969,2.3702,3.0591,2.3517,2.5046,1.9528,1.4268,1.0178,1.0124,1.2912,0.1822,-0.0596,-0.8937
2.6423,2.8907,2.3211,2.6485,2.5253,2.1091,1.1383,0.53,0.2838,0.6255,0.0192,-0.1878,1.5702,2.2739,2.7646,3.2597,2.8377,2.8615,2.6906,3.4303,2.7414,2.6445,2.1428,1.6101,0.9926,1,1.4533,0.2494,0.0198,-1.0241
2.8441,3.1092,2.5436,2.7694,2.7313,2.3274,1.3972,0.7402,0.521,0.9149,0.2385,-0.0421,1.8314,2.5267,2.9506,3.4891,3.0188,2.9402,2.8993,3.6452,2.9775,2.6506,2.23,1.711,0.9144,0.9437,1.5516,0.2781,0.1037,-1.1259
2.9281,3.1865,2.6444,2.7536,2.7971,2.4412,1.5479,0.9021,0.6999,1.1238,0.4008,0.0541,1.9832,2.6318,3.0253,3.5567,3.063,2.9226,2.9642,3.6775,3.0344,2.5174,2.2018,1.7156,0.7913,0.8499,1.576,0.2638,0.1826,-1.1864
2.8916,3.1224,2.6207,2.6149,2.727,2.4447,1.5896,1.0062,0.8098,1.2431,0.4994,0.0991,2.0203,2.5912,2.9847,3.4629,2.972,2.8169,2.8823,3.5343,2.9191,2.2654,2.0673,1.6292,0.6402,0.7326,1.5312,0.2113,0.2484,-1.2008
2.7519,2.9396,2.4899,2.3871,2.5476,2.3474,1.5396,1.0532,0.8515,1.2807,0.5408,0.1022,1.9588,2.4328,2.844,3.2364,2.7723,2.649,2.6801,3.2536,2.668,1.9381,1.856,1.4756,0.4851,0.6115,1.4356,0.1343,0.2958,-1.1725
2.5422,2.6781,2.2846,2.1156,2.2998,2.1708,1.4276,1.0509,0.8361,1.2573,0.5408,0.081,1.8309,2.2038,2.6344,2.9275,2.5092,2.4574,2.4072,2.8951,2.3386,1.5938,1.6121,1.2919,0.3529,0.5095,1.3187,0.0527,0.3226,-1.1118
2.3046,2.3863,2.0446,1.8473,2.0296,1.9427,1.2873,1.0111,0.7802,1.2005,0.5201,0.0562,1.6774,1.9594,2.3972,2.5974,2.2374,2.2857,2.1255,2.5286,1.9966,1.2936,1.3852,1.1212,0.2687,0.4484,1.2139,-0.0108,0.3291,-1.0337
2.0823,2.1117,1.81,1.6221,1.7785,1.6919,1.1488,0.9467,0.7025,1.1373,0.499,0.0475,1.5384,1.7516,2.1762,2.3067,2.01,2.1738,1.8957,2.2203,1.7038,1.09,1.2201,1.0034,0.2508,0.4453,1.1524,-0.0359,0.3182,-0.955
1.912,1.8931,1.6135,1.4669,1.577,1.4437,1.0335,0.8683,0.6194,1.0887,0.4927,0.0689,1.4456,1.6199,2.01,2.1041,1.869,2.1503,1.7654,2.0212,1.5068,1.017,1.1482,0.9674,0.3073,0.5092,1.1567,-0.0079,0.2942,-0.8906
1.8175,1.7554,1.4763,1.3931,1.4414,1.2167,0.9507,0.7838,0.5428,1.0663,0.5094,0.1268,1.417,1.5852,1.9253,2.0188,1.8383,2.2268,1.7607,1.9589,1.4302,1.0852,1.1818,1.0258,0.4343,0.6399,1.2363,0.0791,0.2619,-0.8514
1.8071,1.7067,1.4058,1.3974,1.3733,1.0214,0.899,0.6971,0.4788,1.0711,0.5489,0.2188,1.4545,1.648,1.933,2.0568,1.9205,2.3973,1.8828,2.0354,1.475,1.2819,1.313,1.1737,0.6165,0.8276,1.3868,0.221,0.2257,-0.8423
1.8737,1.7392,1.3969,1.4646,1.3625,0.8599,0.8683,0.6095,0.4289,1.0955,0.6042,0.3349,1.5461,1.7908,2.0271,2.202,2.099,2.6396,2.1103,2.2287,1.6208,1.5754,1.5163,1.3902,0.8304,1.0548,1.591,0.4049,0.1898,-0.8619
1.9984,1.8328,1.434,1.5721,1.3905,0.7275,0.8447,0.5208,0.3904,1.126,0.6633,0.4596,1.6689,1.9833,2.1877,2.4203,2.3414,2.9212,2.4047,2.4989,1.8325,1.9218,1.7538,1.643,1.0477,1.2983,1.8223,0.6108,0.1574,-0.9039
2.1542,1.9589,1.4955,1.6934,1.435,0.6154,0.8136,0.431,0.3592,1.1472,0.7127,0.5744,1.7949,2.1879,2.3845,2.6673,2.6066,3.2041,2.7179,2.7961,2.067,2.2723,1.9823,1.8935,1.2399,1.5321,2.0486,0.8145,0.1308,-0.9584
2.3114,2.0854,1.5575,1.8015,1.4726,0.5134,0.7636,0.3417,0.3311,1.1451,0.7397,0.6613,1.8955,2.3663,2.5824,2.8946,2.8503,3.4514,2.9999,3.0687,2.281,2.5792,2.16,2.1027,1.3818,1.7308,2.237,0.9908,0.1121,-1.0143
2.4408,2.1801,1.5967,1.871,1.4824,0.4123,0.6874,0.2562,0.3033,1.11,0.735,0.7044,1.9462,2.4849,2.747,3.0572,3.0305,3.631,3.2047,3.2697,2.4359,2.8008,2.2521,2.2366,1.4549,1.8713,2.3579,1.1168,0.1028,-1.0601
2.517,2.2145,1.5938,1.8804,1.4482,0.3069,0.5829,0.1799,0.2746,1.0378,0.6945,0.6927,1.9302,2.5187,2.8482,3.1177,3.112,3.7189,3.2947,3.3622,2.5027,2.905,2.235,2.27,1.4481,1.9359,2.3885,1.1742,0.1035,-1.0858
2.5201,2.1655,1.5348,1.8131,1.3598,0.1966,0.4525,0.1195,0.2455,0.9302,0.6188,0.6214,1.8397,2.4544,2.8637,3.0511,3.0696,3.7012,3.2444,3.3224,2.4638,2.8718,2.0985,2.1897,1.3589,1.9134,2.3155,1.152,0.1143,-1.0827
2.4373,2.0187,1.4123,1.6601,1.2141,0.0848,0.3023,0.0808,0.2165,0.7939,0.5132,0.4917,1.6772,2.2911,2.7807,2.8459,2.8907,3.5745,3.0427,3.1413,2.3143,2.6952,1.8462,1.9967,1.1926,1.8005,2.1374,1.0471,0.134,-1.0444
2.2641,1.7698,1.2264,1.4213,1.016,-0.0223,0.1411,0.0679,0.1876,0.639,0.386,0.3114,1.4535,2.0404,2.5969,2.5063,2.5767,3.3465,2.6943,2.8253,2.0616,2.3844,1.4951,1.7053,0.9615,1.6029,1.8647,0.8651,0.1603,-0.9672
2.0052,1.4268,0.9849,1.108,0.7777,-0.1178,-0.021,0.081,0.1568,0.4773,0.2465,0.0932,1.1867,1.724,2.32,2.0511,2.1432,3.0346,2.2197,2.395,1.724,1.9636,1.0727,1.3417,0.6839,1.3346,1.5195,0.6194,0.1896,-0.8509
1.6744,1.0107,0.7033,0.7432,0.5178,-0.1944,-0.1735,0.1164,0.1209,0.3202,0.1041,-0.1457,0.8986,1.3706,1.9673,1.5122,1.6183,2.6638,1.653,1.8832,1.3282,1.4692,0.6134,0.94,0.3817,1.0176,1.1329,0.3305,0.217,-0.6997
1.2942,0.5535,0.4035,0.359,0.2597,-0.2455,-0.3072,0.1668,0.0762,0.178,-0.0327,-0.3862,0.6116,1.0108,1.5633,0.9301,1.0393,2.2628,1.0379,1.3303,0.9048,0.9452,0.154,0.5376,0.0794,0.6794,0.7407,0.0233,0.2367,-0.5225
0.8922,0.0939,0.1102,-0.0086,0.0263,-0.2657,-0.4158,0.2224,0.0197,0.0584,-0.1569,-0.6089,0.3455,0.6725,1.1363,0.3477,0.4464,1.8598,0.4203,0.7777,0.4839,0.4362,-0.2712,0.169,-0.1989,0.3503,0.3789,-0.2755,0.2425,-0.3319
0.4975,-0.3314,-0.1535,-0.329,-0.1643,-0.2528,-0.4968,0.2728,-0.0492,-0.0334,-0.2634,-0.7962,0.1151,0.3758,0.7145,-0.1976,-0.1231,1.4777,-0.1587,0.261,0.0893,-0.0196,-0.6349,-0.1382,-0.4311,0.0596,0.078,-0.5401,0.2288,-0.1424
0.135,-0.6956,-0.3723,-0.5855,-0.3049,-0.2103,-0.5521,0.3085,-0.1289,-0.0952,-0.349,-0.9341,-0.0714,0.1299,0.321,-0.6806,-0.6417,1.1315,-0.6699,-0.1971,-0.2657,-0.3968,-0.92,-0.3672,-0.6,-0.1685,-0.1412,-0.749,0.1923,0.033
-0.1792,-0.9885,-0.5419,-0.781,-0.4012,-0.1486,-0.5871,0.323,-0.2152,-0.1275,-0.4122,-1.0137,-0.2127,-0.0675,-0.0299,-1.0929,-1.0955,0.8266,-1.1003,-0.5901,-0.5796,-0.6855,-1.1213,-0.5129,-0.695,-0.3178,-0.2693,-0.8873,0.1325,0.185
-0.4396,-1.2179,-0.6704,-0.9375,-0.4716,-0.0849,-0.6093,0.3127,-0.3028,-0.1334,-0.4528,-1.0322,-0.3131,-0.2282,-0.3333,-1.4422,-1.4842,0.5611,-1.4528,-0.927,-0.8613,-0.8909,-1.2442,-0.5807,-0.7133,-0.3825,-0.3096,-0.948,0.0522,0.3101
-0.6509,-1.4051,-0.7749,-1.0884,-0.5415,-0.0398,-0.6267,0.2775,-0.3867,-0.1181,-0.4725,-0.9931,-0.3806,-0.3685,-0.5925,-1.7468,-1.8173,0.329,-1.7419,-1.2262,-1.125,-1.0283,-1.3015,-0.5842,-0.6602,-0.3672,-0.2752,-0.9327,-0.0426,0.4098
-0.8237,-1.5758,-0.8754,-1.2671,-0.6354,-0.0325,-0.646,0.2198,-0.4635,-0.0883,-0.4742,-0.9061,-0.4244,-0.5038,-0.8148,-2.0269,-2.108,0.1247,-1.9863,-1.5069,-1.3828,-1.1169,-1.3096,-0.5411,-0.5479,-0.2856,-0.1861,-0.8512,-0.1441,0.489
-0.9698,-1.7501,-0.9878,-1.4947,-0.7697,-0.0755,-0.6721,0.1432,-0.5328,-0.0517,-0.4622,-0.7859,-0.4529,-0.6432,-1.0074,-2.2953,-2.3655,-0.0536,-2.201,-1.7802,-1.6396,-1.1729,-1.2837,-0.4696,-0.3934,-0.1571,-0.0647,-0.72,-0.2442,0.5527
-1.0966,-1.9346,-1.118,-1.7716,-0.9464,-0.1705,-0.7067,0.052,-0.5963,-0.0158,-0.4419,-0.6499,-0.472,-0.7865,-1.173,-2.5511,-2.5901,-0.2019,-2.3913,-2.0426,-1.8883,-1.2054,-1.2349,-0.3851,-0.2159,-0.0032,0.068,-0.5593,-0.3355,0.6039
-1.2039,-2.1192,-1.2597,-2.0763,-1.1526,-0.3083,-0.7484,-0.0493,-0.6571,0.014,-0.4182,-0.5148,-0.4834,-0.9236,-1.3079,-2.7777,-2.7707,-0.3105,-2.5496,-2.2756,-2.1107,-1.2138,-1.169,-0.2979,-0.0338,0.156,0.1962,-0.3903,-0.412,0.6418
-1.2829,-2.2794,-1.3954,-2.3702,-1.3633,-0.4709,-0.7914,-0.155,-0.7167,0.0359,-0.3942,-0.3932,-0.4852,-1.0363,-1.4019,-2.9464,-2.8873,-0.3665,-2.6578,-2.4488,-2.2806,-1.19,-1.0869,-0.212,0.1374,0.3052,0.3115,-0.2309,-0.4696,0.6622
-1.3182,-2.3833,-1.501,-2.6074,-1.5475,-0.636,-0.8257,-0.2571,-0.7733,0.0534,-0.3692,-0.2908,-0.4712,-1.1024,-1.4401,-3.0239,-2.9161,-0.3569,-2.6917,-2.5281,-2.3702,-1.122,-0.9865,-0.1253,0.2863,0.4355,0.4131,-0.0929,-0.5051,0.659
-1.2915,-2.4006,-1.5516,-2.746,-1.6753,-0.7817,-0.838,-0.3454,-0.821,0.0746,-0.3389,-0.2058,-0.4334,-1.1007,-1.4063,-2.981,-2.8371,-0.2731,-2.6296,-2.4851,-2.357,-0.9997,-0.8662,-0.0319,0.4066,0.5439,0.5065,0.0191,-0.5163,0.6272
-1.1869,-2.3111,-1.528,-2.7575,-1.724,-0.8912,-0.8141,-0.4077,-0.8502,0.1107,-0.2954,-0.1301,-0.3635,-1.0165,-1.2872,-2.8014,-2.6402,-0.1146,-2.4593,-2.306,-2.2302,-0.8204,-0.7271,0.0754,0.4956,0.6321,0.6005,0.1076,-0.5015,0.5646
-0.9962,-2.1104,-1.4212,-2.6334,-1.6837,-0.955,-0.7418,-0.4316,-0.8501,0.1732,-0.2299,-0.0521,-0.256,-0.8454,-1.0765,-2.4869,-2.3307,0.1095,-2.1835,-1.9958,-1.9937,-0.5919,-0.5753,0.2011,0.5541,0.704,0.7038,0.1798,-0.4597,0.4736
-0.7209,-1.8118,-1.235,-2.3861,-1.5581,-0.9725,-0.6143,-0.4076,-0.8118,0.27,-0.1352,0.0393,-0.1099,-0.5953,-0.7773,-2.0592,-1.9298,0.3807,-1.8215,-1.5794,-1.6667,-0.3331,-0.4215,0.345,0.5844,0.7638,0.8215,0.245,-0.3911,0.3603
-0.3741,-1.4443,-0.9857,-2.0472,-1.3643,-0.9514,-0.4326,-0.3315,-0.7307,0.4033,-0.0082,0.1512,0.0693,-0.2859,-0.4033,-1.556,-1.4714,0.6741,-1.4061,-1.0968,-1.2804,-0.0714,-0.2799,0.501,0.5901,0.8145,0.9536,0.3119,-0.298,0.2343
0.0212,-1.0465,-0.6989,-1.6607,-1.129,-0.9048,-0.2059,-0.2067,-0.6087,0.5677,0.1481,0.2846,0.2704,0.0549,0.022,-1.0251,-0.9973,0.9625,-0.9777,-0.5963,-0.8726,0.1629,-0.165,0.6583,0.5756,0.8573,1.0946,0.386,-0.1848,0.106
0.4355,-0.6604,-0.4047,-1.2747,-0.8834,-0.8482,0.0486,-0.044,-0.4542,0.7512,0.3247,0.4337,0.4771,0.3949,0.4683,-0.516,-0.5492,1.2212,-0.5761,-0.1257,-0.4816,0.3436,-0.089,0.8036,0.5457,0.8928,1.2351,0.4689,-0.0585,-0.0145
0.8365,-0.3233,-0.1327,-0.9329,-0.6569,-0.7961,0.308,0.1394,-0.2818,0.9366,0.5069,0.5863,0.6709,0.7031,0.9019,-0.0724,-0.1623,1.4309,-0.2341,0.2753,-0.1404,0.4543,-0.0589,0.9243,0.5059,0.921,1.3635,0.5577,0.0714,-0.1191
1.1932,-0.0629,0.0925,-0.6676,-0.473,-0.7584,0.5473,0.3227,-0.1096,1.1044,0.677,0.7265,0.8334,0.9533,1.2903,0.2739,0.1393,1.5802,0.0282,0.5801,0.127,0.4916,-0.0748,1.0111,0.4618,0.9423,1.4688,0.6456,0.1945,-0.2024
1.4794,0.1064,0.2549,-0.4953,-0.3459,-0.7399,0.7427,0.4849,0.0439,1.2359,0.8165,0.8366,0.9491,1.1275,1.6053,0.5059,0.3448,1.6659,0.2043,0.7772,0.3081,0.4656,-0.1298,1.0594,0.4193,0.9571,1.5423,0.7226,0.3,-0.2615
1.6766,0.1841,0.348,-0.4162,-0.2791,-0.7391,0.8754,0.609,0.1624,1.3164,0.909,0.9011,1.0079,1.2172,1.8273,0.6221,0.4569,1.6922,0.3008,0.8697,0.4014,0.3965,-0.211,1.0694,0.3831,0.9659,1.5787,0.777,0.3793,-0.2963
1.7752,0.1809,0.3748,-0.417,-0.2668,-0.7493,0.9354,0.6847,0.2356,1.3381,0.9434,0.9091,1.0067,1.2235,1.9463,0.6342,0.4893,1.6689,0.3334,0.8718,0.4152,0.3096,-0.3015,1.0455,0.3568,0.9683,1.5763,0.7974,0.4271,-0.3084
1.775,0.115,0.3451,-0.4759,-0.2963,-0.7603,0.9222,0.7104,0.2601,1.301,0.915,0.8563,0.9496,1.1558,1.9624,0.5631,0.4621,1.6096,0.3223,0.8045,0.3645,0.2294,-0.383,0.9949,0.3414,0.9624,1.537,0.7744,0.4422,-0.3009
1.6838,0.0071,0.2732,-0.5686,-0.3514,-0.761,0.8452,0.6924,0.2396,1.2125,0.8265,0.7459,0.8469,1.0297,1.885,0.4335,0.3971,1.5287,0.2871,0.6901,0.2676,0.1737,-0.4397,0.9256,0.3355,0.9454,1.4649,0.7026,0.4281,-0.2773
1.5165,-0.1246,0.1738,-0.6739,-0.4166,-0.743,0.7208,0.6434,0.1828,1.0859,0.6873,0.5877,0.713,0.8632,1.7301,0.2695,0.3131,1.439,0.2427,0.5483,0.1427,0.1508,-0.4612,0.8448,0.3356,0.9133,1.366,0.582,0.392,-0.241
1.2927,-0.2667,0.0598,-0.7774,-0.4807,-0.7031,0.5692,0.5782,0.1009,0.937,0.5118,0.3961,0.5633,0.674,1.5181,0.0905,0.2229,1.3502,0.197,0.3927,0.0042,0.1586,-0.4444,0.7579,0.3368,0.8628,1.247,0.4183,0.3433,-0.1954
1.0344,-0.412,-0.0599,-0.873,-0.5389,-0.645,0.4101,0.5104,0.0049,0.7808,0.3166,0.1882,0.4111,0.4764,1.271,-0.0903,0.1319,1.2673,0.1503,0.2307,-0.1385,0.186,-0.394,0.6682,0.3348,0.792,1.1143,0.2228,0.2916,-0.1437
0.7638,-0.5591,-0.1813,-0.9625,-0.594,-0.5795,0.2588,0.4486,-0.0971,0.6283,0.1182,-0.019,0.2647,0.2796,1.0096,-0.2669,0.0387,1.1912,0.0965,0.0627,-0.283,0.2165,-0.3222,0.5766,0.3267,0.7021,0.9737,0.0106,0.2451,-0.0882
0.4989,-0.7116,-0.3056,-1.0545,-0.6556,-0.5239,0.1229,0.3949,-0.201,0.4848,-0.0703,-0.2112,0.1263,0.086,0.751,-0.4399,-0.0636,1.1182,0.0249,-0.1164,-0.4332,0.2312,-0.2467,0.4819,0.3118,0.5974,0.8292,-0.2013,0.2088,-0.0304
0.2515,-0.8764,-0.439,-1.1619,-0.739,-0.4992,0.0008,0.3436,-0.3077,0.3485,-0.2409,-0.3787,-0.0093,-0.1086,0.5054,-0.6157,-0.1856,1.0408,-0.0785,-0.3156,-0.599,0.2123,-0.188,0.3811,0.2911,0.4849,0.6831,-0.3978,0.1841,0.03
0.0257,-1.063,-0.5912,-1.2998,-0.8617,-0.527,-0.1168,0.284,-0.4212,0.2125,-0.3916,-0.5173,-0.153,-0.3133,0.2758,-0.8044,-0.3382,0.9494,-0.2274,-0.546,-0.7933,0.1455,-0.1662,0.2701,0.2662,0.3726,0.5351,-0.5673,0.1693,0.0949
-0.1816,-1.2808,-0.7725,-1.4818,-1.0394,-0.6256,-0.244,0.2036,-0.5465,0.0673,-0.5249,-0.6274,-0.3178,-0.5389,0.0593,-1.0173,-0.5302,0.8344,-0.4324,-0.8172,-1.0285,0.022,-0.1974,0.1442,0.2383,0.2682,0.3838,-0.7036,0.1611,0.1673
-0.3767,-1.5365,-0.9907,-1.7169,-1.2814,-0.8048,-0.3938,0.093,-0.6865,-0.0951,-0.6456,-0.7125,-0.5149,-0.7941,-0.1501,-1.2629,-0.7651,0.6892,-0.6976,-1.1336,-1.3121,-0.1601,-0.2902,-0.0001,0.2071,0.1773,0.2276,-0.8052,0.1557,0.2495
-0.5664,-1.8314,-1.2476,-2.007,-1.5879,-1.0636,-0.573,-0.051,-0.8396,-0.2776,-0.7572,-0.7768,-0.7497,-1.0816,-0.3578,-1.5446,-1.0394,0.513,-1.0182,-1.492,-1.6433,-0.3954,-0.4444,-0.1643,0.1708,0.103,0.0663,-0.8741,0.1513,0.3415
-0.7546,-2.1599,-1.5379,-2.3456,-1.9481,-1.3894,-0.7793,-0.2231,-0.9984,-0.4758,-0.8607,-0.8232,-1.0195,-1.3965,-0.5663,-1.8582,-1.3428,0.3116,-1.3806,-1.8808,-2.0117,-0.6726,-0.6511,-0.3468,0.1268,0.0455,-0.0973,-0.9139,0.1473,0.4404
-0.9418,-2.5093,-1.8491,-2.7186,-2.3417,-1.7598,-1.0006,-0.4103,-1.1513,-0.6785,-0.953,-0.8529,-1.3135,-1.7264,-0.7745,-2.1934,-1.6599,0.097,-1.7645,-2.2811,-2.3991,-0.976,-0.8943,-0.5431,0.0729,0.003,-0.2576,-0.9276,0.1452,0.5403
-1.1251,-2.8616,-2.1641,-3.1058,-2.7415,-2.1468,-1.2177,-0.5954,-1.2846,-0.8692,-1.028,-0.8647,-1.6142,-2.0533,-0.9782,-2.5347,-1.9737,-0.1154,-2.1461,-2.6705,-2.7819,-1.2879,-1.1542,-0.7457,0.009,-0.0269,-0.4059,-0.9174,0.1468,0.6338
-1.2983,-3.1955,-2.4631,-3.4839,-3.1176,-2.5213,-1.4086,-0.7601,-1.3852,-1.0301,-1.0779,-0.8566,-1.9009,-2.3573,-1.1711,-2.8643,-2.2677,-0.3097,-2.502,-3.0262,-3.1359,-1.5901,-1.4102,-0.9448,-0.0622,-0.0461,-0.5324,-0.8842,0.1534,0.7131
-1.4535,-3.4902,-2.7275,-3.8294,-3.4413,-2.8576,-1.5536,-0.8893,-1.4434,-1.1447,-1.0955,-0.8268,-2.1521,-2.6186,-1.3461,-3.1647,-2.5285,-0.4726,-2.8126,-3.3289,-3.4395,-1.8651,-1.6431,-1.129,-0.1348,-0.0551,-0.6269,-0.8284,0.1657,0.7721
-1.5813,-3.7282,-2.9414,-4.1214,-3.6894,-3.1368,-1.6391,-0.9734,-1.4541,-1.2018,-1.0756,-0.7749,-2.3494,-2.821,-1.4958,-3.4209,-2.747,-0.5957,-3.0643,-3.5653,-3.6766,-2.0974,-1.837,-1.2866,-0.2005,-0.0528,-0.6812,-0.7511,0.1828,0.8067
-1.6733,-3.8978,-3.0942,-4.3447,-3.8472,-3.3478,-1.6596,-1.0087,-1.4178,-1.196,-1.0168,-0.7033,-2.4786,-2.9531,-1.6139,-3.6221,-2.9184,-0.6759,-3.2506,-3.7291,-3.838,-2.2743,-1.9809,-1.4066,-0.2509,-0.037,-0.6904,-0.6548,0.2031,0.8167
-1.724,-3.9947,-3.1816,-4.4914,-3.9094,-3.4874,-1.6179,-0.9975,-1.3397,-1.1292,-0.9214,-0.6173,-2.5316,-3.0096,-1.6956,-3.7629,-3.0422,-0.7154,-3.3728,-3.8218,-3.9213,-2.3877,-2.0692,-1.4806,-0.2791,-0.0056,-0.6534,-0.5441,0.2242,0.8051
-1.7327,-4.0228,-3.2061,-4.5611,-3.8805,-3.5589,-1.5226,-0.946,-1.2288,-1.0089,-0.7955,-0.5242,-2.5069,-2.9913,-1.7387,-3.8437,-3.1221,-0.7203,-3.4389,-3.851,-3.9309,-2.4353,-2.1028,-1.5036,-0.2818,0.0426,-0.5738,-0.4256,0.2434,0.7784
-1.7044,-3.9928,-3.1761,-4.5616,-3.7735,-3.5703,-1.3858,-0.8626,-1.0971,-0.8478,-0.6482,-0.4331,-2.4094,-2.9048,-1.744,-3.8702,-3.1643,-0.6989,-3.4616,-3.8294,-3.8761,-2.4215,-2.0881,-1.4757,-0.2604,0.1062,-0.4593,-0.3076,0.2586,0.7453
-1.649,-3.9203,-3.1043,-4.5059,-3.6073,-3.5326,-1.2203,-0.7567,-0.9571,-0.6611,-0.4903,-0.3523,-2.2497,-2.7615,-1.7159,-3.8526,-3.1774,-0.6603,-3.4558,-3.7717,-3.7697,-2.3571,-2.0367,-1.402,-0.2212,0.1814,-0.3207,-0.1989,0.2682,0.7153
-1.5786,-3.8219,-3.0052,-4.4102,-3.4037,-3.4578,-1.0381,-0.6375,-0.8215,-0.4656,-0.3333,-0.2884,-2.0434,-2.5761,-1.6619,-3.8028,-3.1695,-0.6126,-3.4353,-3.6921,-3.6262,-2.2569,-1.9628,-1.2926,-0.1742,0.2616,-0.1707,-0.1074,0.2718,0.6966
-1.5054,-3.7111,-2.8918,-4.289,-3.1837,-3.3568,-0.8499,-0.5138,-0.7006,-0.2771,-0.1884,-0.2454,-1.8094,-2.3648,-1.5916,-3.7325,-3.1476,-0.5621,-3.4094,-3.6019,-3.4596,-2.137,-1.8806,-1.1608,-0.1314,0.3386,-0.0223,-0.039,0.2693,0.694
-1.4391,-3.5959,-2.7733,-4.1527,-2.9643,-3.2375,-0.6658,-0.3937,-0.6025,-0.1093,-0.0657,-0.2242,-1.5678,-2.1433,-1.5158,-3.6498,-3.1153,-0.5126,-3.3813,-3.5073,-3.2821,-2.0105,-1.8013,-1.0217,-0.1041,0.4035,0.1128,0.0026,0.2611,0.7084
-1.3857,-3.4776,-2.6545,-4.0054,-2.7566,-3.1038,-0.4954,-0.2841,-0.5312,0.0275,0.026,-0.2232,-1.3378,-1.9259,-1.4445,-3.5583,-3.0726,-0.4653,-3.3481,-3.4096,-3.1023,-1.8859,-1.732,-0.8898,-0.1012,0.4479,0.2244,0.0161,0.2481,0.7363
-1.3472,-3.3519,-2.5355,-3.8459,-2.5652,-2.9569,-0.3483,-0.1898,-0.4868,0.1275,0.0809,-0.2393,-1.1359,-1.724,-1.3855,-3.4571,-3.0163,-0.4195,-3.3021,-3.306,-2.9256,-1.7658,-1.6746,-0.7775,-0.1279,0.4647,0.3054,0.002,0.2318,0.771
-1.3218,-3.2126,-2.4142,-3.6707,-2.3902,-2.7962,-0.2334,-0.1133,-0.4657,0.1892,0.0972,-0.2684,-0.9747,-1.5462,-1.3429,-3.3422,-2.942,-0.374,-3.2346,-3.192,-2.7552,-1.6487,-1.6279,-0.6936,-0.1859,0.4494,0.3513,-0.0385,0.2148,0.8042
-1.3051,-3.0552,-2.2882,-3.4783,-2.2297,-2.6222,-0.1575,-0.054,-0.4608,0.216,0.0778,-0.3064,-0.862,-1.3992,-1.3167,-3.2099,-2.8466,-0.3278,-3.1393,-3.0646,-2.5933,-1.5318,-1.5892,-0.6435,-0.2734,0.3999,0.3602,-0.1035,0.2013,0.8278
-1.2921,-2.8808,-2.1576,-3.2733,-2.0832,-2.4381,-0.1246,-0.0087,-0.4633,0.2144,0.0306,-0.3489,-0.8009,-1.2881,-1.3032,-3.0594,-2.7308,-0.2818,-3.0155,-2.9245,-2.4439,-1.4137,-1.5569,-0.6292,-0.3861,0.3178,0.3331,-0.1901,0.1962,0.8352
-1.2779,-2.6973,-2.0263,-3.0674,-1.9536,-2.2515,-0.1341,0.027,-0.4644,0.1928,-0.0322,-0.3919,-0.7906,-1.2171,-1.2968,-2.8949,-2.5996,-0.2385,-2.8694,-2.7768,-2.3126,-1.2973,-1.5315,-0.6497,-0.5178,0.2076,0.2731,-0.2943,0.2048,0.8229
-1.2589,-2.5178,-1.9013,-2.8781,-1.8472,-2.0733,-0.1807,0.0578,-0.4565,0.16,-0.0963,-0.4313,-0.8262,-1.1882,-1.2916,-2.7251,-2.4624,-0.2018,-2.7122,-2.6301,-2.2064,-1.1887,-1.5151,-0.7012,-0.6609,0.0776,0.1855,-0.4098,0.2304,0.7901
-1.2323,-2.357,-1.7908,-2.7242,-1.7727,-1.9165,-0.2541,0.0868,-0.4351,0.1238,-0.1475,-0.4628,-0.8987,-1.2002,-1.2821,-2.5611,-2.3298,-0.1751,-2.5581,-2.4935,-2.131,-1.0962,-1.5097,-0.7766,-0.8055,-0.0613,0.0783,-0.5277,0.2737,0.7393
-1.1955,-2.2264,-1.7014,-2.6212,-1.7374,-1.7924,-0.3399,0.1156,-0.3989,0.0906,-0.174,-0.4823,-0.9953,-1.2474,-1.2642,-2.4132,-2.2114,-0.1598,-2.4201,-2.3741,-2.0886,-1.0265,-1.5152,-0.8654,-0.9404,-0.196,-0.038,-0.6367,0.3316,0.6747
-1.1461,-2.1311,-1.6358,-2.5757,-1.7447,-1.7084,-0.4218,0.1442,-0.3496,0.0651,-0.1682,-0.4862,-1.1002,-1.3188,-1.2349,-2.2881,-2.113,-0.155,-2.3072,-2.2741,-2.0754,-0.9832,-1.528,-0.9544,-1.053,-0.3124,-0.1511,-0.7247,0.3974,0.6018
-1.0827,-2.0681,-1.5922,-2.5835,-1.7909,-1.6652,-0.4839,0.1708,-0.2919,0.05,-0.1283,-0.4724,-1.1969,-1.3997,-1.1927,-2.1872,-2.036,-0.1572,-2.2232,-2.1906,-2.0824,-0.9653,-1.5422,-1.0301,-1.1315,-0.3981,-0.2481,-0.7808,0.4615,0.5262
-1.0057,-2.028,-1.5644,-2.629,-1.8656,-1.6567,-0.514,0.1928,-0.2325,0.0458,-0.0589,-0.4415,-1.271,-1.4742,-1.1377,-2.1065,-1.9777,-0.1626,-2.1662,-2.1164,-2.0967,-0.968,-1.5506,-1.0812,-1.1666,-0.4439,-0.3182,-0.7982,0.514,0.4527
-0.9183,-1.9972,-1.5438,-2.6885,-1.9519,-1.6712,-0.5059,0.2071,-0.1793,0.051,0.0301,-0.3971,-1.3128,-1.5289,-1.0715,-2.038,-1.933,-0.1676,-2.1297,-2.0423,-2.1046,-0.9849,-1.5479,-1.1012,-1.1538,-0.4458,-0.3543,-0.7759,0.5457,0.3848
-0.8258,-1.9617,-1.5217,-2.7348,-2.0301,-1.6942,-0.4599,0.2112,-0.1399,0.0619,0.1255,-0.3455,-1.3194,-1.5554,-0.9964,-1.9722,-1.8957,-0.1707,-2.1043,-1.9597,-2.0947,-1.0096,-1.532,-1.0904,-1.0941,-0.4056,-0.355,-0.7193,0.5513,0.3247
-0.7349,-1.9104,-1.4912,-2.744,-2.0814,-1.712,-0.3821,0.2042,-0.1196,0.0741,0.214,-0.2943,-1.2941,-1.5516,-0.9153,-1.9003,-1.8605,-0.1719,-2.0801,-1.8631,-2.0604,-1.0378,-1.5046,-1.0552,-0.9944,-0.3307,-0.3239,-0.6388,0.5302,0.2726
-0.6526,-1.8378,-1.4489,-2.7007,-2.092,-1.7151,-0.2824,0.1874,-0.1196,0.0842,0.2855,-0.25,-1.2455,-1.5216,-0.8307,-1.8164,-1.8235,-0.1724,-2.049,-1.7518,-2.0008,-1.0673,-1.4707,-1.0064,-0.866,-0.232,-0.2686,-0.5474,0.4868,0.228
-0.584,-1.7451,-1.3958,-2.6027,-2.056,-1.7006,-0.1712,0.1648,-0.136,0.0914,0.3357,-0.2162,-1.1842,-1.4736,-0.7452,-1.7199,-1.7835,-0.1735,-2.0069,-1.6306,-1.9209,-1.0984,-1.4364,-0.9555,-0.7228,-0.1218,-0.1977,-0.4569,0.43,0.1898
-0.532,-1.6402,-1.3366,-2.4605,-1.9762,-1.6723,-0.0572,0.142,-0.1603,0.0982,0.3665,-0.1926,-1.1199,-1.4176,-0.6616,-1.6151,-1.7421,-0.1756,-1.955,-1.5085,-1.8302,-1.1328,-1.4083,-0.9122,-0.5783,-0.0112,-0.1189,-0.3757,0.3704,0.1572
-0.496,-1.5348,-1.2779,-2.2948,-1.8627,-1.6388,0.0544,0.1253,-0.1812,0.1098,0.3849,-0.1748,-1.0593,-1.3621,-0.583,-1.5105,-1.7028,-0.1776,-1.8995,-1.3972,-1.74,-1.1714,-1.391,-0.881,-0.4443,0.0922,-0.036,-0.3064,0.3183,0.1303
-0.472,-1.4416,-1.2264,-2.13,-1.7298,-1.6106,0.1615,0.1195,-0.1874,0.1328,0.4006,-0.156,-1.0046,-1.3122,-0.5125,-1.416,-1.6702,-0.1769,-1.8504,-1.3074,-1.6605,-1.2128,-1.3869,-0.8611,-0.3283,0.1852,0.0507,-0.2461,0.2809,0.1104
-0.4535,-1.3705,-1.1861,-1.9875,-1.5921,-1.5964,0.265,0.1271,-0.1712,0.1735,0.423,-0.1287,-0.954,-1.2681,-0.4521,-1.3399,-1.6489,-0.17,-1.8185,-1.2458,-1.5982,-1.2518,-1.3953,-0.8464,-0.2339,0.2687,0.1444,-0.1877,0.2609,0.0991
-0.4335,-1.3258,-1.1578,-1.8809,-1.4614,-1.6002,0.3665,0.1475,-0.13,0.2355,0.458,-0.087,-0.9027,-1.2253,-0.403,-1.2863,-1.6418,-0.154,-1.8127,-1.2129,-1.5542,-1.28,-1.4131,-0.8279,-0.1613,0.3463,0.2497,-0.1233,0.2565,0.0986
-0.4063,-1.3054,-1.1385,-1.814,-1.345,-1.6201,0.4674,0.1778,-0.0674,0.3193,0.5073,-0.0281,-0.8448,-1.1764,-0.3648,-1.2543,-1.65,-0.1269,-1.8375,-1.2027,-1.5242,-1.2875,-1.4364,-0.7967,-0.1091,0.4218,0.3693,-0.0463,0.2624,0.1103
-0.3691,-1.3014,-1.1227,-1.7813,-1.2452,-1.6493,0.5681,0.2144,0.0087,0.4226,0.5682,0.047,-0.7754,-1.1128,-0.3361,-1.2391,-1.6727,-0.0886,-1.8926,-1.2049,-1.5,-1.2662,-1.4609,-0.7466,-0.0758,0.4966,0.5029,0.0453,0.2718,0.1345
-0.3223,-1.3026,-1.1038,-1.7719,-1.1602,-1.6775,0.6681,0.2542,0.0885,0.5407,0.6356,0.1343,-0.6911,-1.0277,-0.3147,-1.2332,-1.7069,-0.0406,-1.9722,-1.2071,-1.4716,-1.2123,-1.4834,-0.6758,-0.0608,0.569,0.6451,0.1483,0.2786,0.1699
-0.2686,-1.2977,-1.0763,-1.7735,-1.0857,-1.6943,0.766,0.2966,0.1635,0.6686,0.7034,0.2271,-0.5914,-0.9177,-0.2987,-1.2297,-1.7488,0.0141,-2.0665,-1.1993,-1.4306,-1.1293,-1.5018,-0.5872,-0.0648,0.6335,0.7868,0.2549,0.2794,0.2135
-0.2126,-1.2791,-1.037,-1.7759,-1.0171,-1.6911,0.8602,0.3427,0.2281,0.8013,0.7665,0.3177,-0.4787,-0.7841,-0.2876,-1.224,-1.7941,0.0722,-2.1633,-1.1758,-1.3717,-1.0276,-1.5147,-0.4876,-0.0883,0.6826,0.9165,0.354,0.2739,0.261
-0.1596,-1.2446,-0.9859,-1.7727,-0.9506,-1.6628,0.9484,0.3949,0.2803,0.9336,0.8208,0.3981,-0.3581,-0.6331,-0.2826,-1.2155,-1.839,0.1296,-2.2503,-1.1375,-1.295,-0.9233,-1.521,-0.3866,-0.1309,0.7085,1.0224,0.4335,0.2642,0.3078
-0.1153,-1.1977,-0.9261,-1.7611,-0.8837,-1.6077,1.028,0.4553,0.3206,1.0605,0.8637,0.4606,-0.2372,-0.4751,-0.2866,-1.2066,-1.8808,0.1825,-2.3166,-1.0903,-1.205,-0.8351,-1.5195,-0.2943,-0.1901,0.7055,1.0954,0.4822,0.2536,0.3498
-0.0845,-1.1449,-0.8619,-1.7393,-0.8151,-1.5265,1.0956,0.5246,0.3507,1.1758,0.8926,0.4988,-0.1253,-0.3229,-0.3032,-1.2014,-1.9178,0.2268,-2.3545,-1.0435,-1.1098,-0.7803,-1.5089,-0.2196,-0.2609,0.6716,1.1305,0.4925,0.2447,0.3839
-0.0695,-1.0927,-0.7974,-1.7047,-0.7444,-1.4214,1.1479,0.6004,0.3722,1.2728,0.9052,0.5083,-0.0315,-0.1891,-0.335,-1.2034,-1.9489,0.2594,-2.3599,-1.0059,-1.0184,-0.7711,-1.4877,-0.1683,-0.3357,0.6096,1.128,0.4613,0.2381,0.4083
-0.0691,-1.0453,-0.7345,-1.653,-0.6709,-1.2953,1.1814,0.6779,0.3856,1.3447,0.8995,0.4872,0.0363,-0.0841,-0.3812,-1.2132,-1.9731,0.2785,-2.3329,-0.983,-0.9383,-0.8112,-1.4542,-0.1421,-0.4056,0.527,1.094,0.3907,0.2324,0.4221
-0.0779,-1.0029,-0.6729,-1.5786,-0.5945,-1.1512,1.1935,0.7503,0.3905,1.386,0.8747,0.4372,0.0732,-0.0143,-0.437,-1.2279,-1.989,0.284,-2.2768,-0.9751,-0.874,-0.895,-1.4066,-0.1384,-0.4615,0.4347,1.0385,0.2885,0.2247,0.4244
-0.0876,-0.963,-0.6102,-1.4763,-0.515,-0.9927,1.1829,0.8103,0.3862,1.3932,0.8317,0.3631,0.078,0.0186,-0.4934,-1.2412,-1.9946,0.2783,-2.1979,-0.9772,-0.8259,-1.0087,-1.3435,-0.1511,-0.496,0.3449,0.9735,0.1663,0.2121,0.4145
-0.0888,-0.9204,-0.543,-1.3424,-0.4317,-0.8231,1.1503,0.8522,0.3724,1.3665,0.7744,0.2725,0.0536,0.0182,-0.5388,-1.2446,-1.9875,0.2659,-2.1037,-0.98,-0.7905,-1.1319,-1.2641,-0.1721,-0.5046,0.2688,0.9101,0.0377,0.1924,0.3914
-0.0734,-0.8686,-0.4677,-1.1756,-0.3434,-0.6454,1.0992,0.8736,0.3503,1.3097,0.709,0.1743,0.0064,-0.0075,-0.5609,-1.2286,-1.9636,0.2536,-2.0005,-0.9709,-0.7609,-1.2413,-1.1685,-0.1932,-0.4865,0.2143,0.8562,-0.0837,0.1654,0.354
-0.0355,-0.8004,-0.3807,-0.9773,-0.2481,-0.462,1.0356,0.8761,0.323,1.2303,0.6437,0.077,-0.0542,-0.0468,-0.5491,-1.1834,-1.9173,0.2502,-1.8913,-0.9368,-0.7275,-1.3127,-1.0568,-0.2075,-0.4449,0.1858,0.8153,-0.1872,0.1332,0.3014
0.0274,-0.7091,-0.2794,-0.7514,-0.1429,-0.2752,0.9675,0.8651,0.295,1.1381,0.5869,-0.0124,-0.1173,-0.0855,-0.4958,-1.1002,-1.8406,0.2657,-1.774,-0.865,-0.6791,-1.325,-0.9291,-0.21,-0.3857,0.1832,0.787,-0.2654,0.1003,0.2329
0.1163,-0.589,-0.1624,-0.5046,-0.0255,-0.0881,0.9035,0.8479,0.271,1.0443,0.5453,-0.0898,-0.1717,-0.109,-0.3975,-0.9717,-1.7242,0.3108,-1.6414,-0.746,-0.6047,-1.2622,-0.7852,-0.198,-0.3165,0.2033,0.7686,-0.3153,0.0721,0.1483
0.2309,-0.4379,-0.0301,-0.2468,0.1049,0.0942,0.8518,0.8316,0.2542,0.9592,0.522,-0.1535,-0.2082,-0.1043,-0.2548,-0.7939,-1.5587,0.3945,-1.4824,-0.5749,-0.4954,-1.1168,-0.6244,-0.1708,-0.2448,0.2417,0.7567,-0.3371,0.0546,0.0482
0.37,-0.2583,0.1145,0.0097,0.2453,0.2642,0.8187,0.8202,0.246,0.8904,0.5162,-0.204,-0.2202,-0.0624,-0.0728,-0.5674,-1.3379,0.5229,-1.2854,-0.3532,-0.3466,-0.8904,-0.4469,-0.1285,-0.1761,0.2939,0.7501,-0.3331,0.0522,-0.0658
0.5311,-0.0579,0.2654,0.2511,0.3896,0.4117,0.809,0.8142,0.245,0.8424,0.5235,-0.2418,-0.2047,0.0197,0.1397,-0.2989,-1.0609,0.6972,-1.0425,-0.0894,-0.1594,-0.5941,-0.2538,-0.0718,-0.1131,0.3574,0.7501,-0.3058,0.0668,-0.1902
0.7094,0.1504,0.4147,0.4643,0.5284,0.526,0.825,0.8099,0.249,0.8163,0.5379,-0.2662,-0.1619,0.1393,0.3706,-0.001,-0.7339,0.9131,-0.7523,0.2013,0.0589,-0.2466,-0.0483,-0.0003,-0.0547,0.4325,0.7617,-0.2561,0.0964,-0.32
0.8973,0.3508,0.5531,0.6389,0.6518,0.5987,0.8682,0.8009,0.2559,0.8109,0.5547,-0.2733,-0.0939,0.2881,0.6058,0.3087,-0.3712,1.1606,-0.4223,0.4993,0.2961,0.129,0.1645,0.0871,0.0033,0.5224,0.7929,-0.1823,0.1356,-0.4487
1.0849,0.5274,0.6723,0.769,0.7513,0.625,0.9394,0.7811,0.2652,0.8245,0.5719,-0.2562,-0.0036,0.4544,0.8308,0.61,0.0066,1.425,-0.0692,0.7828,0.5364,0.5075,0.3773,0.1924,0.0664,0.6312,0.8529,-0.0804,0.1764,-0.5686
1.2602,0.6662,0.7654,0.8526,0.8209,0.6057,1.0382,0.7458,0.2786,0.8559,0.5916,-0.2064,0.1057,0.6248,1.0316,0.8817,0.3741,1.6887,0.283,1.0307,0.7626,0.8648,0.5809,0.3166,0.1394,0.7626,0.9499,0.054,0.21,-0.6727
1.4113,0.7578,0.828,0.8909,0.8577,0.5458,1.1628,0.6942,0.299,0.9044,0.6191,-0.1163,0.2303,0.7864,1.1962,1.105,0.7039,1.9334,0.606,1.2246,0.9584,1.18,0.7654,0.4587,0.2241,0.9165,1.0879,0.223,0.2293,-0.7546
1.5285,0.7983,0.8587,0.887,0.8618,0.4531,1.3089,0.6293,0.33,0.9705,0.6616,0.0183,0.3653,0.928,1.316,1.265,0.971,2.1429,0.8715,1.3512,1.1102,1.4364,0.9208,0.6149,0.3183,1.0884,1.2656,0.4247,0.2302,-0.8104
1.6065,0.7906,0.8593,0.8453,0.8363,0.3368,1.4701,0.5586,0.3751,1.0553,0.7258,0.1963,0.5052,1.0425,1.3873,1.3533,1.1559,2.306,1.057,1.4045,1.2091,1.6238,1.0394,0.7788,0.4164,1.2693,1.4756,0.6516,0.2131,-0.8389
1.6455,0.7435,0.835,0.7727,0.7878,0.2076,1.6383,0.493,0.4369,1.1604,0.8171,0.4117,0.6444,1.1271,1.4128,1.3694,1.2487,2.4183,1.1495,1.3866,1.2523,1.739,1.1167,0.9423,0.5111,1.4476,1.7058,0.8918,0.1825,-0.8423
1.6508,0.67,0.7938,0.6784,0.7271,0.0781,1.8057,0.4453,0.5177,1.288,0.9378,0.6536,0.7781,1.1845,1.4013,1.3211,1.251,2.484,1.1487,1.3085,1.2446,1.7864,1.1527,1.0975,0.5955,1.6106,1.9408,1.1305,0.146,-0.8261
1.6318,0.585,0.7461,0.574,0.6682,-0.0374,1.9664,0.4285,0.6187,1.4403,1.0876,0.9084,0.9043,1.2222,1.3667,1.2237,1.1766,2.5143,1.0673,1.189,1.1973,1.7776,1.152,1.2376,0.6649,1.7475,2.1645,1.3523,0.1125,-0.7978
1.5995,0.5024,0.7028,0.4729,0.6268,-0.1242,2.1169,0.4531,0.74,1.6188,1.2626,1.1614,1.0235,1.2514,1.3254,1.0984,1.0491,2.526,0.9289,1.0524,1.1278,1.7294,1.1235,1.358,0.7177,1.8504,2.3626,1.5433,0.0907,-0.7658
1.5649,0.434,0.6731,0.3875,0.6174,-0.1702,2.2558,0.5241,0.8795,1.8226,1.4565,1.3981,1.1386,1.2849,1.2936,0.9691,0.8985,2.5369,0.7637,0.9248,1.0564,1.6614,1.0788,1.4567,0.7552,1.9159,2.5234,1.6928,0.0875,-0.7386
1.5375,0.3876,0.6637,0.3277,0.6493,-0.1688,2.3825,0.6392,1.0315,2.0464,1.6597,1.6056,1.2526,1.3336,1.2842,0.8589,0.756,2.5625,0.603,0.8296,1.0032,1.5925,1.0307,1.5335,0.7808,1.9445,2.6395,1.7938,0.1063,-0.7227
1.524,0.3675,0.6767,0.2985,0.7247,-0.1214,2.495,0.7875,1.1869,2.2793,1.86,1.7726,1.367,1.4049,1.3036,0.7868,0.6485,2.612,0.4741,0.7838,0.9839,1.5379,0.9916,1.5895,0.7986,1.94,2.7073,1.8435,0.1471,-0.7221
1.5272,0.3749,0.7107,0.3013,0.8389,-0.0358,2.5896,0.9514,1.3334,2.5046,2.0428,1.8904,1.4799,1.5001,1.3514,0.7657,0.5948,2.6877,0.3964,0.7955,1.0082,1.5074,0.9719,1.626,0.8118,1.9085,2.7274,1.8429,0.2058,-0.7377
1.5469,0.4093,0.7616,0.3348,0.9822,0.0757,2.6611,1.1097,1.4577,2.7027,2.1927,1.9532,1.5863,1.6151,1.4207,0.8007,0.6035,2.786,0.3798,0.8643,1.0788,1.505,0.9795,1.6441,0.8223,1.8567,2.7031,1.7957,0.2755,-0.768
1.5808,0.471,0.8251,0.3981,1.1441,0.2012,2.7053,1.2423,1.5479,2.8536,2.2955,1.9585,1.679,1.7419,1.5007,0.8906,0.6733,2.8991,0.4251,0.9834,1.1923,1.5299,1.0184,1.6445,0.8297,1.7912,2.6408,1.708,0.3474,-0.8102
1.6257,0.5612,0.8988,0.4918,1.3163,0.3325,2.7202,1.3344,1.5964,2.942,2.3412,1.9078,1.7505,1.8709,1.5804,1.0291,0.7953,3.0192,0.5256,1.1427,1.3408,1.5793,1.0893,1.6282,0.8322,1.7172,2.5484,1.5876,0.4129,-0.8609
1.6795,0.683,0.9829,0.6192,1.4945,0.4673,2.7082,1.3798,1.6011,2.9601,2.3254,1.8062,1.7952,1.9931,1.6515,1.207,0.9558,3.1402,0.6698,1.3322,1.5148,1.6503,1.1891,1.5965,0.8269,1.639,2.4349,1.4434,0.4648,-0.9173
1.7413,0.84,1.0805,0.7851,1.6791,0.6096,2.6768,1.382,1.5659,2.9096,2.2507,1.6626,1.8107,2.1032,1.7111,1.4146,1.14,3.2599,0.8444,1.5437,1.7045,1.7423,1.3115,1.5526,0.8119,1.5601,2.31,1.2851,0.4984,-0.9771
1.8122,1.0353,1.1965,0.9945,1.8742,0.7672,2.6376,1.3522,1.4998,2.8022,2.1263,1.489,1.7992,2.2002,1.7618,1.6431,1.3348,3.3791,1.0375,1.7729,1.9024,1.8577,1.4488,1.5017,0.7872,1.4837,2.1837,1.1228,0.5118,-1.0391
1.8942,1.2695,1.3359,1.2508,2.0848,0.9489,2.6043,1.3067,1.4147,2.6572,1.9666,1.2994,1.7668,2.2876,1.811,1.8858,1.5313,3.5011,1.2402,2.0182,2.1038,2.0012,1.5929,1.451,0.7558,1.4136,2.0657,0.9667,0.5059,-1.1024
1.989,1.5402,1.5019,1.5536,2.3146,1.1609,2.59,1.2623,1.3228,2.4975,1.7883,1.1083,1.7227,2.3721,1.868,2.1383,1.7252,3.6293,1.448,2.2801,2.3071,2.1775,1.7374,1.4092,0.7235,1.3536,1.9653,0.8257,0.4835,-1.1662
2.0973,1.8408,1.6944,1.8968,2.5635,1.4045,2.6041,1.2325,1.2344,2.3456,1.6075,0.9289,1.6778,2.4611,1.9409,2.3978,1.9171,3.7658,1.6607,2.5588,2.5127,2.3894,1.8782,1.3843,0.6982,1.3074,1.8897,0.7067,0.4485,-1.2302
2.2185,2.1621,1.9097,2.2682,2.8258,1.6747,2.6498,1.2251,1.1563,2.2194,1.4379,0.7717,1.6428,2.5607,2.0349,2.6627,2.1107,3.911,1.8809,2.8531,2.7217,2.6358,2.0146,1.3828,0.6878,1.2777,1.8441,0.6139,0.4053,-1.2942
2.3521,2.493,2.1409,2.6502,3.0914,1.9604,2.7248,1.2417,1.0919,2.1304,1.2899,0.6442,1.6275,2.6745,2.1517,2.9315,2.3116,4.0638,2.1125,3.159,2.9345,2.911,2.1483,1.409,0.6981,1.2658,1.8311,0.5494,0.3585,-1.3588
2.4988,2.8228,2.3798,3.0222,3.3466,2.246,2.8219,1.2788,1.043,2.0835,1.1712,0.5515,1.6397,2.8031,2.29,3.2028,2.5253,4.222,2.3584,3.4701,3.1508,3.2046,2.2832,1.4651,0.7318,1.2718,1.8515,0.5139,0.313,-1.4248
2.6606,3.1417,2.6179,3.3636,3.5778,2.5137,2.9322,1.3304,1.0108,2.0786,1.0878,0.4966,1.6853,2.9448,2.4468,3.4739,2.7554,4.3836,2.6187,3.7778,3.3683,3.5034,2.4227,1.5514,0.7874,1.2954,1.9043,0.508,0.2732,-1.4931
2.84,3.4409,2.8468,3.657,3.7738,2.7459,3.0472,1.3898,0.9978,2.1124,1.0439,0.4814,1.7677,3.096,2.6182,3.7402,3.0012,4.5468,2.8896,4.0717,3.5834,3.7925,2.5691,1.6671,0.8604,1.3366,1.988,0.5327,0.2428,-1.5642
3.0368,3.7107,3.0583,3.8891,3.9272,2.9281,3.1604,1.4509,1.007,2.1801,1.0418,0.5056,1.8871,3.252,2.7987,3.9938,3.2571,4.7099,3.162,4.3399,3.7902,4.0566,2.7212,1.8095,0.9449,1.3958,2.1003,0.5888,0.2242,-1.637
3.2453,3.9395,3.2427,4.0506,4.0344,3.0497,3.2675,1.5078,1.0412,2.2748,1.0803,0.5666,2.0396,3.407,2.981,4.2235,3.5116,4.8714,3.4232,4.5697,3.9805,4.2818,2.8747,1.9746,1.0349,1.4741,2.2382,0.6765,0.2172,-1.7084
3.4527,4.1125,3.3889,4.1355,4.0945,3.1047,3.3653,1.555,1.1006,2.3888,1.1542,0.6592,2.2167,3.5543,3.1547,4.4151,3.7495,5.0286,3.6574,4.7487,4.1445,4.4562,3.0223,2.1561,1.1265,1.5723,2.3974,0.7941,0.2197,-1.773
3.6404,4.2133,3.4842,4.1402,4.1073,3.0909,3.451,1.5858,1.1818,2.5122,1.2544,0.7755,2.4062,3.687,3.3074,4.5532,3.9533,5.1775,3.8492,4.8658,4.2715,4.5719,3.1553,2.3463,1.2189,1.6906,2.572,0.9378,0.227,-1.8243
3.7875,4.2283,3.5175,4.0641,4.0731,3.0093,3.521,1.5934,1.2775,2.6349,1.369,0.9063,2.5934,3.7982,3.4257,4.6246,4.1075,5.3114,3.9865,4.9138,4.3525,4.6262,3.2662,2.5367,1.3139,1.8274,2.7553,1.1014,0.2334,-1.8558
3.8762,4.1514,3.4828,3.9117,3.9936,2.8657,3.5721,1.5715,1.3778,2.7476,1.4863,1.0434,2.7645,3.8837,3.4993,4.6223,4.2023,5.4224,4.0638,4.8919,4.383,4.623,3.3506,2.7199,1.4154,1.9797,2.9403,1.2779,0.2331,-1.8632
3.8973,3.9891,3.383,3.6959,3.8745,2.6713,3.6033,1.5172,1.473,2.8444,1.5974,1.181,2.9098,3.9427,3.5235,4.5496,4.2365,5.5019,4.0846,4.8078,4.3659,4.5736,3.4089,2.8911,1.5278,2.1429,3.1209,1.4599,0.2213,-1.8464
3.8531,3.7629,3.2321,3.4394,3.7282,2.444,3.6176,1.4321,1.5558,2.9244,1.6986,1.3167,3.0259,3.9802,3.502,4.4216,4.2198,5.5437,4.0622,4.679,4.3132,4.496,3.4471,3.0489,1.654,2.3111,3.2931,1.6411,0.1959,-1.8101
3.7578,3.5066,3.0541,3.1737,3.5739,2.2073,3.6229,1.3238,1.6237,2.9926,1.7921,1.4517,3.1169,4.0062,3.4472,4.2646,4.1714,5.5463,4.0175,4.5306,4.2447,4.4124,3.4755,3.1951,1.7944,2.4773,3.4551,1.8167,0.1577,-1.7631
3.6346,3.2613,2.8788,2.9346,3.4351,1.9867,3.632,1.2054,1.6787,3.0585,1.8854,1.5897,3.1928,4.0344,3.3784,4.1116,4.1167,5.5144,3.975,4.3918,4.1856,4.3449,3.5054,3.3335,1.9452,2.6339,3.607,1.9835,0.1112,-1.7171
3.5108,3.0666,2.7357,2.755,3.3348,1.805,3.659,1.0934,1.7268,3.1334,1.9877,1.7339,3.2661,4.0783,3.3169,3.9956,4.0814,5.4581,3.957,4.2902,4.16,4.3109,3.5461,3.4665,2.0983,2.7721,3.7488,2.1382,0.0637,-1.6839
3.4121,2.9523,2.6475,2.6575,3.2892,1.6778,3.7162,1.0051,1.7752,3.2266,2.1073,1.8854,3.3476,4.1476,3.2814,3.9415,4.0854,5.3912,3.9778,4.2458,4.1858,4.318,3.6009,3.5935,2.2413,2.8822,3.8786,2.2769,0.0245,-1.6723
3.3572,2.9326,2.626,2.6502,3.3041,1.6116,3.8095,0.9552,1.8297,3.3425,2.2474,2.0407,3.442,4.2444,3.2829,3.9608,4.1377,5.3271,4.0399,4.2661,4.2692,4.3621,3.6654,3.7082,2.3586,2.9538,3.9912,2.3933,0.0029,-1.6864
3.354,3.0034,2.6697,2.7251,3.3738,1.6034,3.9361,0.9532,1.8928,3.4776,2.4041,2.1909,3.5464,4.3629,3.3226,4.0479,4.2334,5.2756,4.1328,4.3444,4.4033,4.428,3.7277,3.7996,2.4338,2.9768,4.0772,2.4789,0.006,-1.7245
3.3987,3.1447,2.7656,2.8613,3.4826,1.6442,4.0842,1.0018,1.9622,3.621,2.5661,2.3223,3.6499,4.4893,3.3914,4.1824,4.3548,5.2403,4.2355,4.4612,4.5693,4.4923,3.7705,3.8532,2.4526,2.9428,4.1243,2.5235,0.037,-1.7792
3.4768,3.3242,2.8918,3.0299,3.6086,1.7215,4.2352,1.0954,2.0313,3.7557,2.7155,2.4183,3.7362,4.6056,3.4729,4.333,4.4753,5.2183,4.3207,4.5878,4.7404,4.5287,3.7755,3.8542,2.4058,2.8471,4.1195,2.5174,0.0941,-1.8393
3.5673,3.5052,3.023,3.1994,3.7284,1.8223,4.3673,1.2215,2.0901,3.8613,2.8309,2.4624,3.7868,4.6925,3.5478,4.4648,4.565,5.2012,4.3612,4.6926,4.8872,4.5137,3.728,3.7913,2.2919,2.6906,4.0518,2.4534,0.1709,-1.8925
3.6476,3.6529,3.1343,3.3412,3.8205,1.9335,4.4597,1.3622,2.1277,3.9188,2.892,2.4416,3.7856,4.7332,3.5982,4.5465,4.5973,5.1784,4.3358,4.7464,4.9831,4.4313,3.6203,3.6592,2.1179,2.4801,3.9155,2.3292,0.2575,-1.9281
3.7,3.7414,3.2064,3.4336,3.8682,2.0429,4.4972,1.4979,2.1353,3.9136,2.8836,2.3495,3.7221,4.7168,3.6119,4.5569,4.5545,5.1392,4.2335,4.7289,5.0095,4.2764,3.4543,3.4606,1.8984,2.2288,3.7119,2.1488,0.3434,-1.9391
3.7145,3.7568,3.2279,3.4637,3.862,2.1391,4.4724,1.6103,2.1084,3.8393,2.8001,2.189,3.5943,4.6394,3.5843,4.4878,4.4313,5.0758,4.0561,4.6319,4.9583,4.0556,3.2416,3.207,1.6539,1.9548,3.4507,1.9233,0.4189,-1.9236
3.6907,3.6979,3.1963,3.4282,3.7997,2.2117,4.3871,1.6859,2.0482,3.6988,2.6471,1.9726,3.4091,4.5051,3.5191,4.3454,4.2349,4.9841,3.8174,4.4606,4.8326,3.7865,3.0008,2.9171,1.4066,1.679,3.1492,1.67,0.4775,-1.8847
3.6359,3.574,3.1169,3.3315,3.6857,2.2526,4.251,1.7174,1.9611,3.5039,2.4407,1.721,3.1814,4.3244,3.426,4.1464,3.9833,4.864,3.5402,4.2314,4.6448,3.4938,2.7547,2.6148,1.1775,1.4223,2.8307,1.4099,0.5164,-1.8289
3.5616,3.4011,3.0005,3.1833,3.5294,2.2567,4.0792,1.7038,1.8573,3.2731,2.2049,1.4597,2.9308,4.1118,3.3178,3.9135,3.7008,4.7185,3.2508,3.9675,4.4136,3.2047,2.5256,2.3245,0.9827,1.2027,2.5209,1.1653,0.5365,-1.7646
3.4794,3.1977,2.8606,2.9966,3.3433,2.2237,3.8891,1.6502,1.7484,3.0281,1.9664,1.2143,2.6781,3.8836,3.2071,3.6699,3.4129,4.5533,2.9741,3.6935,4.1592,2.9444,2.3317,2.0685,0.8313,1.0326,2.2445,0.9555,0.5409,-1.6998
3.3981,2.982,2.7111,2.7859,3.1416,2.158,3.6974,1.566,1.6449,2.7905,1.7497,1.0072,2.442,3.6549,3.1028,3.4346,3.1424,4.3761,2.7298,3.4311,3.9004,2.7322,2.1848,1.8629,0.7254,0.9175,2.0214,0.7946,0.5341,-1.6408
3.3216,2.7691,2.5637,2.5659,2.9384,2.0683,3.5176,1.4628,1.555,2.5784,1.5735,0.8535,2.2361,3.4385,3.009,3.2199,2.9054,4.1961,2.5297,3.1954,3.6522,2.5791,2.0892,1.7167,0.6606,0.8555,1.864,0.6894,0.5204,-1.5911
3.2486,2.5693,2.4267,2.3501,2.7465,1.9658,3.3591,1.3525,1.4833,2.4049,1.4478,0.7601,2.0687,3.2437,2.924,3.0305,2.7102,4.0231,2.3778,2.9938,3.4245,2.4875,2.0426,1.6307,0.6288,0.8386,1.7765,0.6388,0.5032,-1.5511
3.1734,2.3868,2.3037,2.1488,2.5749,1.8605,3.2263,1.2449,1.4305,2.2767,1.3743,0.726,1.9415,3.076,2.8416,2.8643,2.5572,3.8667,2.2711,2.8255,3.2221,2.4517,2.0369,1.5992,0.6211,0.8552,1.7551,0.6358,0.4844,-1.5184
3.088,2.2196,2.1926,1.9673,2.4276,1.7582,3.1191,1.1463,1.3935,2.1945,1.3467,0.7436,1.8516,2.9373,2.753,2.7144,2.4396,3.7347,2.201,2.6836,3.0453,2.4602,2.0607,1.6114,0.6299,0.8925,1.7898,0.6693,0.465,-1.4884
2.9837,2.0606,2.0869,1.806,2.3028,1.6588,3.033,1.0587,1.3655,2.1533,1.3541,0.8009,1.7922,2.8258,2.65,2.5716,2.3458,3.6327,2.1551,2.5569,2.891,2.4975,2.1006,1.6544,0.6508,0.9398,1.8666,0.7269,0.4445,-1.4562
2.8543,1.9009,1.9776,1.6611,2.193,1.5561,2.9608,0.9795,1.3383,2.1444,1.3835,0.8844,1.755,2.7378,2.5266,2.4262,2.2615,3.5624,2.1201,2.4328,2.7543,2.5467,2.1435,1.7161,0.6831,0.9897,1.9706,0.7982,0.4213,-1.4168
2.6981,1.7322,1.8561,1.5267,2.0878,1.4403,2.8946,0.9034,1.3036,2.1574,1.4227,0.9815,1.7316,2.6681,2.3812,2.2709,2.1724,3.5217,2.0828,2.3009,2.6302,2.5919,2.1782,1.787,0.7281,1.0399,2.0877,0.8759,0.3927,-1.3669
2.5186,1.5506,1.7171,1.3974,1.9764,1.3015,2.8279,0.825,1.2562,2.1825,1.4628,1.0822,1.7159,2.6111,2.217,2.102,2.0672,3.5054,2.0327,2.1547,2.5145,2.6198,2.1967,1.8617,0.7879,1.0915,2.207,0.9565,0.3563,-1.305
2.3251,1.3573,1.5602,1.2693,1.8505,1.1339,2.7573,0.741,1.1959,2.2122,1.4992,1.1797,1.7042,2.562,2.0423,1.9198,1.9391,3.5057,1.9624,1.9933,2.4043,2.6207,2.1946,1.9374,0.8624,1.1479,2.3204,1.0393,0.3101,-1.2324
2.1312,1.1592,1.3911,1.141,1.7067,0.9388,2.6842,0.6528,1.1287,2.2423,1.532,1.2707,1.6954,2.5164,1.869,1.7284,1.7871,3.5145,1.8677,1.8204,2.2983,2.5888,2.1703,2.0125,0.9481,1.2116,2.4226,1.1249,0.2548,-1.153
1.953,0.9677,1.2205,1.013,1.5478,0.7261,2.6139,0.5673,1.0666,2.2726,1.5652,1.3544,1.6905,2.4715,1.7116,1.5348,1.6155,3.524,1.7475,1.6434,2.1962,2.5206,2.1243,2.0843,1.0371,1.2824,2.5102,1.2125,0.194,-1.073
1.8071,0.7971,1.0629,0.8875,1.3829,0.5139,2.5551,0.4969,1.0259,2.3064,1.6059,1.4316,1.6913,2.4252,1.5848,1.3478,1.4325,3.5282,1.6021,1.4706,2.0984,2.4149,2.0584,2.1475,1.1176,1.3561,2.5808,1.2995,0.1344,-1.0003
1.7081,0.6634,0.9348,0.7682,1.2267,0.3259,2.5181,0.4572,1.0252,2.3499,1.6635,1.5043,1.7004,2.3777,1.5015,1.1769,1.2488,3.5235,1.4334,1.3103,2.006,2.2718,1.9748,2.1947,1.1767,1.4253,2.6334,1.3814,0.0848,-0.9436
1.6672,0.5821,0.852,0.6606,1.0965,0.1873,2.5125,0.4644,1.0818,2.4111,1.7479,1.5751,1.7203,2.3305,1.4711,1.0306,1.075,3.5091,1.2443,1.1685,1.9208,2.0931,1.8761,2.2183,1.2026,1.4813,2.6684,1.4531,0.054,-0.9107
1.6902,0.5658,0.8268,0.5712,1.0089,0.119,2.5453,0.531,1.2084,2.4978,1.8677,1.6472,1.754,2.2872,1.4977,0.9154,0.9195,3.4868,1.038,1.0489,1.845,1.8823,1.7657,2.2129,1.1877,1.5168,2.6886,1.5114,0.0484,-0.9075
1.776,0.6206,0.865,0.5053,0.9746,0.1326,2.6194,0.6629,1.4098,2.6153,2.028,1.7237,1.8033,2.2512,1.5793,0.8337,0.7866,3.4599,0.8183,0.952,1.7803,1.6446,1.6469,2.1773,1.1307,1.528,2.6984,1.5552,0.0705,-0.9361
1.9157,0.7427,0.9629,0.4645,0.9949,0.2262,2.7318,0.8562,1.6806,2.7645,2.2282,1.8068,1.8682,2.2248,1.7071,0.7827,0.6758,3.4322,0.5887,0.8745,1.727,1.3863,1.5231,2.115,1.0365,1.516,2.703,1.5868,0.1178,-0.9939
2.0935,0.9163,1.1066,0.4444,1.0597,0.3828,2.8735,1.0971,2.0045,2.9403,2.4607,1.8973,1.9459,2.2075,1.8668,0.7541,0.5819,3.4062,0.3524,0.8103,1.6825,1.1147,1.397,2.0332,0.9154,1.4858,2.707,1.6101,0.1841,-1.0736
2.288,1.116,1.2736,0.4351,1.1491,0.5733,3.0307,1.3635,2.3565,3.132,2.7118,1.9935,2.0309,2.1954,2.0402,0.7355,0.4962,3.3826,0.1127,0.7511,1.642,0.8374,1.2702,1.9418,0.7808,1.4457,2.7131,1.6297,0.2604,-1.1643
