FP1,F3,F7,FC3,C3,C5,P3,P7,PO7,PO3,O1,Oz,Pz,CPz,FP2,Fz,F4,F8,FC4,FCz,Cz,C4,C6,P4,P8,PO8,PO4,O2,(corr) HEOG,(corr) VEOG
1.0134,1.0736,0.4638,1.2645,1.1668,0.9857,0.8287,0.3291,0.4145,0.9002,0.7019,0.8356,1.1142,1.4153,0.8637,1.3259,1.0853,0.3576,0.9833,1.4799,1.4214,1.0041,0.9333,1.2361,0.575,1.0189,1.3943,0.8699,-0.17,-0.22
0.924,0.9705,0.3553,1.1975,1.1274,0.9569,0.8708,0.3244,0.3895,0.9509,0.7149,0.8101,1.1449,1.4364,0.7765,1.2807,1.1126,0.3244,1.0518,1.4248,1.3912,1.0876,1.0061,1.2928,0.5898,1.0205,1.434,0.8094,-0.192,-0.1994
0.8112,0.8356,0.2292,1.0726,1.0352,0.8754,0.8633,0.2702,0.3337,0.9514,0.6889,0.7474,1.1258,1.4009,0.6607,1.1954,1.1135,0.2774,1.0955,1.3198,1.3122,1.1514,1.0529,1.2987,0.5779,0.9892,1.4169,0.7058,-0.2114,-0.1608
0.6932,0.6835,0.0951,0.9068,0.902,0.7477,0.8047,0.1628,0.249,0.8984,0.6252,0.6527,1.0593,1.3158,0.5347,1.0828,1.0945,0.2262,1.1133,1.1839,1.1962,1.1938,1.0733,1.2542,0.5431,0.9311,1.3437,0.5691,-0.2267,-0.1119
0.5895,0.5296,-0.0374,0.72,0.7431,0.5851,0.6984,0.0075,0.14,0.7935,0.5278,0.5322,0.9506,1.1918,0.4188,0.9579,1.0636,0.18,1.107,1.0381,1.0572,1.2152,1.0686,1.1631,0.49,0.851,1.219,0.4083,-0.2361,-0.0631
0.5172,0.3894,-0.1585,0.5332,0.5767,0.4035,0.5538,-0.1801,0.0142,0.6447,0.4043,0.3926,0.8088,1.0436,0.3313,0.8372,1.0298,0.1458,1.0829,0.9036,0.9111,1.2191,1.0429,1.0337,0.4239,0.7526,1.0516,0.232,-0.2377,-0.0251
0.4897,0.2782,-0.258,0.368,0.4228,0.2242,0.3865,-0.3757,-0.1176,0.4669,0.2653,0.2427,0.6477,0.8886,0.2854,0.7377,1.0026,0.128,1.0511,0.8001,0.7757,1.2126,1.0031,0.8784,0.3509,0.6396,0.8556,0.0489,-0.2308,-0.0064
0.5149,0.2109,-0.3245,0.245,0.3028,0.071,0.2176,-0.5502,-0.2419,0.2808,0.1244,0.0931,0.4855,0.7465,0.2881,0.6755,0.991,0.1279,1.0252,0.7444,0.67,1.2055,0.9589,0.7143,0.2777,0.5184,0.6501,-0.1298,-0.2155,-0.0119
0.5958,0.2004,-0.3472,0.1821,0.2364,-0.0317,0.0708,-0.6758,-0.3445,0.11,-0.0035,-0.0432,0.3431,0.6373,0.3403,0.6649,1.0029,0.1442,1.0193,0.7496,0.6125,1.208,0.921,0.5612,0.2115,0.398,0.4576,-0.2908,-0.1939,-0.0424
0.7306,0.2568,-0.3168,0.1924,0.24,-0.0641,-0.0316,-0.7317,-0.4126,-0.0226,-0.1042,-0.1528,0.2411,0.5789,0.4385,0.7171,1.0448,0.1745,1.0451,0.8238,0.6188,1.2288,0.8989,0.4385,0.1586,0.2897,0.301,-0.419,-0.1688,-0.0947
0.9151,0.3861,-0.2274,0.2825,0.3242,-0.0132,-0.0721,-0.7087,-0.4368,-0.0991,-0.1662,-0.2232,0.1961,0.5842,0.5774,0.8392,1.1209,0.2161,1.1092,0.9696,0.6988,1.2725,0.8996,0.3627,0.1229,0.2055,0.1997,-0.5004,-0.1436,-0.1635
1.1428,0.5893,-0.0777,0.4528,0.4923,0.1246,-0.0412,-0.6104,-0.413,-0.1098,-0.1825,-0.2456,0.2186,0.6593,0.7513,1.0338,1.2337,0.2679,1.2127,1.1845,0.8552,1.3395,0.9262,0.3443,0.1061,0.1557,0.1666,-0.524,-0.1213,-0.2419
1.406,0.862,0.1285,0.6969,0.7396,0.3432,0.0614,-0.4518,-0.3426,-0.0542,-0.1516,-0.2164,0.3101,0.8024,0.9551,1.2982,1.3839,0.3294,1.3512,1.4603,1.0823,1.4268,0.9784,0.386,0.1077,0.1469,0.2051,-0.4852,-0.1038,-0.3235
1.6948,1.1929,0.3817,1.0021,1.0524,0.627,0.2262,-0.2557,-0.2327,0.0583,-0.0782,-0.1387,0.463,1.0034,1.1827,1.6227,1.5692,0.4006,1.5165,1.7829,1.3657,1.5294,1.0529,0.4827,0.1256,0.1809,0.3088,-0.3869,-0.092,-0.4022
1.9954,1.5623,0.6668,1.3476,1.4076,0.9516,0.4342,-0.0485,-0.0956,0.2101,0.0272,-0.0219,0.6602,1.2437,1.4251,1.9885,1.7825,0.4796,1.6967,2.1314,1.6826,1.6406,1.1438,0.6212,0.1571,0.2533,0.4616,-0.2403,-0.0857,-0.4728
2.2886,1.9407,0.9619,1.704,1.7724,1.2847,0.6594,0.1439,0.0522,0.3779,0.1489,0.1183,0.8771,1.4972,1.6678,2.3667,2.0102,0.5616,1.8763,2.4768,2.0025,1.7517,1.242,0.7822,0.1992,0.3546,0.6404,-0.0636,-0.0839,-0.5306
2.55,2.2891,1.2387,2.0325,2.1058,1.588,0.8708,0.2988,0.1913,0.5353,0.2685,0.2632,1.0835,1.7323,1.8911,2.718,2.2303,0.6377,2.0356,2.7831,2.2891,1.8505,1.335,0.9419,0.2485,0.4714,0.8185,0.1207,-0.0857,-0.5719
2.7512,2.5623,1.4643,2.2886,2.3632,1.8208,1.037,0.3986,0.3024,0.6575,0.3668,0.3928,1.2485,1.9152,2.071,2.9967,2.4143,0.6958,2.1517,3.0102,2.5038,1.9216,1.4077,1.0758,0.3012,0.5885,0.9697,0.2896,-0.0905,-0.5937
2.8644,2.7158,1.604,2.4282,2.5021,1.9453,1.1308,0.4316,0.3686,0.725,0.4279,0.4902,1.3444,2.0143,2.1834,3.1567,2.5309,0.722,2.2011,3.1196,2.6109,1.948,1.444,1.1623,0.353,0.6919,1.073,0.4232,-0.098,-0.5953
2.8681,2.7142,1.6285,2.4161,2.4907,1.9335,1.1343,0.3925,0.3789,0.7273,0.4421,0.5437,1.3528,2.0063,2.2087,3.1603,2.552,0.7034,2.164,3.0818,2.5838,1.9144,1.4303,1.1866,0.3993,0.7706,1.1161,0.5079,-0.1081,-0.5775
2.7519,2.5408,1.5201,2.234,2.3151,1.7735,1.0419,0.2832,0.3307,0.6645,0.408,0.55,1.268,1.8809,2.1363,2.9865,2.4593,0.6307,2.0296,2.8837,2.4113,1.812,1.3584,1.1434,0.4358,0.8184,1.0972,0.5386,-0.1206,-0.5436
2.5208,2.2028,1.2792,1.8867,1.9846,1.4744,0.8626,0.1146,0.2308,0.5478,0.333,0.5137,1.099,1.644,1.9667,2.638,2.2493,0.5009,1.7995,2.5332,2.101,1.6414,1.2284,1.0386,0.4587,0.8335,1.0253,0.5181,-0.1347,-0.4974
2.1952,1.733,0.9267,1.4039,1.5324,1.0668,0.6183,-0.0941,0.0943,0.3972,0.2316,0.4465,0.8682,1.318,1.7132,2.1425,1.9354,0.3184,1.4887,2.0603,1.6804,1.4134,1.0486,0.8871,0.4647,0.8186,0.9173,0.4567,-0.1492,-0.4434
1.8087,1.1853,0.5023,0.8362,1.0112,0.5989,0.34,-0.3163,-0.0583,0.2367,0.1217,0.364,0.6067,0.9376,1.3993,1.5502,1.5466,0.0959,1.1242,1.5136,1.1931,1.1472,0.8341,0.7095,0.4507,0.7783,0.7941,0.3683,-0.1627,-0.3855
1.403,0.6259,0.0582,0.2478,0.4842,0.1285,0.0623,-0.5231,-0.2059,0.0895,0.0205,0.2814,0.3485,0.5443,1.057,0.9262,1.1232,-0.1473,0.7408,0.9521,0.6917,0.8667,0.6036,0.5274,0.4138,0.7175,0.6755,0.2672,-0.1736,-0.3273
1.0215,0.1217,-0.3502,-0.2943,0.0135,-0.2877,-0.1838,-0.6879,-0.3301,-0.0268,-0.0594,0.21,0.1232,0.1785,0.7222,0.3397,0.7101,-0.3872,0.375,0.4362,0.2292,0.5954,0.3758,0.3581,0.3509,0.6399,0.5756,0.165,-0.1802,-0.2722
0.7044,-0.2697,-0.6732,-0.7306,-0.3494,-0.6033,-0.3747,-0.792,-0.4185,-0.1032,-0.112,0.1552,-0.0489,-0.1268,0.4308,-0.1467,0.3505,-0.5988,0.0601,0.0178,-0.1493,0.3533,0.1669,0.2126,0.2597,0.5476,0.5005,0.0692,-0.1808,-0.2242
0.4842,-0.5085,-0.8743,-1.0173,-0.5707,-0.7887,-0.4976,-0.8271,-0.4653,-0.1389,-0.137,0.1178,-0.1584,-0.3491,0.2152,-0.4851,0.0797,-0.7594,-0.1774,-0.2655,-0.4123,0.1553,-0.011,0.0945,0.1402,0.4425,0.4487,-0.0159,-0.1736,-0.1878
0.3842,-0.5761,-0.9342,-1.1309,-0.6364,-0.8329,-0.5491,-0.7949,-0.4696,-0.1391,-0.1379,0.0957,-0.2066,-0.4781,0.1002,-0.6477,-0.0779,-0.852,-0.3206,-0.3939,-0.5435,0.0113,-0.1493,0.0027,-0.004,0.3287,0.4141,-0.0869,-0.1567,-0.1679
0.4165,-0.4751,-0.8519,-1.0693,-0.5506,-0.7423,-0.534,-0.7048,-0.4347,-0.1123,-0.1194,0.087,-0.202,-0.5143,0.1006,-0.6277,-0.1111,-0.8678,-0.3622,-0.3654,-0.5422,-0.0734,-0.2431,-0.0666,-0.1646,0.2136,0.3887,-0.1396,-0.129,-0.1688
0.5806,-0.2264,-0.6437,-0.8498,-0.3329,-0.5376,-0.4627,-0.5713,-0.3662,-0.0675,-0.0853,0.0907,-0.1584,-0.4681,0.2179,-0.439,-0.023,-0.8077,-0.3055,-0.1947,-0.4206,-0.0982,-0.2912,-0.1178,-0.3296,0.1066,0.3653,-0.17,-0.0905,-0.1929
0.8616,0.1341,-0.3404,-0.5062,-0.0144,-0.2499,-0.3504,-0.4116,-0.2721,-0.0138,-0.0392,0.1065,-0.0922,-0.3577,0.4395,-0.1134,0.1695,-0.6835,-0.1645,0.0896,-0.2027,-0.0682,-0.2966,-0.156,-0.485,0.0174,0.3382,-0.1751,-0.0429,-0.2397
1.2299,0.561,0.0161,-0.0841,0.3654,0.0833,-0.2155,-0.2441,-0.1632,0.0395,0.0145,0.133,-0.0216,-0.2078,0.7387,0.3032,0.437,-0.5158,0.0369,0.4481,0.0791,0.0045,-0.2675,-0.187,-0.6182,-0.0466,0.3031,-0.155,0.01,-0.3052
1.6431,1.0042,0.3786,0.3656,0.763,0.4213,-0.0792,-0.0881,-0.0527,0.0829,0.0698,0.1664,0.0354,-0.047,1.0777,0.7567,0.7408,-0.3317,0.2672,0.8344,0.3859,0.1016,-0.2169,-0.2176,-0.7194,-0.0826,0.2571,-0.1144,0.0629,-0.3818
2.0504,1.4147,0.7008,0.7922,1.1342,0.7252,0.0363,0.038,0.0438,0.1063,0.1177,0.1997,0.0618,0.095,1.4131,1.1907,1.0377,-0.1604,0.4911,1.2004,0.6768,0.2008,-0.1609,-0.2552,-0.7839,-0.0924,0.1977,-0.062,0.1097,-0.4601
2.4005,1.749,0.9439,1.1513,1.4391,0.9607,0.1099,0.1177,0.1103,0.0997,0.1471,0.223,0.0439,0.1913,1.7017,1.5532,1.2848,-0.0289,0.6738,1.5016,0.9126,0.2791,-0.1166,-0.3073,-0.8118,-0.0823,0.1232,-0.0099,0.1445,-0.5299
2.6494,1.9735,1.081,1.4089,1.6452,1.1024,0.1247,0.1388,0.1327,0.0549,0.1467,0.2252,-0.0276,0.2207,1.9073,1.8021,1.4456,0.0426,0.7861,1.7017,1.0609,0.3166,-0.0992,-0.3797,-0.808,-0.0621,0.0324,0.0279,0.1628,-0.583
2.7676,2.0663,1.1006,1.5428,1.7308,1.135,0.0702,0.0956,0.1012,-0.0326,0.1073,0.1958,-0.1552,0.1708,2.0054,1.9088,1.4938,0.0428,0.8077,1.7756,1.0993,0.2997,-0.1204,-0.476,-0.7807,-0.043,-0.0751,0.0379,0.1624,-0.6139
2.7441,2.0175,1.0062,1.5429,1.6863,1.0548,-0.0549,-0.0091,0.0132,-0.1622,0.0247,0.1284,-0.3344,0.0396,1.9852,1.8601,1.4156,-0.0287,0.7286,1.7117,1.0186,0.2219,-0.1864,-0.5955,-0.7396,-0.0356,-0.198,0.0091,0.1435,-0.6207
2.5858,1.8287,0.8148,1.4099,1.5145,0.8691,-0.2424,-0.1641,-0.1259,-0.3267,-0.0986,0.0225,-0.5532,-0.1646,1.8491,1.6572,1.2104,-0.1632,0.5498,1.5111,0.8231,0.0851,-0.2975,-0.7333,-0.6943,-0.0481,-0.3326,-0.0637,0.1084,-0.6046
2.3139,1.5106,0.5517,1.1535,1.2298,0.5946,-0.4753,-0.3516,-0.3027,-0.5134,-0.2536,-0.1155,-0.7939,-0.4249,1.61,1.3137,0.8895,-0.3445,0.2812,1.1859,0.5288,-0.1029,-0.449,-0.8809,-0.6524,-0.0843,-0.473,-0.1791,0.061,-0.5685
1.9578,1.0809,0.2459,0.7908,0.8557,0.2545,-0.731,-0.5496,-0.4986,-0.706,-0.4266,-0.2741,-1.0363,-0.7192,1.2872,0.852,0.4728,-0.5536,-0.0604,0.7559,0.1596,-0.3302,-0.6327,-1.0279,-0.6194,-0.1435,-0.6117,-0.3292,0.0059,-0.5165
1.548,0.5615,-0.0761,0.3443,0.4215,-0.1244,-0.9854,-0.7361,-0.693,-0.888,-0.6023,-0.4394,-1.2617,-1.0246,0.9032,0.2999,-0.0149,-0.7726,-0.4545,0.2455,-0.2575,-0.5841,-0.8387,-1.1649,-0.5984,-0.2221,-0.7415,-0.5012,-0.0528,-0.453
1.1113,-0.0231,-0.3941,-0.16,-0.0416,-0.5157,-1.2174,-0.8921,-0.8677,-1.0463,-0.7677,-0.5984,-1.4559,-1.3218,0.48,-0.313,-0.547,-0.9874,-0.8795,-0.3199,-0.6966,-0.853,-1.0575,-1.2859,-0.5908,-0.3145,-0.8568,-0.6804,-0.1113,-0.3823
0.6683,-0.6465,-0.6959,-0.6939,-0.504,-0.8961,-1.4125,-1.0046,-1.0101,-1.1738,-0.9138,-0.7418,-1.6124,-1.5971,0.0383,-0.957,-1.0977,-1.1898,-1.3142,-0.915,-1.1362,-1.1271,-1.2808,-1.3888,-0.597,-0.4153,-0.9545,-0.8529,-0.1669,-0.3091
0.2333,-1.2812,-0.9767,-1.2295,-0.9404,-1.2474,-1.5647,-1.069,-1.1146,-1.2699,-1.0368,-0.8644,-1.7313,-1.8433,-0.4028,-1.6031,-1.6424,-1.3762,-1.7383,-1.5152,-1.5593,-1.3982,-1.5012,-1.4753,-0.6164,-0.5196,-1.0342,-1.0077,-0.2174,-0.2374
-0.1833,-1.8981,-1.2357,-1.7398,-1.332,-1.5572,-1.6755,-1.0886,-1.1819,-1.3396,-1.1369,-0.965,-1.8183,-2.058,-0.8254,-2.2229,-2.1578,-1.5454,-2.1323,-2.0954,-1.952,-1.6569,-1.7108,-1.5484,-0.6475,-0.6228,-1.0966,-1.137,-0.2611,-0.1711
-0.5717,-2.4667,-1.4724,-2.2006,-1.6662,-1.818,-1.7516,-1.0727,-1.2171,-1.3907,-1.2156,-1.0438,-1.8809,-2.2408,-1.2119,-2.7881,-2.621,-1.696,-2.4771,-2.6295,-2.3009,-1.8917,-1.8999,-1.6097,-0.6876,-0.7205,-1.1425,-1.236,-0.296,-0.1134
-0.92,-2.9563,-1.6829,-2.5903,-1.9355,-2.0254,-1.8013,-1.0337,-1.227,-1.4302,-1.2742,-1.101,-1.9254,-2.3905,-1.5445,-3.2708,-3.0094,-1.8243,-2.754,-3.0897,-2.5917,-2.0875,-2.0571,-1.6577,-0.7325,-0.8077,-1.1712,-1.3025,-0.3202,-0.0665
-1.2137,-3.3382,-1.8594,-2.8908,-2.1365,-2.1769,-1.8314,-0.9835,-1.2179,-1.4626,-1.3126,-1.1357,-1.9547,-2.5035,-1.8066,-3.645,-3.3027,-1.9239,-2.9465,-3.4487,-2.8089,-2.2277,-2.1696,-1.6874,-0.7778,-0.8798,-1.1808,-1.3358,-0.3314,-0.0317
-1.4366,-3.5889,-1.9911,-3.0881,-2.2676,-2.2703,-1.8453,-0.9308,-1.1951,-1.4882,-1.3297,-1.1462,-1.9684,-2.5739,-1.9843,-3.8893,-3.4841,-1.9869,-3.0426,-3.6825,-2.9382,-2.2974,-2.2265,-1.6922,-0.819,-0.933,-1.1695,-1.3372,-0.3281,-0.0098
-1.5739,-3.6939,-2.0678,-3.1737,-2.329,-2.3043,-1.8434,-0.881,-1.163,-1.5051,-1.3249,-1.1317,-1.9638,-2.596,-2.0687,-3.9902,-3.5443,-2.0062,-3.0377,-3.7754,-2.9704,-2.2877,-2.2211,-1.6666,-0.8525,-0.9653,-1.1368,-1.3093,-0.3101,-0.0007
-1.6149,-3.6513,-2.0831,-3.1467,-2.3223,-2.2798,-1.8248,-0.8372,-1.126,-1.5101,-1.2994,-1.0932,-1.9388,-2.5672,-2.0582,-3.9448,-3.4831,-1.9782,-2.9356,-3.7235,-2.9047,-2.1984,-2.1536,-1.6089,-0.8767,-0.9772,-1.0847,-1.2567,-0.2788,-0.0043
-1.5569,-3.4733,-2.0375,-3.0148,-2.2519,-2.2012,-1.7891,-0.8012,-1.0887,-1.5019,-1.2572,-1.0344,-1.8938,-2.4903,-1.9589,-3.7627,-3.3107,-1.9045,-2.7494,-3.5372,-2.7515,-2.0399,-2.0319,-1.5232,-0.8919,-0.9712,-1.0182,-1.1852,-0.2377,-0.0196
-1.4063,-3.1852,-1.9385,-2.7951,-2.1253,-2.0774,-1.7389,-0.7754,-1.0557,-1.4815,-1.2036,-0.9615,-1.8332,-2.3748,-1.7854,-3.4649,-3.0464,-1.7927,-2.4993,-3.2404,-2.5308,-1.8313,-1.8705,-1.4191,-0.9002,-0.9509,-0.9442,-1.1016,-0.1915,-0.0445
-1.1791,-2.8215,-1.7996,-2.5122,-1.9538,-1.9209,-1.6791,-0.7623,-1.0303,-1.4526,-1.1449,-0.8814,-1.7648,-2.2357,-1.5581,-3.0815,-2.7166,-1.6549,-2.2103,-2.867,-2.2696,-1.5975,-1.6882,-1.31,-0.9045,-0.9196,-0.8703,-1.012,-0.1456,-0.0758
-0.8982,-2.4199,-1.6366,-2.1948,-1.7516,-1.7468,-1.6171,-0.7637,-1.0135,-1.4206,-1.0862,-0.8007,-1.6985,-2.0906,-1.3006,-2.6477,-2.3504,-1.5059,-1.9076,-2.4551,-1.9963,-1.3648,-1.505,-1.2103,-0.9076,-0.8797,-0.8029,-0.9215,-0.1048,-0.1086
-0.5904,-2.0147,-1.465,-1.8715,-1.5347,-1.5697,-1.5599,-0.7797,-1.0038,-1.3909,-1.0317,-0.725,-1.6438,-1.9561,-1.0353,-2.1979,-1.9755,-1.3598,-1.6138,-2.0413,-1.7355,-1.1567,-1.3385,-1.1325,-0.9119,-0.8322,-0.7466,-0.8337,-0.0726,-0.138
-0.2811,-1.6319,-1.2963,-1.5668,-1.319,-1.4022,-1.5133,-0.8081,-0.9981,-1.3679,-0.9844,-0.6584,-1.6074,-1.8443,-0.7797,-1.7624,-1.6153,-1.2276,-1.3457,-1.6545,-1.5041,-0.9903,-1.2017,-1.0854,-0.9189,-0.7779,-0.704,-0.7511,-0.0507,-0.1598
0.0091,-1.2867,-1.137,-1.298,-1.1188,-1.2533,-1.4803,-0.8445,-0.9926,-1.354,-0.9471,-0.6045,-1.5917,-1.7614,-0.5444,-1.3634,-1.2859,-1.1155,-1.1128,-1.3137,-1.3095,-0.8742,-1.1015,-1.0722,-0.9298,-0.7183,-0.6763,-0.6761,-0.0383,-0.1723
0.2673,-0.9846,-0.9882,-1.0741,-0.9459,-1.1282,-1.4608,-0.8834,-0.9847,-1.3496,-0.9219,-0.5662,-1.5941,-1.7069,-0.333,-1.0143,-0.9955,-1.0244,-0.917,-1.026,-1.1502,-0.8076,-1.0382,-1.0912,-0.9463,-0.6568,-0.6633,-0.6115,-0.0332,-0.176
0.4883,-0.7236,-0.8474,-0.8964,-0.8089,-1.0283,-1.4525,-0.9192,-0.9731,-1.3528,-0.9107,-0.5463,-1.607,-1.6743,-0.144,-0.7199,-0.7448,-0.9496,-0.7538,-0.7891,-1.0179,-0.7808,-1.0059,-1.1357,-0.9706,-0.5993,-0.6642,-0.5616,-0.0316,-0.1739
0.6733,-0.498,-0.7109,-0.7606,-0.7118,-0.9522,-1.451,-0.9474,-0.9581,-1.3602,-0.9132,-0.5467,-1.6191,-1.6533,0.0267,-0.4782,-0.5291,-0.8826,-0.6142,-0.5934,-0.901,-0.7777,-0.9936,-1.1951,-1.005,-0.5536,-0.6773,-0.5315,-0.0291,-0.1703
0.8281,-0.3008,-0.5754,-0.658,-0.6536,-0.896,-1.4507,-0.9645,-0.9403,-1.367,-0.9268,-0.567,-1.6175,-1.6309,0.1833,-0.2822,-0.3398,-0.8127,-0.4872,-0.4258,-0.787,-0.7782,-0.9876,-1.2567,-1.0505,-0.5269,-0.6991,-0.5256,-0.0219,-0.1698
0.9598,-0.126,-0.4397,-0.5786,-0.6277,-0.8536,-1.4455,-0.9683,-0.9203,-1.3677,-0.9462,-0.6043,-1.5895,-1.5938,0.3294,-0.1214,-0.1677,-0.7301,-0.3626,-0.273,-0.6648,-0.7633,-0.9737,-1.3069,-1.1057,-0.5246,-0.7242,-0.546,-0.0072,-0.1762
1.076,0.0315,-0.3047,-0.5117,-0.6225,-0.8174,-1.4292,-0.957,-0.8981,-1.3569,-0.9642,-0.6528,-1.5253,-1.5303,0.4671,0.0155,-0.0044,-0.6281,-0.2323,-0.1238,-0.526,-0.7178,-0.9397,-1.3337,-1.1664,-0.5479,-0.746,-0.5911,0.0156,-0.1925
1.1827,0.175,-0.173,-0.4482,-0.6234,-0.7791,-1.3966,-0.9295,-0.8728,-1.3303,-0.9735,-0.7043,-1.4203,-1.432,0.5977,0.1391,0.1551,-0.5054,-0.0922,0.0286,-0.3666,-0.6341,-0.8785,-1.3285,-1.2255,-0.5937,-0.7576,-0.6549,0.0451,-0.22
1.2843,0.3063,-0.0477,-0.3812,-0.6154,-0.7315,-1.3439,-0.8859,-0.8436,-1.2853,-0.9684,-0.7505,-1.2758,-1.2956,0.722,0.2573,0.312,-0.3663,0.0568,0.1856,-0.1874,-0.513,-0.789,-1.2875,-1.2749,-0.655,-0.7535,-0.728,0.0783,-0.2589
1.3827,0.4249,0.0674,-0.3074,-0.5861,-0.6695,-1.2704,-0.8276,-0.8098,-1.2223,-0.946,-0.7833,-1.0995,-1.1242,0.8396,0.3738,0.4633,-0.22,0.2098,0.3433,0.0054,-0.3628,-0.6757,-1.2125,-1.307,-0.723,-0.7307,-0.7992,0.1113,-0.3079
1.4766,0.5286,0.1683,-0.2275,-0.5284,-0.5921,-1.1779,-0.7575,-0.7714,-1.1441,-0.9067,-0.797,-0.9043,-0.9267,0.9488,0.4872,0.6029,-0.078,0.3584,0.4932,0.2011,-0.1975,-0.5479,-1.1104,-1.3158,-0.7883,-0.6896,-0.857,0.1405,-0.3643
1.5608,0.6127,0.2504,-0.1466,-0.4422,-0.5024,-1.072,-0.6807,-0.7294,-1.0566,-0.8538,-0.7884,-0.7068,-0.7176,1.0454,0.5912,0.7226,0.0479,0.4928,0.6236,0.3852,-0.0324,-0.4167,-0.9917,-1.2987,-0.8436,-0.634,-0.8924,0.1633,-0.4238
1.6266,0.6704,0.3087,-0.0736,-0.3345,-0.4079,-0.9611,-0.6032,-0.6862,-0.9678,-0.7933,-0.7579,-0.5245,-0.5151,1.1224,0.6756,0.8144,0.1475,0.6037,0.7217,0.5415,0.118,-0.2934,-0.8694,-1.2565,-0.8844,-0.5707,-0.9005,0.1788,-0.4808
1.6624,0.6938,0.3388,-0.02,-0.2183,-0.3193,-0.8563,-0.5313,-0.6461,-0.887,-0.7322,-0.7097,-0.3743,-0.3383,1.1705,0.7284,0.8709,0.2137,0.6834,0.7756,0.6548,0.2431,-0.1875,-0.7567,-1.1938,-0.9102,-0.5089,-0.8821,0.1875,-0.5286
1.6563,0.6743,0.3381,0.002,-0.1099,-0.2482,-0.7703,-0.4711,-0.6145,-0.8243,-0.6783,-0.6518,-0.2701,-0.2046,1.1796,0.7385,0.8865,0.2431,0.7264,0.7768,0.7134,0.3359,-0.1063,-0.6657,-1.1183,-0.924,-0.4584,-0.8437,0.1908,-0.561
1.5973,0.6046,0.3066,-0.0175,-0.0254,-0.2052,-0.7148,-0.4271,-0.5978,-0.7885,-0.6394,-0.5952,-0.2215,-0.127,1.1402,0.6972,0.8579,0.236,0.73,0.7213,0.711,0.3934,-0.0546,-0.6059,-1.0392,-0.931,-0.4285,-0.7969,0.1901,-0.5727
1.4777,0.4805,0.2479,-0.084,0.0221,-0.1973,-0.6991,-0.4016,-0.6018,-0.7865,-0.6222,-0.5528,-0.2328,-0.112,1.0464,0.6009,0.7844,0.196,0.6935,0.6117,0.6486,0.4152,-0.0346,-0.583,-0.9662,-0.9372,-0.4267,-0.7559,0.1865,-0.5606
1.2953,0.3026,0.1687,-0.1963,0.026,-0.2264,-0.7281,-0.3946,-0.6303,-0.8216,-0.6324,-0.5378,-0.3028,-0.1584,0.897,0.452,0.6684,0.1299,0.6186,0.4563,0.5342,0.4031,-0.0464,-0.5986,-0.9072,-0.9479,-0.4569,-0.7348,0.1801,-0.5242
1.0548,0.0785,0.0778,-0.3466,-0.013,-0.2888,-0.8007,-0.4036,-0.6841,-0.8932,-0.6734,-0.5609,-0.425,-0.2583,0.6969,0.2593,0.5154,0.0458,0.5094,0.2685,0.3814,0.3604,-0.0877,-0.6504,-0.8676,-0.9667,-0.5197,-0.7448,0.1706,-0.4658
0.7682,-0.1782,-0.0149,-0.5209,-0.0876,-0.3761,-0.9106,-0.4247,-0.7599,-0.9968,-0.7459,-0.6284,-0.5893,-0.399,0.4567,0.0363,0.3336,-0.0477,0.3714,0.0642,0.2063,0.2912,-0.1547,-0.733,-0.8493,-0.9941,-0.6119,-0.792,0.1568,-0.3894
0.4532,-0.4487,-0.101,-0.7025,-0.187,-0.4779,-1.0474,-0.4543,-0.8513,-1.1244,-0.8477,-0.7406,-0.7838,-0.5663,0.1907,-0.2013,0.1325,-0.144,0.2111,-0.1416,0.0238,0.2,-0.2426,-0.8399,-0.8501,-1.0284,-0.7276,-0.876,0.1378,-0.3
0.1311,-0.7136,-0.1754,-0.8751,-0.3,-0.5847,-1.1993,-0.4907,-0.9495,-1.2664,-0.973,-0.8911,-0.9964,-0.7481,-0.0853,-0.4386,-0.0782,-0.239,0.0351,-0.3378,-0.1561,0.0911,-0.3464,-0.9645,-0.865,-1.0659,-0.859,-0.9907,0.1127,-0.2025
-0.1774,-0.9566,-0.2376,-1.0263,-0.419,-0.6906,-1.3559,-0.5353,-1.0459,-1.4129,-1.1139,-1.0681,-1.2172,-0.9362,-0.357,-0.6648,-0.2902,-0.3323,-0.1507,-0.5197,-0.3301,-0.0315,-0.4609,-1.1011,-0.887,-1.1021,-0.9977,-1.1254,0.0815,-0.1013
-0.4548,-1.1674,-0.2924,-1.1503,-0.5411,-0.7951,-1.5094,-0.5927,-1.1329,-1.5552,-1.2603,-1.2557,-1.4382,-1.127,-0.613,-0.8739,-0.4971,-0.426,-0.3414,-0.6885,-0.5009,-0.1637,-0.5815,-1.2455,-0.9089,-1.1333,-1.1357,-1.2675,0.045,-0.0002
-0.6895,-1.3435,-0.3477,-1.2487,-0.6689,-0.9017,-1.6561,-0.6683,-1.2059,-1.6867,-1.4017,-1.4373,-1.6533,-1.3207,-0.8457,-1.0657,-0.6948,-0.523,-0.5323,-0.8506,-0.6755,-0.3015,-0.7041,-1.394,-0.9249,-1.1573,-1.2663,-1.4047,0.0055,0.0974
-0.876,-1.4894,-0.4126,-1.3291,-0.8081,-1.0168,-1.7947,-0.7648,-1.2629,-1.8028,-1.5282,-1.5971,-1.8574,-1.5185,-1.0507,-1.2435,-0.8807,-0.6247,-0.7193,-1.0135,-0.8606,-0.4411,-0.8248,-1.5428,-0.9317,-1.1739,-1.3842,-1.5264,-0.0337,0.1883
-1.0153,-1.6139,-0.4943,-1.4035,-0.9654,-1.1463,-1.9254,-0.8799,-1.3045,-1.9006,-1.6317,-1.7225,-2.0448,-1.7203,-1.2259,-1.412,-1.0533,-0.7294,-0.8983,-1.1835,-1.0596,-0.5785,-0.9402,-1.6872,-0.9286,-1.1842,-1.4854,-1.6246,-0.0688,0.2695
-1.1129,-1.7271,-0.5955,-1.4839,-1.1449,-1.2928,-2.0479,-1.0046,-1.3332,-1.9784,-1.7068,-1.8053,-2.209,-1.9223,-1.3694,-1.5751,-1.2106,-0.8319,-1.065,-1.3619,-1.2696,-0.7103,-1.0472,-1.821,-0.9169,-1.1897,-1.5667,-1.6941,-0.096,0.3374
-1.1774,-1.8372,-0.7138,-1.5797,-1.3454,-1.454,-2.1596,-1.1247,-1.3521,-2.0348,-1.7514,-1.8425,-2.3419,-2.1157,-1.479,-1.7335,-1.35,-0.9242,-1.2151,-1.5443,-1.4812,-0.8333,-1.143,-1.9371,-0.8994,-1.1917,-1.6254,-1.7321,-0.1125,0.3885
-1.2179,-1.9483,-0.8422,-1.6945,-1.5587,-1.6219,-2.2551,-1.2243,-1.3636,-2.0685,-1.7665,-1.8362,-2.4345,-2.2876,-1.5516,-1.8843,-1.4679,-0.9974,-1.3445,-1.7206,-1.679,-0.9449,-1.2251,-2.0275,-0.8786,-1.1904,-1.6589,-1.7381,-0.1172,0.419
-1.2426,-2.0594,-0.9706,-1.8252,-1.7694,-1.7834,-2.3266,-1.2889,-1.3685,-2.0775,-1.7551,-1.7926,-2.4777,-2.4221,-1.5839,-2.0209,-1.5604,-1.045,-1.4495,-1.8776,-1.8451,-1.0427,-1.2909,-2.0849,-0.8559,-1.1846,-1.6652,-1.713,-0.1113,0.4257
-1.2562,-2.165,-1.0875,-1.9624,-1.9576,-1.9228,-2.3652,-1.3088,-1.3657,-2.0597,-1.7215,-1.7211,-2.465,-2.5034,-1.574,-2.1352,-1.6241,-1.0645,-1.5275,-2.0019,-1.9629,-1.1244,-1.3387,-2.1039,-0.8315,-1.1727,-1.6433,-1.66,-0.0977,0.4068
-1.26,-2.2572,-1.182,-2.0924,-2.1023,-2.0245,-2.3634,-1.2802,-1.3519,-2.0139,-1.6705,-1.6329,-2.394,-2.5201,-1.5233,-2.2195,-1.6579,-1.059,-1.5776,-2.0834,-2.0207,-1.1883,-1.3679,-2.0825,-0.8053,-1.1536,-1.5947,-1.5847,-0.0806,0.3628
-1.2518,-2.3284,-1.2448,-2.2012,-2.1865,-2.0764,-2.3175,-1.2057,-1.3238,-1.9404,-1.6067,-1.5394,-2.2683,-2.4676,-1.437,-2.2692,-1.664,-1.0366,-1.6016,-2.118,-2.015,-1.2337,-1.3803,-2.0236,-0.7775,-1.128,-1.5238,-1.4954,-0.0641,0.2967
-1.2278,-2.373,-1.2702,-2.2771,-2.2009,-2.0727,-2.2291,-1.0932,-1.2781,-1.8419,-1.5344,-1.4514,-2.0983,-2.3506,-1.3247,-2.2843,-1.6484,-1.0086,-1.6036,-2.1086,-1.9514,-1.2616,-1.3797,-1.9347,-0.7505,-1.0992,-1.4384,-1.4028,-0.0516,0.2138
-1.1844,-2.3895,-1.2567,-2.3135,-2.1456,-2.0144,-2.1052,-0.9546,-1.2137,-1.7234,-1.4571,-1.3766,-1.9001,-2.182,-1.1991,-2.2695,-1.6201,-0.9872,-1.5895,-2.0642,-1.8433,-1.2741,-1.3716,-1.8271,-0.7281,-1.0723,-1.3482,-1.3182,-0.0448,0.1215
-1.12,-2.3798,-1.207,-2.3092,-2.0296,-1.9096,-1.9567,-0.8037,-1.1315,-1.5917,-1.3774,-1.3189,-1.6929,-1.981,-1.0736,-2.2329,-1.5895,-0.9822,-1.566,-1.9971,-1.7089,-1.2736,-1.3615,-1.7133,-0.7154,-1.0529,-1.2628,-1.2514,-0.0437,0.0277
-1.036,-2.349,-1.1279,-2.269,-1.8692,-1.7714,-1.797,-0.6542,-1.035,-1.455,-1.2972,-1.278,-1.4957,-1.7694,-0.9608,-2.1838,-1.5658,-0.9988,-1.5386,-1.92,-1.5669,-1.2616,-1.3535,-1.6048,-0.7163,-1.0452,-1.1899,-1.2084,-0.047,-0.0601
-0.9366,-2.3036,-1.0296,-2.2018,-1.6848,-1.6162,-1.6401,-0.5182,-0.9304,-1.3226,-1.2184,-1.2501,-1.3253,-1.5679,-0.8702,-2.1308,-1.5555,-1.0371,-1.5111,-1.8435,-1.4334,-1.2388,-1.3488,-1.5101,-0.7321,-1.0502,-1.1334,-1.1898,-0.0526,-0.1357
-0.8294,-2.2509,-0.925,-2.119,-1.498,-1.4613,-1.4993,-0.4047,-0.827,-1.2042,-1.1438,-1.2299,-1.194,-1.394,-0.8081,-2.0815,-1.5616,-1.0921,-1.485,-1.7754,-1.3203,-1.2052,-1.3464,-1.4346,-0.7605,-1.0648,-1.0938,-1.1911,-0.0587,-0.1945
-0.724,-2.198,-0.8286,-2.0332,-1.3295,-1.3235,-1.3865,-0.3196,-0.7358,-1.1095,-1.0779,-1.2128,-1.1096,-1.261,-0.7775,-2.0418,-1.5829,-1.1556,-1.4612,-1.7216,-1.2349,-1.162,-1.3437,-1.3805,-0.7954,-1.0829,-1.0687,-1.2042,-0.0642,-0.2337
-0.631,-2.1514,-0.7548,-1.9561,-1.1967,-1.2171,-1.3115,-0.2662,-0.6689,-1.0473,-1.0263,-1.1962,-1.0761,-1.1775,-0.7792,-2.0171,-1.6165,-1.2195,-1.4409,-1.6868,-1.1818,-1.1126,-1.339,-1.3491,-0.829,-1.0972,-1.0549,-1.2206,-0.0693,-0.2519
-0.5604,-2.1164,-0.7157,-1.8979,-1.1128,-1.1532,-1.2822,-0.2466,-0.6366,-1.0244,-0.995,-1.1804,-1.0942,-1.1491,-0.812,-2.0122,-1.6586,-1.2781,-1.4272,-1.6763,-1.1636,-1.0642,-1.3329,-1.3414,-0.8544,-1.1023,-1.0504,-1.2337,-0.075,-0.2484
-0.5192,-2.097,-0.7177,-1.8664,-1.0856,-1.1389,-1.3029,-0.2621,-0.6452,-1.0445,-0.9886,-1.1681,-1.1625,-1.1778,-0.8731,-2.0309,-1.7063,-1.3291,-1.4261,-1.6955,-1.1828,-1.0274,-1.33,-1.3592,-0.8679,-1.0972,-1.0558,-1.2412,-0.0824,-0.2235
-0.5109,-2.0952,-0.7601,-1.8665,-1.1173,-1.1759,-1.3748,-0.3125,-0.6951,-1.1069,-1.0086,-1.1638,-1.2775,-1.2635,-0.958,-2.0751,-1.758,-1.3743,-1.4451,-1.7494,-1.241,-1.0147,-1.3378,-1.405,-0.8706,-1.0861,-1.0742,-1.2457,-0.0918,-0.1778
-0.5345,-2.1106,-0.8339,-1.8992,-1.204,-1.2603,-1.494,-0.3958,-0.7805,-1.206,-1.0528,-1.1715,-1.4335,-1.4022,-1.0603,-2.1434,-1.8132,-1.4175,-1.4912,-1.8404,-1.3379,-1.0371,-1.3647,-1.4804,-0.8673,-1.0775,-1.1103,-1.2527,-0.1025,-0.1129
-0.5853,-2.14,-0.9238,-1.9609,-1.3357,-1.3823,-1.6515,-0.5065,-0.8898,-1.3314,-1.1148,-1.1935,-1.6216,-1.5862,-1.1723,-2.2301,-1.8708,-1.4629,-1.5681,-1.9661,-1.47,-1.1007,-1.4173,-1.5846,-0.8647,-1.081,-1.1679,-1.2685,-0.1126,-0.0311
-0.6558,-2.1774,-1.0106,-2.0433,-1.4969,-1.5269,-1.8331,-0.6354,-1.0078,-1.4681,-1.1852,-1.2288,-1.8291,-1.8029,-1.2857,-2.325,-1.9286,-1.5132,-1.6737,-2.118,-1.629,-1.2046,-1.4972,-1.7129,-0.8691,-1.1036,-1.2474,-1.297,-0.1199,0.0641
-0.737,-2.2146,-1.0757,-2.1335,-1.668,-1.6751,-2.0203,-0.7703,-1.1181,-1.5986,-1.2521,-1.2722,-2.0399,-2.0349,-1.3921,-2.4144,-1.9821,-1.5688,-1.7991,-2.2815,-1.8015,-1.3399,-1.5996,-1.856,-0.8832,-1.1464,-1.3439,-1.3367,-0.1226,0.1683
-0.8196,-2.2423,-1.1044,-2.2155,-1.8274,-1.8066,-2.192,-0.8975,-1.2054,-1.7046,-1.3034,-1.3149,-2.2349,-2.2616,-1.4842,-2.4832,-2.0243,-1.6275,-1.9297,-2.4368,-1.9704,-1.4902,-1.7133,-1.9995,-0.9059,-1.2031,-1.4466,-1.3804,-0.1203,0.2761
-0.8936,-2.2513,-1.0886,-2.2726,-1.9541,-1.9025,-2.3274,-1.0034,-1.2578,-1.7696,-1.3283,-1.3456,-2.3939,-2.4605,-1.5558,-2.5173,-2.0468,-1.6844,-2.047,-2.5624,-2.1165,-1.6345,-1.8222,-2.1262,-0.9317,-1.2607,-1.5398,-1.4161,-0.1137,0.3811
-0.95,-2.2345,-1.028,-2.2895,-2.0306,-1.9477,-2.4084,-1.0764,-1.268,-1.7815,-1.3188,-1.3527,-2.498,-2.6105,-1.6018,-2.5061,-2.0409,-1.7329,-2.1313,-2.6387,-2.2218,-1.7499,-1.9081,-2.2182,-0.9532,-1.303,-1.6061,-1.4296,-0.1044,0.4762
-0.9806,-2.1873,-0.9295,-2.2553,-2.0449,-1.9332,-2.4226,-1.1085,-1.2342,-1.7344,-1.2715,-1.3273,-2.5325,-2.6943,-1.6173,-2.4439,-1.9987,-1.7648,-2.1648,-2.6511,-2.2714,-1.8158,-1.9537,-2.2605,-0.9631,-1.3153,-1.6303,-1.4086,-0.0942,0.5536
-0.9796,-2.1086,-0.805,-2.1645,-1.9921,-1.857,-2.3648,-1.0964,-1.16,-1.6305,-1.1882,-1.2658,-2.4895,-2.7012,-1.5989,-2.3311,-1.9148,-1.7718,-2.1349,-2.5933,-2.257,-1.8172,-1.9462,-2.2438,-0.9567,-1.2889,-1.603,-1.3473,-0.0841,0.6058
-0.9442,-2.0008,-0.669,-2.0183,-1.8749,-1.7246,-2.2391,-1.0426,-1.0536,-1.4793,-1.0757,-1.1708,-2.3702,-2.6294,-1.5448,-2.1739,-1.7885,-1.7471,-2.0366,-2.4683,-2.1778,-1.7474,-1.88,-2.1672,-0.9333,-1.2241,-1.5235,-1.2483,-0.0744,0.6269
-0.8755,-1.869,-0.5357,-1.8241,-1.7033,-1.5478,-2.0578,-0.9547,-0.9264,-1.2972,-0.9454,-1.0516,-2.1852,-2.4861,-1.4561,-1.9833,-1.624,-1.6871,-1.8744,-2.288,-2.0411,-1.6101,-1.7579,-2.0385,-0.8966,-1.1305,-1.3999,-1.123,-0.0643,0.6145
-0.7774,-1.7201,-0.4161,-1.5943,-1.4927,-1.3426,-1.8399,-0.8447,-0.7909,-1.1036,-0.811,-0.9221,-1.9531,-2.2871,-1.3372,-1.7729,-1.4305,-1.5922,-1.6617,-2.0711,-1.8615,-1.4177,-1.5908,-1.8725,-0.8538,-1.0241,-1.2475,-0.989,-0.0521,0.5701
-0.6556,-1.5612,-0.3162,-1.3444,-1.2613,-1.1268,-1.6076,-0.7264,-0.6588,-0.9183,-0.6862,-0.7976,-1.698,-2.0533,-1.1957,-1.5565,-1.221,-1.4672,-1.4183,-1.8394,-1.6575,-1.1889,-1.3952,-1.6876,-0.8131,-0.9231,-1.0852,-0.8654,-0.0366,0.4999
-0.5163,-1.3991,-0.2364,-1.0906,-1.0274,-0.9169,-1.383,-0.6126,-0.5396,-0.758,-0.5826,-0.6918,-1.4448,-1.8078,-1.0409,-1.346,-1.0099,-1.3206,-1.1668,-1.613,-1.4487,-0.9454,-1.1898,-1.5024,-0.7816,-0.8435,-0.9314,-0.7677,-0.0166,0.4132
-0.3647,-1.239,-0.1715,-0.8477,-0.8069,-0.726,-1.1846,-0.5136,-0.4406,-0.6347,-0.5081,-0.6143,-1.2161,-1.5721,-0.8823,-1.1489,-0.8109,-1.1625,-0.9288,-1.4072,-1.2521,-0.708,-0.993,-1.3324,-0.7633,-0.7951,-0.8012,-0.7054,0.0079,0.3204
-0.2052,-1.0846,-0.1127,-0.6273,-0.6112,-0.5627,-1.0254,-0.4353,-0.3661,-0.5546,-0.4668,-0.5697,-1.0292,-1.3628,-0.7277,-0.9687,-0.6346,-1.0033,-0.7209,-1.2298,-1.0793,-0.4941,-0.8195,-1.1881,-0.7588,-0.7806,-0.7045,-0.6802,0.0361,0.2315
-0.0411,-0.9375,-0.0507,-0.4362,-0.4468,-0.4303,-0.912,-0.3794,-0.319,-0.5189,-0.4589,-0.558,-0.8947,-1.1903,-0.5824,-0.8042,-0.4876,-0.8519,-0.5531,-1.0806,-0.9351,-0.3155,-0.6788,-1.0748,-0.7652,-0.7958,-0.6454,-0.6875,0.0657,0.1533
0.124,-0.7971,0.0222,-0.2759,-0.3146,-0.3276,-0.8444,-0.3436,-0.3005,-0.5246,-0.4814,-0.5752,-0.8156,-1.0578,-0.4486,-0.6511,-0.3708,-0.7146,-0.427,-0.9522,-0.817,-0.1777,-0.5743,-0.9927,-0.7775,-0.8318,-0.6228,-0.719,0.094,0.0894
0.2857,-0.6618,0.1091,-0.143,-0.2115,-0.2499,-0.8179,-0.3235,-0.3107,-0.5656,-0.5292,-0.6154,-0.7885,-0.9624,-0.3261,-0.5034,-0.2801,-0.594,-0.3368,-0.8328,-0.7172,-0.0801,-0.5037,-0.9388,-0.7904,-0.8774,-0.6315,-0.7649,0.1176,0.04
0.4379,-0.5291,0.2084,-0.0317,-0.1322,-0.1915,-0.8244,-0.3148,-0.3482,-0.6344,-0.5959,-0.6714,-0.8052,-0.8976,-0.2134,-0.3552,-0.2072,-0.4899,-0.2712,-0.7099,-0.6257,-0.0177,-0.4607,-0.9083,-0.8001,-0.9229,-0.6641,-0.8175,0.134,0.0029
0.5732,-0.3978,0.3144,0.0644,-0.0716,-0.1473,-0.8545,-0.3151,-0.4107,-0.7222,-0.6742,-0.7361,-0.8547,-0.855,-0.1092,-0.203,-0.1415,-0.3993,-0.2167,-0.5743,-0.5333,0.0174,-0.4366,-0.8969,-0.8052,-0.9616,-0.7127,-0.8717,0.1413,-0.0242
0.6835,-0.2681,0.4194,0.15,-0.0257,-0.1135,-0.899,-0.3243,-0.4934,-0.8197,-0.756,-0.802,-0.9248,-0.8273,-0.0134,-0.0462,-0.0727,-0.3185,-0.1605,-0.4226,-0.4348,0.0337,-0.4225,-0.9011,-0.8071,-0.9908,-0.7697,-0.9249,0.1395,-0.0434
0.7622,-0.1423,0.5152,0.2269,0.008,-0.0883,-0.9493,-0.3438,-0.5894,-0.9165,-0.8319,-0.8613,-1.0035,-0.8088,0.0724,0.1117,0.0075,-0.2435,-0.0932,-0.2584,-0.3298,0.0398,-0.4103,-0.9184,-0.8089,-1.011,-0.828,-0.9758,0.1302,-0.0551
0.8061,-0.0238,0.5942,0.2952,0.0315,-0.0708,-0.9978,-0.3755,-0.6891,-1.0014,-0.891,-0.9054,-1.0795,-0.7958,0.1451,0.2647,0.1029,-0.1714,-0.0093,-0.0906,-0.2222,0.0434,-0.3937,-0.9459,-0.8136,-1.0248,-0.8811,-1.022,0.1166,-0.0588
0.8171,0.0844,0.6508,0.3544,0.0473,-0.0599,-1.0375,-0.4206,-0.7809,-1.0637,-0.9221,-0.9257,-1.143,-0.7863,0.2014,0.4056,0.213,-0.1008,0.0917,0.0688,-0.1187,0.0511,-0.3682,-0.9796,-0.8234,-1.0348,-0.9232,-1.0599,0.1027,-0.054
0.8019,0.1809,0.6814,0.4047,0.059,-0.054,-1.0629,-0.4783,-0.8535,-1.0948,-0.916,-0.9156,-1.1867,-0.779,0.239,0.5271,0.3325,-0.0321,0.2064,0.2081,-0.0268,0.0672,-0.3315,-1.015,-0.8381,-1.0433,-0.9496,-1.0844,0.0929,-0.0411
0.7704,0.2661,0.6859,0.4476,0.0719,-0.0503,-1.0701,-0.5454,-0.8974,-1.09,-0.8675,-0.8718,-1.2062,-0.7736,0.2576,0.6243,0.4527,0.0327,0.3277,0.3188,0.0476,0.0931,-0.284,-1.0466,-0.8551,-1.0506,-0.9574,-1.0902,0.0904,-0.0219
0.7336,0.3429,0.6672,0.4863,0.0916,-0.045,-1.057,-0.6167,-0.9065,-1.0495,-0.7773,-0.7957,-1.2,-0.7694,0.2603,0.6948,0.5634,0.0902,0.446,0.3968,0.1017,0.1273,-0.2285,-1.0692,-0.8697,-1.0549,-0.9455,-1.0727,0.0968,0
0.7014,0.4154,0.6316,0.5252,0.1234,-0.0334,-1.0229,-0.6843,-0.8792,-0.9783,-0.6518,-0.6929,-1.1689,-0.7653,0.2526,0.7401,0.6548,0.1359,0.5512,0.4434,0.136,0.1656,-0.1698,-1.0781,-0.8756,-1.0519,-0.9141,-1.0288,0.1111,0.0201
0.6806,0.4881,0.5874,0.5684,0.1711,-0.0112,-0.9689,-0.7391,-0.8185,-0.8848,-0.5025,-0.5727,-1.1159,-0.7594,0.2423,0.7642,0.7202,0.1655,0.6343,0.4642,0.1543,0.2026,-0.1133,-1.0699,-0.8664,-1.0356,-0.8646,-0.9575,0.131,0.0336
0.6744,0.5647,0.5437,0.6196,0.2358,0.0254,-0.8971,-0.772,-0.7311,-0.7793,-0.3436,-0.4463,-1.0447,-0.7491,0.2377,0.7736,0.7571,0.1752,0.6895,0.4675,0.1626,0.233,-0.0643,-1.0428,-0.8378,-1.0007,-0.8,-0.8612,0.1526,0.0365
0.6829,0.6469,0.5088,0.6811,0.3162,0.0783,-0.8109,-0.7757,-0.6268,-0.6721,-0.1906,-0.3258,-0.9599,-0.7317,0.2456,0.7753,0.7682,0.1641,0.7154,0.4624,0.1672,0.2535,-0.0264,-0.9976,-0.7889,-0.9445,-0.7243,-0.7456,0.1722,0.0261
0.7037,0.734,0.4884,0.7534,0.4093,0.1476,-0.7141,-0.7472,-0.5172,-0.5725,-0.0574,-0.2226,-0.8661,-0.7045,0.2707,0.7768,0.7612,0.1343,0.7164,0.4576,0.1744,0.2635,-0.0004,-0.9369,-0.7224,-0.8689,-0.6428,-0.6202,0.1866,0.0012
0.7339,0.8237,0.4843,0.8355,0.5115,0.2316,-0.6105,-0.6876,-0.4136,-0.4868,0.0454,-0.1459,-0.767,-0.6647,0.3145,0.7845,0.7477,0.0916,0.7013,0.4608,0.1891,0.2658,0.0159,-0.8647,-0.6445,-0.7796,-0.5609,-0.4969,0.1939,-0.0378
0.7706,0.9126,0.4944,0.9257,0.6202,0.3273,-0.5035,-0.6025,-0.3257,-0.4183,0.1119,-0.1009,-0.6651,-0.6102,0.3757,0.8041,0.7413,0.0449,0.6832,0.4784,0.2155,0.2666,0.028,-0.7851,-0.5631,-0.6853,-0.4827,-0.3873,0.1935,-0.089
0.8123,0.9982,0.5145,1.0221,0.7341,0.432,-0.3952,-0.4993,-0.259,-0.3662,0.142,-0.0879,-0.5608,-0.5386,0.4501,0.8402,0.7552,0.0052,0.676,0.516,0.2571,0.274,0.0439,-0.7005,-0.4859,-0.5949,-0.4097,-0.3006,0.186,-0.1494
0.8587,1.0795,0.5396,1.1233,0.8545,0.5438,-0.2862,-0.3855,-0.2147,-0.3266,0.1409,-0.1011,-0.4524,-0.448,0.5316,0.8959,0.8,-0.0167,0.6928,0.578,0.3167,0.297,0.0719,-0.6111,-0.4193,-0.5151,-0.3404,-0.2406,0.1731,-0.2139
0.9096,1.158,0.5669,1.2283,0.9841,0.6626,-0.176,-0.2669,-0.189,-0.2928,0.1185,-0.1304,-0.3369,-0.3367,0.6125,0.9726,0.8812,-0.0122,0.7421,0.6667,0.3967,0.343,0.1194,-0.5152,-0.3674,-0.4488,-0.2706,-0.2051,0.1569,-0.2763
0.964,1.2368,0.5957,1.336,1.1259,0.789,-0.0639,-0.1478,-0.1754,-0.2578,0.0862,-0.1627,-0.2115,-0.205,0.6841,1.0688,0.9977,0.023,0.8265,0.7807,0.4976,0.4156,0.1901,-0.4104,-0.3318,-0.3946,-0.1948,-0.1867,0.1396,-0.3289
1.0187,1.3184,0.6271,1.4437,1.2807,0.9223,0.0489,-0.0319,-0.1667,-0.2166,0.0544,-0.186,-0.0761,-0.0563,0.7381,1.1795,1.1412,0.0881,0.9404,0.9131,0.6168,0.5128,0.2826,-0.2959,-0.3117,-0.3483,-0.1092,-0.175,0.1225,-0.364
1.0673,1.4032,0.6626,1.5466,1.4448,1.0588,0.158,0.0751,-0.1575,-0.1685,0.0296,-0.1927,0.0648,0.1015,0.7678,1.2958,1.2971,0.1762,1.0711,1.051,0.7472,0.6255,0.3897,-0.1748,-0.3044,-0.3051,-0.014,-0.1611,0.1062,-0.3751
1.1018,1.4877,0.7026,1.6373,1.6083,1.1897,0.2547,0.1645,-0.1468,-0.1186,0.0127,-0.182,0.2014,0.2559,0.7694,1.406,1.4469,0.2761,1.2007,1.176,0.8768,0.7388,0.499,-0.0557,-0.3059,-0.2622,0.0848,-0.1403,0.09,-0.3588
1.1143,1.565,0.7456,1.7073,1.7559,1.3025,0.327,0.2259,-0.1371,-0.0765,-0.0009,-0.1605,0.3194,0.3913,0.7433,1.4976,1.5719,0.3736,1.3098,1.2686,0.9908,0.8356,0.5956,0.049,-0.3119,-0.22,0.1758,-0.1143,0.0729,-0.315
1.1002,1.627,0.7881,1.7492,1.8703,1.3834,0.363,0.2501,-0.1336,-0.0543,-0.0186,-0.1397,0.4038,0.4922,0.6945,1.5605,1.6575,0.455,1.3828,1.3123,1.0745,0.9007,0.6663,0.1256,-0.3172,-0.1818,0.2445,-0.0904,0.054,-0.2482
1.0606,1.6669,0.8255,1.7594,1.936,1.4214,0.3541,0.2331,-0.1414,-0.062,-0.0482,-0.1322,0.4433,0.5472,0.6322,1.5903,1.6968,0.5103,1.4116,1.2997,1.1176,0.9256,0.7027,0.1631,-0.3171,-0.1518,0.2776,-0.0778,0.033,-0.1667
1.0033,1.6818,0.8529,1.7393,1.9438,1.411,0.2987,0.1782,-0.1633,-0.1041,-0.0936,-0.1472,0.4336,0.5523,0.5691,1.5896,1.6921,0.5353,1.3983,1.2348,1.1175,0.9106,0.7037,0.157,-0.307,-0.1338,0.2664,-0.0844,0.0107,-0.0815
0.9419,1.6742,0.8663,1.695,1.8924,1.3542,0.2039,0.0958,-0.1984,-0.1776,-0.1536,-0.1872,0.38,0.5125,0.5193,1.5677,1.6552,0.5329,1.3544,1.1342,1.0802,0.865,0.6764,0.1113,-0.2839,-0.129,0.2107,-0.1131,-0.0106,-0.0048
0.8925,1.651,0.8642,1.6362,1.7893,1.2597,0.0841,0.0005,-0.2418,-0.2724,-0.2212,-0.2474,0.2967,0.4412,0.4966,1.5395,1.6041,0.5128,1.2979,1.0229,1.0193,0.804,0.6333,0.038,-0.2468,-0.136,0.1186,-0.161,-0.028,0.052
0.8698,1.6223,0.8475,1.5737,1.6483,1.1408,-0.0418,-0.0934,-0.2868,-0.3736,-0.286,-0.3173,0.2038,0.3571,0.5115,1.5213,1.5591,0.4881,1.2492,0.9296,0.9532,0.7453,0.59,-0.0454,-0.1971,-0.1515,0.0053,-0.2203,-0.0385,0.08
0.8829,1.5989,0.8197,1.5172,1.4874,1.0129,-0.1547,-0.1752,-0.3268,-0.4655,-0.3375,-0.3843,0.1226,0.2807,0.5695,1.5277,1.5387,0.4721,1.226,0.8795,0.9006,0.7046,0.561,-0.12,-0.1384,-0.1711,-0.1101,-0.2813,-0.0402,0.075
0.9329,1.5896,0.785,1.474,1.3247,0.89,-0.2399,-0.2408,-0.3584,-0.5363,-0.3691,-0.4379,0.0703,0.2287,0.6688,1.5681,1.5549,0.4743,1.2398,0.8891,0.8761,0.6925,0.5569,-0.1702,-0.076,-0.1913,-0.2096,-0.3355,-0.0329,0.0375
1.0131,1.5996,0.7473,1.448,1.1768,0.7829,-0.2908,-0.2927,-0.3828,-0.5805,-0.3809,-0.4734,0.0562,0.2114,0.8007,1.6451,1.6113,0.4979,1.2934,0.963,0.8877,0.713,0.5818,-0.187,-0.0159,-0.2101,-0.2799,-0.3784,-0.0192,-0.0273
1.1121,1.6296,0.7096,1.4404,1.056,0.6978,-0.3092,-0.3386,-0.4062,-0.6006,-0.3798,-0.4928,0.0798,0.2306,0.9506,1.7538,1.7028,0.5396,1.3819,1.0936,0.9353,0.7626,0.6334,-0.1701,0.0365,-0.2273,-0.3148,-0.4101,-0.004,-0.1103
1.2171,1.6761,0.6738,1.451,0.97,0.6368,-0.3045,-0.3877,-0.4368,-0.6054,-0.3776,-0.5034,0.1318,0.2807,1.1014,1.8841,1.8177,0.5913,1.4937,1.2644,1.0125,0.8326,0.7037,-0.1269,0.077,-0.2436,-0.3155,-0.4341,0.0071,-0.2009
1.3188,1.7341,0.6423,1.4786,0.9221,0.5992,-0.2901,-0.4478,-0.4826,-0.6065,-0.3871,-0.5144,0.1973,0.3511,1.2372,2.0233,1.9407,0.6435,1.6144,1.4541,1.1094,0.9111,0.7816,-0.0696,0.1034,-0.2596,-0.2888,-0.4547,0.0086,-0.2883
1.4126,1.7984,0.6183,1.5222,0.912,0.5827,-0.2792,-0.5214,-0.5471,-0.6149,-0.4173,-0.5333,0.26,0.4292,1.3467,2.159,2.0572,0.6888,1.7299,1.6421,1.2155,0.9861,0.8557,-0.0119,0.1155,-0.2746,-0.2448,-0.4746,-0.0024,-0.3639
1.4987,1.8656,0.6057,1.58,0.9367,0.5846,-0.2815,-0.6052,-0.628,-0.6378,-0.4711,-0.563,0.3056,0.5038,1.4253,2.2817,2.1558,0.7233,1.8287,1.8117,1.3225,1.0477,0.9165,0.0346,0.1155,-0.2862,-0.1933,-0.4934,-0.0258,-0.4215
1.5802,1.9341,0.6081,1.6489,0.9913,0.6026,-0.3011,-0.6904,-0.7175,-0.6774,-0.5443,-0.6009,0.3248,0.5665,1.4759,2.3855,2.2306,0.7475,1.9038,1.9518,1.4245,1.0893,0.9576,0.0621,0.1067,-0.2913,-0.1434,-0.5079,-0.0584,-0.459
1.6599,2.0031,0.627,1.7241,1.0703,0.6345,-0.3368,-0.7655,-0.8044,-0.731,-0.6276,-0.6407,0.313,0.612,1.5064,2.4682,2.2807,0.764,1.9518,2.0568,1.5174,1.1074,0.9759,0.0669,0.0925,-0.2874,-0.1022,-0.5146,-0.0945,-0.4775
1.7388,2.0709,0.6611,1.7989,1.168,0.6778,-0.383,-0.82,-0.8774,-0.7931,-0.71,-0.6751,0.2704,0.6377,1.5272,2.5298,2.3093,0.7759,1.9733,2.1254,1.5977,1.1016,0.9712,0.0489,0.0754,-0.2747,-0.0756,-0.5115,-0.1278,-0.4809
1.8147,2.1341,0.7057,1.8656,1.2784,0.7294,-0.4327,-0.8472,-0.9284,-0.8576,-0.782,-0.6988,0.2001,0.643,1.548,2.5715,2.3217,0.7849,1.9713,2.1594,1.6614,1.0739,0.9451,0.0104,0.056,-0.2565,-0.0689,-0.5002,-0.1524,-0.4752
1.8837,2.1868,0.7536,1.9165,1.3947,0.7848,-0.4792,-0.8465,-0.9544,-0.9192,-0.8381,-0.7099,0.1078,0.6282,1.5755,2.5946,2.3238,0.7903,1.9511,2.1624,1.7044,1.029,0.9015,-0.0448,0.033,-0.2387,-0.0855,-0.4855,-0.1641,-0.4669
1.9418,2.2222,0.7966,1.9456,1.5087,0.8383,-0.5183,-0.8228,-0.9578,-0.9742,-0.8769,-0.7097,0.0015,0.5954,1.613,2.6007,2.3205,0.7903,1.9192,2.1395,1.7233,0.9739,0.8456,-0.1114,0.0039,-0.2281,-0.1266,-0.4736,-0.1613,-0.4624
1.9873,2.2344,0.8278,1.9497,1.6113,0.8837,-0.548,-0.7845,-0.9451,-1.0204,-0.9006,-0.7018,-0.1091,0.5481,1.6607,2.592,2.3159,0.7829,1.8831,2.0975,1.718,0.9176,0.7841,-0.1826,-0.0333,-0.2294,-0.1894,-0.4695,-0.1444,-0.4669
2.0208,2.2219,0.8423,1.9296,1.6931,0.9155,-0.5681,-0.7406,-0.9251,-1.0561,-0.9127,-0.6897,-0.2118,0.4924,1.7175,2.5727,2.3133,0.7684,1.8501,2.0455,1.6926,0.8698,0.7249,-0.25,-0.0791,-0.2436,-0.2664,-0.4744,-0.1164,-0.4836
2.0457,2.1882,0.839,1.8899,1.7462,0.9305,-0.5788,-0.6976,-0.9062,-1.0793,-0.9161,-0.6754,-0.2925,0.4371,1.7819,2.5491,2.316,0.7502,1.8274,1.9944,1.656,0.8393,0.6761,-0.3037,-0.1313,-0.2669,-0.3456,-0.4856,-0.0814,-0.5136
2.0666,2.1426,0.8203,1.8388,1.7663,0.9291,-0.5791,-0.6582,-0.8941,-1.087,-0.912,-0.6585,-0.3372,0.3933,1.8524,2.5297,2.3271,0.7349,1.8209,1.9564,1.6206,0.8321,0.6456,-0.3334,-0.185,-0.2918,-0.412,-0.4963,-0.0447,-0.5554
2.0883,2.0978,0.7917,1.7858,1.7533,0.9145,-0.5662,-0.6214,-0.8901,-1.0755,-0.8983,-0.6358,-0.3335,0.3724,1.9276,2.5236,2.35,0.7312,1.8345,1.9426,1.5999,0.8505,0.6393,-0.3299,-0.2335,-0.3088,-0.4502,-0.4977,-0.0113,-0.6053
2.1146,2.0659,0.7601,1.7401,1.7114,0.8923,-0.5362,-0.5845,-0.8908,-1.0411,-0.8711,-0.603,-0.2737,0.3841,2.0059,2.5385,2.3873,0.7469,1.8698,1.9605,1.6044,0.8921,0.6599,-0.2875,-0.2702,-0.3102,-0.4479,-0.4821,0.0148,-0.6583
2.1474,2.0558,0.7324,1.709,1.6484,0.869,-0.4857,-0.5456,-0.889,-0.9818,-0.8255,-0.5557,-0.158,0.4332,2.0846,2.5785,2.4396,0.7873,1.9251,2.0119,1.639,0.95,0.7058,-0.2065,-0.2909,-0.2924,-0.3995,-0.4455,0.0315,-0.7089
2.1865,2.0704,0.7128,1.6966,1.5739,0.8496,-0.4137,-0.5046,-0.8758,-0.8987,-0.7582,-0.4921,0.0047,0.5173,2.1602,2.6425,2.5048,0.8533,1.995,2.0912,1.7012,1.0138,0.7707,-0.0941,-0.2959,-0.2582,-0.3079,-0.3893,0.0388,-0.752
2.2293,2.1058,0.7024,1.7036,1.4977,0.8373,-0.3229,-0.464,-0.8432,-0.797,-0.6693,-0.4145,0.1963,0.6267,2.2281,2.7237,2.5783,0.9409,2.0715,2.1863,1.7809,1.0714,0.8447,0.0358,-0.29,-0.2165,-0.1854,-0.3211,0.0393,-0.7836
2.2713,2.1525,0.6993,1.7264,1.4283,0.8322,-0.2211,-0.4279,-0.7872,-0.6861,-0.5638,-0.3294,0.3925,0.7457,2.2836,2.8107,2.6531,1.0425,2.145,2.2808,1.8632,1.1122,0.9157,0.1649,-0.2817,-0.1802,-0.0518,-0.2531,0.037,-0.8015
2.3071,2.1974,0.6995,1.758,1.3708,0.832,-0.12,-0.3999,-0.71,-0.5785,-0.4513,-0.2464,0.5661,0.855,2.3229,2.89,2.7212,1.1476,2.206,2.3574,1.9314,1.1294,0.9725,0.274,-0.28,-0.1623,0.0697,-0.1986,0.037,-0.8057
2.3321,2.2264,0.6987,1.7882,1.3267,0.8318,-0.0337,-0.382,-0.6194,-0.4882,-0.3443,-0.1758,0.6921,0.9362,2.3437,2.948,2.7745,1.2454,2.2469,2.402,1.971,1.1213,1.0068,0.3472,-0.2916,-0.172,0.1573,-0.1684,0.0438,-0.7975
2.343,2.2275,0.6931,1.8054,1.2933,0.826,0.0238,-0.3726,-0.5287,-0.4279,-0.256,-0.1254,0.7516,0.9746,2.3459,2.9743,2.8059,1.326,2.2629,2.4057,1.9726,1.0912,1.0145,0.3746,-0.3176,-0.2109,0.196,-0.1669,0.0601,-0.7801
2.3388,2.1934,0.6804,1.7992,1.2655,0.8089,0.0412,-0.3682,-0.4531,-0.4071,-0.1977,-0.0992,0.7347,0.9617,2.331,2.9625,2.8102,1.3823,2.2518,2.3667,1.9325,1.0457,0.9957,0.3543,-0.3536,-0.2727,0.1797,-0.191,0.0863,-0.7571
2.3207,2.1226,0.6599,1.7624,1.2366,0.7764,0.0121,-0.3644,-0.4071,-0.4307,-0.1772,-0.0968,0.6417,0.896,2.302,2.9113,2.7841,1.4107,2.214,2.2894,1.853,0.992,0.9541,0.2914,-0.3907,-0.3447,0.1126,-0.2314,0.1202,-0.7322
2.291,2.0199,0.6325,1.693,1.2007,0.7261,-0.064,-0.3586,-0.4017,-0.499,-0.1979,-0.1149,0.482,0.7823,2.2621,2.824,2.7268,1.4115,2.1516,2.1828,1.7409,0.9357,0.8951,0.1962,-0.4193,-0.4127,0.0068,-0.2764,0.1576,-0.7091
2.2526,1.8951,0.6002,1.5943,1.1535,0.6585,-0.182,-0.3515,-0.4429,-0.608,-0.2601,-0.1501,0.2721,0.6305,2.2143,2.7072,2.64,1.388,2.0676,2.058,1.6051,0.8798,0.8244,0.0817,-0.4327,-0.4654,-0.121,-0.3158,0.1935,-0.6907
2.2075,1.7607,0.5652,1.4743,1.0928,0.5759,-0.3324,-0.3477,-0.5305,-0.7508,-0.3608,-0.2004,0.0328,0.4535,2.1606,2.5691,2.5271,1.3451,1.9651,1.9254,1.4554,0.8238,0.7464,-0.0393,-0.4291,-0.4979,-0.2536,-0.3452,0.2231,-0.6796
2.1558,1.6284,0.5295,1.3432,1.0182,0.4814,-0.503,-0.3555,-0.6593,-0.9187,-0.4952,-0.2661,-0.2146,0.2647,2.1016,2.4181,2.3928,1.2881,1.8464,1.7928,1.3004,0.7644,0.6635,-0.1564,-0.4125,-0.5128,-0.3763,-0.3661,0.2422,-0.6768
2.0961,1.5069,0.4946,1.2108,0.9299,0.3783,-0.6811,-0.3847,-0.8194,-1.1018,-0.6567,-0.3487,-0.4505,0.0765,2.0367,2.2615,2.2425,1.221,1.7132,1.6644,1.1473,0.6965,0.5763,-0.2625,-0.391,-0.5177,-0.4784,-0.3848,0.2482,-0.6821
2.026,1.4,0.4618,1.0845,0.829,0.2695,-0.8549,-0.4447,-0.9974,-1.2894,-0.8363,-0.4486,-0.6595,-0.1006,1.9651,2.1049,2.0819,1.1465,1.5675,1.5416,1.0018,0.6154,0.4844,-0.3538,-0.3736,-0.5218,-0.5538,-0.4082,0.24,-0.6937
1.9439,1.307,0.4325,0.9687,0.718,0.1581,-1.0137,-0.5404,-1.1767,-1.4695,-1.022,-0.5621,-0.8306,-0.2586,1.8869,1.953,1.9174,1.0667,1.4128,1.424,0.8683,0.5188,0.388,-0.4289,-0.3682,-0.5321,-0.6001,-0.4405,0.2186,-0.7085
1.8504,1.2248,0.4077,0.8656,0.6023,0.0483,-1.1483,-0.6696,-1.3394,-1.629,-1.1984,-0.6804,-0.957,-0.3911,1.8041,1.8098,1.7566,0.9839,1.2554,1.312,0.751,0.4088,0.2891,-0.4877,-0.3786,-0.551,-0.6178,-0.4804,0.1871,-0.723
1.7488,1.1496,0.3879,0.7769,0.4905,-0.0533,-1.251,-0.8208,-1.4675,-1.7542,-1.348,-0.7891,-1.0359,-0.4933,1.7201,1.6796,1.6084,0.9016,1.1047,1.2073,0.6541,0.2923,0.1927,-0.5306,-0.4049,-0.5758,-0.6092,-0.5202,0.1507,-0.7334
1.6443,1.0781,0.3733,0.7038,0.3937,-0.1383,-1.3156,-0.9745,-1.5462,-1.8327,-1.4535,-0.8715,-1.0676,-0.5622,1.6395,1.5666,1.4824,0.8248,0.9725,1.1139,0.5814,0.1804,0.1055,-0.5587,-0.4441,-0.6006,-0.579,-0.5491,0.1156,-0.7365
1.5426,1.0093,0.3637,0.6476,0.323,-0.1979,-1.3387,-1.1061,-1.5666,-1.8559,-1.5016,-0.913,-1.0556,-0.5962,1.566,1.4751,1.3875,0.7585,0.8704,1.0371,0.5358,0.0857,0.0352,-0.5734,-0.4911,-0.619,-0.5342,-0.5562,0.0879,-0.7296
1.4485,0.9434,0.3586,0.6085,0.2866,-0.2249,-1.3208,-1.1922,-1.5283,-1.8216,-1.4869,-0.905,-1.0062,-0.5961,1.5023,1.4079,1.3302,0.7068,0.8082,0.9818,0.5187,0.0199,-0.0121,-0.5771,-0.5408,-0.6265,-0.4838,-0.5356,0.0721,-0.7113
1.3646,0.8821,0.3579,0.5854,0.2879,-0.2163,-1.2662,-1.2161,-1.4403,-1.7358,-1.4139,-0.8487,-0.9281,-0.565,1.4494,1.3661,1.3129,0.6721,0.7905,0.9521,0.5294,-0.0092,-0.0326,-0.5727,-0.588,-0.6213,-0.438,-0.4878,0.0702,-0.6816
1.2913,0.8282,0.3612,0.5766,0.3251,-0.1742,-1.1841,-1.1735,-1.3193,-1.6124,-1.2972,-0.7549,-0.8322,-0.5084,1.4062,1.3488,1.3327,0.655,0.8159,0.9489,0.5648,0.001,-0.0257,-0.5627,-0.6275,-0.6047,-0.406,-0.4207,0.0808,-0.6422
1.2277,0.7844,0.3672,0.5798,0.3914,-0.1057,-1.0873,-1.0735,-1.1874,-1.4718,-1.1592,-0.6427,-0.7304,-0.4337,1.3708,1.3525,1.3816,0.6553,0.876,0.9704,0.6194,0.0472,0.006,-0.5493,-0.6543,-0.58,-0.3945,-0.3481,0.0996,-0.5961
1.1733,0.7535,0.3737,0.594,0.4772,-0.0221,-0.9909,-0.9374,-1.0677,-1.3378,-1.0264,-0.5358,-0.6347,-0.3492,1.3404,1.372,1.4478,0.6735,0.9569,1.011,0.6859,0.1218,0.0579,-0.5335,-0.6636,-0.5527,-0.4074,-0.287,0.1209,-0.5472
1.1281,0.7374,0.377,0.6201,0.5719,0.0633,-0.9107,-0.7939,-0.9805,-1.2344,-0.9246,-0.4584,-0.5564,-0.2637,1.3125,1.4011,1.5179,0.711,1.0413,1.063,0.756,0.2146,0.1246,-0.5152,-0.6517,-0.5299,-0.445,-0.2551,0.1389,-0.4994
1.0935,0.7371,0.3724,0.6608,0.665,0.1374,-0.8607,-0.6729,-0.94,-1.1813,-0.8744,-0.4307,-0.5043,-0.1852,1.2848,1.4337,1.5793,0.7708,1.1118,1.1173,0.8218,0.3157,0.2009,-0.4939,-0.6161,-0.519,-0.5055,-0.2675,0.1491,-0.4559
1.0707,0.7518,0.355,0.7196,0.7483,0.19,-0.8507,-0.5985,-0.9525,-1.1908,-0.8876,-0.4656,-0.4838,-0.1199,1.2553,1.4645,1.6227,0.8561,1.1541,1.1654,0.8768,0.4172,0.2828,-0.4686,-0.556,-0.5269,-0.5852,-0.3339,0.1498,-0.4189
1.0599,0.7794,0.3207,0.7989,0.8167,0.2154,-0.8843,-0.5841,-1.016,-1.2657,-0.9657,-0.5659,-0.496,-0.0709,1.2232,1.4896,1.6432,0.9694,1.1599,1.2013,0.9167,0.5139,0.3679,-0.4386,-0.473,-0.558,-0.6798,-0.4569,0.1414,-0.3888
1.0596,0.8166,0.2683,0.8985,0.869,0.2134,-0.9579,-0.63,-1.1211,-1.3987,-1.1002,-0.7245,-0.537,-0.0381,1.188,1.5074,1.6408,1.1095,1.1283,1.2224,0.9411,0.6037,0.4545,-0.4037,-0.3711,-0.6128,-0.7846,-0.631,0.126,-0.3649
1.0663,0.8593,0.2004,1.0146,0.9079,0.1894,-1.0617,-0.7246,-1.254,-1.5741,-1.2747,-0.9259,-0.5985,-0.018,1.1499,1.5183,1.6202,1.271,1.0661,1.2304,0.9528,0.687,0.5419,-0.3648,-0.2562,-0.6869,-0.8948,-0.8432,0.1062,-0.3453
1.0757,0.9036,0.1233,1.1398,0.9388,0.153,-1.1807,-0.8482,-1.3987,-1.7704,-1.4685,-1.1489,-0.6695,-0.0045,1.1096,1.5246,1.5889,1.4439,0.9861,1.2299,0.9572,0.7653,0.6288,-0.3232,-0.1355,-0.772,-1.0059,-1.0749,0.0843,-0.3275
