FP1,F3,F7,FC3,C3,C5,P3,P7,PO7,PO3,O1,Oz,Pz,CPz,FP2,Fz,F4,F8,FC4,FCz,Cz,C4,C6,P4,P8,PO8,PO4,O2,(corr) HEOG,(corr) VEOG
0.5616,1.2008,0.5217,1.477,1.3568,1.1542,0.7652,0.5244,0.4134,0.4975,0.4338,0.1294,1.057,1.178,0.5877,1.4201,0.7259,0.722,1.2725,1.4682,1.6261,0.9634,0.7683,0.6551,0.3185,0.1674,1.2766,-0.3355,0.0153,-0.6568
0.5971,1.2466,0.4936,1.517,1.4527,1.213,0.868,0.6035,0.4987,0.5875,0.5745,0.2157,1.1766,1.2728,0.6337,1.5085,0.7942,0.7743,1.3326,1.5784,1.7396,1.0795,0.8479,0.7772,0.3558,0.2447,1.4428,-0.2386,-0.016,-0.6764
0.6631,1.2947,0.4786,1.5632,1.5661,1.2803,0.9947,0.6979,0.601,0.7078,0.7337,0.3333,1.3352,1.3971,0.7131,1.6106,0.8988,0.83,1.4111,1.6969,1.8623,1.2243,0.9458,0.9242,0.4173,0.3478,1.6199,-0.0949,-0.0627,-0.7222
0.7517,1.3422,0.48,1.6095,1.6824,1.3486,1.1208,0.7943,0.7016,0.835,0.8834,0.4575,1.5039,1.5272,0.8192,1.715,1.03,0.8845,1.4933,1.808,1.9754,1.3729,1.0467,1.0676,0.4873,0.4529,1.7819,0.0659,-0.1177,-0.8016
0.8509,1.3876,0.4981,1.6513,1.7874,1.4115,1.222,0.8788,0.7816,0.9443,0.9979,0.5633,1.6531,1.6385,0.9404,1.8114,1.1738,0.9336,1.5649,1.8989,2.0622,1.4995,1.134,1.1801,0.5495,0.5377,1.9068,0.2134,-0.1724,-0.914
0.9479,1.433,0.531,1.6889,1.8717,1.4669,1.281,0.9402,0.8276,1.0165,1.0604,0.6322,1.7603,1.7125,1.0629,1.8943,1.3151,0.976,1.617,1.9638,2.114,1.584,1.1939,1.2427,0.5917,0.5868,1.9818,0.3228,-0.2188,-1.051
1.0318,1.4843,0.5762,1.7281,1.9341,1.5182,1.2929,0.973,0.8351,1.0426,1.067,0.6566,1.8166,1.7412,1.1724,1.9645,1.4417,1.0137,1.6488,2.0061,2.1321,1.6171,1.2196,1.2496,0.6078,0.5956,2.0057,0.3807,-0.2509,-1.1967
1.0953,1.5497,0.6307,1.7796,1.9813,1.574,1.266,0.9788,0.8095,1.026,1.027,0.6404,1.8281,1.729,1.2565,2.0284,1.546,1.0507,1.6672,2.0368,2.1281,1.6024,1.2123,1.2081,0.5993,0.5696,1.9877,0.386,-0.2658,-1.3308
1.1344,1.6362,0.6915,1.8546,2.0252,1.644,1.2188,0.9641,0.7637,0.9803,0.9594,0.5974,1.8133,1.6903,1.3061,2.0956,1.6262,1.0919,1.6844,2.0714,2.1196,1.5538,1.1803,1.1365,0.5729,0.5222,1.9438,0.3485,-0.2643,-1.4326
1.1485,1.7467,0.7545,1.9604,2.0778,1.7353,1.1738,0.9382,0.7139,0.9247,0.8873,0.546,1.7967,1.6442,1.3166,2.175,1.6852,1.1406,1.714,2.1239,2.1249,1.491,1.1363,1.0571,0.5377,0.4697,1.8917,0.2846,-0.2498,-1.4858
1.1391,1.8772,0.8147,2.0962,2.1458,1.8483,1.1503,0.909,0.6743,0.8779,0.8318,0.5043,1.8011,1.609,1.2887,2.2721,1.7295,1.198,1.7668,2.2028,2.1572,1.4343,1.0933,0.9906,0.5017,0.4266,1.8457,0.2123,-0.2287,-1.4829
1.1092,2.0175,0.8655,2.2515,2.2269,1.9749,1.1588,0.8807,0.6531,0.8529,0.8064,0.4851,1.8406,1.5968,1.2281,2.3861,1.7669,1.2627,1.8481,2.3079,2.2212,1.399,1.0621,0.9505,0.4699,0.4019,1.814,0.1466,-0.2087,-1.4274
1.0621,2.1521,0.8998,2.4071,2.3091,2.098,1.1971,0.8526,0.6507,0.8537,0.8149,0.4938,1.9161,1.6107,1.1445,2.51,1.8046,1.3314,1.9567,2.4295,2.311,1.3929,1.0493,0.9404,0.4431,0.3971,1.7969,0.0977,-0.1977,-1.3334
1.0008,2.263,0.9103,2.5385,2.3719,2.1941,1.2512,0.8193,0.6596,0.8748,0.8511,0.5273,2.0144,1.6433,1.049,2.6302,1.8462,1.3991,2.0843,2.5496,2.411,1.4149,1.056,0.9537,0.4189,0.407,1.7877,0.0694,-0.2024,-1.2222
0.9282,2.3322,0.8903,2.6191,2.3906,2.2372,1.2979,0.7723,0.6672,0.9019,0.9013,0.576,2.111,1.6786,0.9521,2.7283,1.8894,1.4595,2.2165,2.6445,2.4976,1.4559,1.0782,0.9763,0.3929,0.4219,1.7747,0.0601,-0.2267,-1.1167
0.8473,2.3439,0.8345,2.6253,2.3411,2.2028,1.3099,0.7023,0.6591,0.916,0.9477,0.6254,2.1746,1.6947,0.8619,2.783,1.925,1.5049,2.3342,2.688,2.5435,1.4999,1.1073,0.9905,0.3611,0.4306,1.7441,0.0641,-0.2705,-1.0357
0.7606,2.2858,0.7394,2.5394,2.2053,2.0732,1.2626,0.6015,0.6222,0.8971,0.9726,0.6605,2.1744,1.6688,0.7825,2.7728,1.9375,1.5265,2.4153,2.6563,2.5219,1.5277,1.1313,0.9789,0.3215,0.4236,1.683,0.0729,-0.3295,-0.9889
0.6707,2.1509,0.6046,2.3532,1.9761,1.8415,1.1394,0.4664,0.5481,0.8294,0.9621,0.6682,2.0869,1.5822,0.7146,2.6802,1.9077,1.516,2.4385,2.5323,2.4125,1.5197,1.1369,0.9293,0.2747,0.3956,1.5829,0.0774,-0.3958,-0.9751
0.5802,1.9394,0.4339,2.0701,1.6602,1.515,0.9366,0.2996,0.4346,0.7052,0.9089,0.6402,1.9012,1.4254,0.6564,2.4957,1.8179,1.4679,2.3875,2.3097,2.2054,1.4607,1.1121,0.8367,0.2241,0.3461,1.4418,0.0696,-0.4592,-0.9831
0.4916,1.6599,0.2362,1.7066,1.2794,1.1164,0.6654,0.1104,0.2869,0.5273,0.8135,0.5749,1.6224,1.2008,0.6048,2.2223,1.6578,1.3815,2.2559,1.9962,1.9053,1.3427,1.0492,0.7044,0.1743,0.279,1.2645,0.0438,-0.5095,-0.9959
0.4071,1.3304,0.0258,1.2912,0.8681,0.6824,0.3503,-0.0852,0.1165,0.3093,0.6839,0.4771,1.2712,0.924,0.5568,1.8762,1.4292,1.2633,2.0506,1.614,1.5323,1.1683,0.9472,0.5431,0.13,0.2008,1.0624,-0.0024,-0.5384,-0.9957
0.3283,0.9773,-0.1786,0.8616,0.4689,0.2587,0.0255,-0.2671,-0.0602,0.0734,0.5338,0.3575,0.8811,0.6211,0.51,1.4869,1.1483,1.1264,1.7928,1.1977,1.1197,0.9508,0.8126,0.3687,0.094,0.1189,0.8511,-0.0673,-0.5412,-0.969
0.2564,0.6325,-0.3557,0.4604,0.1252,-0.1066,-0.2712,-0.4144,-0.2249,-0.1534,0.3804,0.2307,0.4929,0.3245,0.4631,1.0931,0.8439,0.9891,1.5156,0.7896,0.7098,0.7132,0.6594,0.1993,0.0676,0.0406,0.6486,-0.1452,-0.5178,-0.9094
0.1919,0.3302,-0.4858,0.1291,-0.1249,-0.3716,-0.5053,-0.5093,-0.3603,-0.3442,0.2417,0.1124,0.1486,0.0673,0.4157,0.7371,0.5539,0.871,1.2589,0.434,0.3478,0.4845,0.507,0.0529,0.0504,-0.0281,0.4718,-0.2274,-0.4729,-0.8192
0.1355,0.1012,-0.5538,-0.0983,-0.2556,-0.5078,-0.6516,-0.5413,-0.4527,-0.4771,0.1335,0.0173,-0.1142,-0.1216,0.3691,0.4586,0.318,0.7896,1.0619,0.1705,0.0746,0.2951,0.3765,-0.055,0.0418,-0.0822,0.3356,-0.3025,-0.4156,-0.7092
0.0886,-0.0308,-0.553,-0.1998,-0.2567,-0.5059,-0.6981,-0.5091,-0.4945,-0.5384,0.067,-0.0436,-0.2681,-0.222,0.3266,0.2891,0.1715,0.7568,0.9564,0.0287,-0.0787,0.1716,0.2876,-0.1126,0.0418,-0.1175,0.2509,-0.3585,-0.358,-0.5962
0.0536,-0.0527,-0.4871,-0.1682,-0.1338,-0.376,-0.6461,-0.4209,-0.4845,-0.5245,0.0479,-0.0642,-0.2986,-0.2238,0.2936,0.2473,0.1389,0.7776,0.9618,0.0245,-0.0947,0.1325,0.2546,-0.1131,0.0521,-0.1303,0.224,-0.3844,-0.3135,-0.5002
0.0343,0.0362,-0.3697,-0.0118,0.0935,-0.1453,-0.5092,-0.2926,-0.4281,-0.4412,0.0756,-0.044,-0.2055,-0.1276,0.2775,0.3377,0.2307,0.8497,1.0824,0.1588,0.0283,0.1861,0.2846,-0.0542,0.0752,-0.1175,0.2563,-0.3724,-0.2947,-0.4406
0.0347,0.2246,-0.2227,0.248,0.3972,0.1485,-0.3083,-0.1442,-0.3354,-0.3019,0.1437,0.0118,-0.002,0.0572,0.286,0.5504,0.4418,0.9646,1.3085,0.4182,0.2775,0.3299,0.3769,0.0613,0.1145,-0.0774,0.3439,-0.3197,-0.3108,-0.433
0.0586,0.4912,-0.0715,0.5808,0.7458,0.4651,-0.067,0.0046,-0.219,-0.1236,0.2417,0.0941,0.2881,0.3148,0.3255,0.8639,0.7532,1.1087,1.6188,0.7778,0.6283,0.5521,0.523,0.2264,0.1723,-0.0102,0.4786,-0.2299,-0.3665,-0.4851
0.1081,0.808,0.0596,0.9524,1.1101,0.7697,0.1927,0.1379,-0.0916,0.0757,0.357,0.1911,0.6346,0.6258,0.399,1.2478,1.135,1.2656,1.9851,1.2048,1.0484,0.8342,0.7092,0.4309,0.2494,0.0811,0.6482,-0.1124,-0.4598,-0.5958
0.1828,1.1439,0.1526,1.3292,1.4668,1.0382,0.4538,0.2468,0.036,0.2807,0.4773,0.2907,1.0055,0.9696,0.5038,1.6672,1.5507,1.4179,2.3761,1.6631,1.5021,1.1535,0.919,0.6623,0.3439,0.1905,0.8386,0.0187,-0.5828,-0.7538
0.2793,1.469,0.1992,1.6834,1.8005,1.2598,0.7048,0.3295,0.1564,0.4801,0.5923,0.3832,1.3717,1.3259,0.6317,2.0861,1.9618,1.5489,2.7615,2.1169,1.9547,1.4863,1.1353,0.9071,0.4513,0.3096,1.0351,0.1477,-0.7219,-0.9397
0.3914,1.7586,0.2028,1.9951,2.1033,1.4367,0.9393,0.3912,0.266,0.6674,0.6957,0.4622,1.7099,1.6762,0.7695,2.4722,2.3331,1.6448,3.1148,2.535,2.3758,1.8094,1.3428,1.1518,0.5652,0.4288,1.2247,0.2608,-0.8604,-1.1292
0.5116,1.9959,0.1772,2.2545,2.3735,1.5799,1.1545,0.4411,0.3646,0.8402,0.7854,0.5262,2.0049,2.004,0.9016,2.8005,2.6367,1.6965,3.415,2.8936,2.7429,2.1023,1.5295,1.3843,0.678,0.5386,1.3971,0.3487,-0.9812,-1.2977
0.6321,2.1736,0.1433,2.4606,2.6127,1.7047,1.3491,0.4895,0.4536,0.9983,0.8626,0.577,2.2491,2.2957,1.0131,3.055,2.8547,1.7011,3.6478,3.1782,3.042,2.3486,1.6871,1.594,0.7826,0.6313,1.5456,0.4081,-1.0706,-1.4247
0.7458,2.2936,0.1234,2.619,2.8227,1.8245,1.521,0.5442,0.5343,1.1418,0.9303,0.6187,2.4404,2.5401,1.0923,3.2299,2.981,1.6614,3.8046,3.383,3.2671,2.5364,1.8111,1.7723,0.8723,0.7012,1.6656,0.441,-1.1202,-1.4986
0.8469,2.3639,0.1352,2.7378,3.0023,1.9466,1.6665,0.6085,0.6067,1.269,0.9908,0.6548,2.5794,2.7277,1.1331,3.3272,3.0197,1.5863,3.8826,3.5097,3.4186,2.6585,1.8995,1.9122,0.9418,0.7444,1.7539,0.4526,-1.1281,-1.5172
0.9313,2.3954,0.1866,2.8236,3.1458,2.0692,1.7796,0.6801,0.6679,1.3753,1.0442,0.6863,2.6664,2.851,1.1349,3.3541,2.9833,1.4879,3.8831,3.5638,3.5,2.7121,1.9521,2.0077,0.987,0.7581,1.8074,0.4485,-1.099,-1.4879
0.9953,2.3975,0.2725,2.8781,3.2423,2.1815,1.8523,0.751,0.7128,1.4533,1.087,0.7106,2.6994,2.9036,1.1018,3.3197,2.8883,1.3802,3.8114,3.5519,3.5153,2.6987,1.9691,2.0543,1.0052,0.7408,1.8228,0.4322,-1.0418,-1.424
1.0355,2.3748,0.3761,2.8967,3.2772,2.2656,1.8763,0.8102,0.7346,1.4937,1.1126,0.722,2.6743,2.8804,1.041,3.2323,2.7525,1.2759,3.676,3.4795,3.4671,2.6233,1.9512,2.0489,0.9953,0.6915,1.7964,0.4038,-0.9677,-1.3412
1.0483,2.3256,0.4721,2.8688,3.2348,2.3007,1.8441,0.8453,0.7264,1.4873,1.1122,0.7127,2.5855,2.7789,0.9602,3.0979,2.5913,1.185,3.4884,3.3495,3.3562,2.4941,1.8992,1.9903,0.9581,0.6107,1.7259,0.3602,-0.8875,-1.253
1.0295,2.2421,0.5325,2.7808,3.1019,2.2679,1.7514,0.8454,0.6827,1.4267,1.0771,0.6756,2.4291,2.5998,0.8664,2.92,2.4164,1.1132,3.2618,3.1633,3.1822,2.3211,1.8147,1.8798,0.8964,0.5006,1.6114,0.2965,-0.81,-1.1678
0.9752,2.1134,0.5333,2.6202,2.8716,2.1548,1.5982,0.8034,0.6007,1.3084,1.0005,0.6057,2.2053,2.3483,0.7633,2.7009,2.2349,1.0616,3.0097,2.9223,2.9453,2.1158,1.7007,1.7218,0.8145,0.3662,1.4563,0.2085,-0.7406,-1.0873
0.8826,1.9291,0.4606,2.3804,2.5466,1.9593,1.3901,0.7179,0.4813,1.1344,0.8797,0.5026,1.921,2.0356,0.652,2.4432,2.0504,1.0277,2.7439,2.6306,2.6487,1.8896,1.5618,1.5239,0.7188,0.2152,1.2684,0.0945,-0.6814,-1.006
0.7521,1.6848,0.3142,2.065,2.1422,1.6916,1.1394,0.5937,0.3297,0.9132,0.7181,0.3718,1.5912,1.6793,0.5304,2.152,1.8642,1.0066,2.4737,2.2974,2.301,1.6535,1.4045,1.2978,0.6171,0.0584,1.06,-0.0429,-0.6321,-0.9143
0.589,1.3857,0.1093,1.6905,1.6859,1.3739,0.8645,0.4421,0.156,0.66,0.5257,0.2243,1.2389,1.3032,0.3959,1.8371,1.6771,0.9928,2.205,1.9383,1.9182,1.4179,1.2369,1.0586,0.5182,-0.0917,0.8469,-0.1955,-0.5905,-0.8008
0.4038,1.0492,-0.1263,1.2854,1.2154,1.0377,0.5885,0.2793,-0.0256,0.3963,0.3185,0.0761,0.8927,0.9356,0.247,1.5128,1.491,0.9814,1.9421,1.5753,1.523,1.1928,1.0681,0.8244,0.4315,-0.2214,0.6473,-0.3505,-0.5538,-0.6559
0.2127,0.7027,-0.3579,0.8871,0.773,0.7191,0.3367,0.1244,-0.1981,0.147,0.1171,-0.0544,0.5831,0.6063,0.085,1.1972,1.3092,0.9694,1.6886,1.2333,1.1429,0.988,0.9073,0.6147,0.3659,-0.3184,0.4797,-0.4917,-0.5194,-0.475
0.034,0.3797,-0.5509,0.5344,0.3987,0.4518,0.1319,-0.0042,-0.3442,-0.0632,-0.057,-0.1502,0.3375,0.3419,-0.085,0.9093,1.1363,0.9554,1.4493,0.9366,0.806,0.812,0.7628,0.4472,0.328,-0.3738,0.36,-0.6026,-0.485,-0.26
-0.1145,0.1122,-0.6787,0.261,0.1226,0.2615,-0.0094,-0.0923,-0.4497,-0.2142,-0.1856,-0.1991,0.1745,0.1613,-0.2551,0.6658,0.9775,0.9386,1.2302,0.7041,0.5356,0.6713,0.6409,0.3354,0.3208,-0.3837,0.2986,-0.6695,-0.4489,-0.0189
-0.2196,-0.0753,-0.7273,0.0879,-0.0404,0.1606,-0.0804,-0.1329,-0.5065,-0.2951,-0.2571,-0.1969,0.1005,0.0716,-0.416,0.4781,0.8367,0.9184,1.0391,0.5457,0.3463,0.5693,0.5449,0.2848,0.3428,-0.3505,0.2986,-0.6846,-0.4102,0.2342
-0.2747,-0.1713,-0.6981,0.0203,-0.0928,0.147,-0.086,-0.1276,-0.5145,-0.3058,-0.2695,-0.1486,0.1081,0.0673,-0.5584,0.3504,0.7165,0.8935,0.884,0.4608,0.2408,0.5053,0.4749,0.2919,0.3879,-0.2827,0.3538,-0.6478,-0.3688,0.4816
-0.281,-0.179,-0.6057,0.0472,-0.0527,0.2053,-0.041,-0.0861,-0.4816,-0.2579,-0.2304,-0.0674,0.1775,0.1308,-0.6746,0.2794,0.6175,0.8622,0.7724,0.4394,0.21,0.4747,0.4281,0.3445,0.4458,-0.1933,0.4501,-0.5662,-0.326,0.7045
-0.246,-0.115,-0.4732,0.1445,0.0514,0.3115,0.0336,-0.0238,-0.4213,-0.1711,-0.1551,0.0285,0.2806,0.2367,-0.7597,0.2556,0.5392,0.8225,0.7099,0.464,0.2352,0.4696,0.3998,0.4241,0.5046,-0.0975,0.5674,-0.453,-0.2839,0.8856
-0.182,-0.0046,-0.3262,0.2811,0.1872,0.4384,0.1156,0.0422,-0.3501,-0.0691,-0.0628,0.1199,0.3869,0.3571,-0.8122,0.2656,0.4806,0.7735,0.6987,0.5136,0.293,0.4807,0.3846,0.5098,0.5527,-0.0098,0.6833,-0.3244,-0.2452,1.0123
-0.1032,0.1237,-0.1864,0.4258,0.3254,0.5624,0.1867,0.097,-0.2826,0.0259,0.0278,0.1912,0.4703,0.4668,-0.8343,0.2947,0.441,0.7165,0.7367,0.5682,0.3597,0.4993,0.3779,0.5832,0.5813,0.0579,0.7775,-0.1961,-0.2128,1.0797
-0.0235,0.2445,-0.0676,0.5532,0.4451,0.6671,0.2363,0.1313,-0.2288,0.0982,0.1031,0.2333,0.5139,0.5484,-0.8313,0.3296,0.4197,0.6551,0.8174,0.6117,0.4164,0.5191,0.3765,0.6318,0.5862,0.0984,0.8356,-0.0804,-0.1888,1.0909
0.0457,0.3399,0.0252,0.6482,0.5369,0.746,0.2632,0.1431,-0.1918,0.141,0.1564,0.2455,0.5134,0.5941,-0.8107,0.3604,0.4165,0.5961,0.9304,0.6353,0.4521,0.5375,0.3795,0.6513,0.5686,0.11,0.8513,0.0156,-0.1742,1.0571
0.0969,0.4025,0.0949,0.7073,0.6023,0.8014,0.2744,0.1374,-0.1682,0.157,0.189,0.2345,0.4766,0.6066,-0.7811,0.3815,0.4308,0.5478,1.0627,0.638,0.4648,0.5564,0.3882,0.6453,0.5348,0.0964,0.827,0.0903,-0.1689,0.9944
0.1275,0.4348,0.1492,0.7371,0.6518,0.8421,0.2822,0.1244,-0.1501,0.1562,0.2081,0.2116,0.42,0.5966,-0.75,0.3924,0.4616,0.5186,1.1996,0.6261,0.4607,0.5811,0.4058,0.6242,0.494,0.0656,0.7723,0.1465,-0.172,0.9198
0.1396,0.4478,0.1976,0.7517,0.7004,0.8795,0.3001,0.1164,-0.1277,0.1527,0.2236,0.1898,0.3644,0.5791,-0.7228,0.396,0.5067,0.5145,1.3265,0.6109,0.4514,0.6182,0.4356,0.6012,0.4566,0.0279,0.7014,0.1894,-0.1822,0.8476
0.1391,0.4569,0.248,0.767,0.7631,0.9243,0.3388,0.1245,-0.0926,0.1602,0.2449,0.1802,0.3293,0.5696,-0.7021,0.3976,0.5628,0.5368,1.4292,0.6053,0.4503,0.6737,0.4804,0.5896,0.4316,-0.0057,0.6294,0.2251,-0.1977,0.787
0.134,0.4774,0.3053,0.7968,0.85,0.9832,0.4034,0.1559,-0.04,0.189,0.2784,0.1903,0.3288,0.58,-0.688,0.4026,0.625,0.5812,1.4956,0.6197,0.4681,0.7499,0.5405,0.5993,0.4249,-0.0262,0.57,0.2593,-0.2167,0.7414
0.1328,0.5203,0.371,0.8485,0.9634,1.0574,0.4923,0.2126,0.0306,0.2439,0.3261,0.2224,0.3695,0.6163,-0.6783,0.4142,0.6875,0.6378,1.5171,0.6591,0.5098,0.8444,0.6131,0.6356,0.439,-0.0271,0.5323,0.2968,-0.2368,0.7102
0.1425,0.5895,0.4434,0.9218,1.0967,1.1432,0.5979,0.2912,0.1152,0.3233,0.3857,0.2748,0.4499,0.6774,-0.6702,0.4325,0.7436,0.6935,1.4901,0.7212,0.5734,0.9497,0.6928,0.6976,0.4727,-0.0058,0.5199,0.3412,-0.2554,0.691
0.1672,0.6808,0.5186,1.0092,1.2365,1.2336,0.709,0.3841,0.2071,0.4206,0.4521,0.3421,0.562,0.7562,-0.6619,0.4542,0.787,0.7349,1.4178,0.7967,0.65,1.0543,0.7721,0.7796,0.5224,0.0374,0.5312,0.3953,-0.2691,0.6828
0.207,0.7834,0.5921,1.0984,1.3659,1.3205,0.814,0.482,0.2986,0.5264,0.5191,0.417,0.6941,0.8411,-0.6528,0.4736,0.8132,0.7515,1.3101,0.8719,0.7267,1.145,0.843,0.872,0.5828,0.0988,0.5603,0.4604,-0.2739,0.6876
0.2582,0.8836,0.6591,1.1766,1.4694,1.3972,0.9036,0.5763,0.3831,0.6303,0.5808,0.4916,0.8331,0.9191,-0.6442,0.4846,0.8207,0.7389,1.1831,0.9319,0.7896,1.2103,0.8986,0.9633,0.6474,0.1723,0.599,0.5354,-0.2659,0.7091
0.3141,0.9683,0.7153,1.2335,1.5365,1.4603,0.9724,0.6605,0.4556,0.7227,0.6323,0.5575,0.9668,0.9785,-0.6385,0.4831,0.8122,0.6997,1.0563,0.9652,0.8272,1.243,0.9346,1.0421,0.7095,0.2493,0.6377,0.6163,-0.2424,0.7504
0.3661,1.0285,0.7567,1.2641,1.564,1.509,1.0187,0.7308,0.5132,0.7961,0.6699,0.6072,1.0857,1.0109,-0.6375,0.4692,0.7946,0.6436,0.9491,0.9667,0.8336,1.2418,0.9502,1.0986,0.7618,0.3197,0.6674,0.6957,-0.2037,0.8105
0.4051,1.0616,0.78,1.2689,1.5554,1.5452,1.0435,0.7854,0.554,0.8448,0.6903,0.634,1.1828,1.0126,-0.6422,0.447,0.7777,0.5844,0.8774,0.9391,0.8088,1.2124,0.9486,1.1262,0.7978,0.3734,0.6798,0.7638,-0.1534,0.8829
0.4233,1.0708,0.7828,1.2531,1.5184,1.5709,1.0484,0.8233,0.5763,0.8648,0.6908,0.6325,1.2538,0.9852,-0.652,0.4243,0.7717,0.5371,0.85,0.8916,0.7586,1.1654,0.9354,1.1219,0.8121,0.402,0.6684,0.8102,-0.0988,0.9564
0.4151,1.063,0.7638,1.223,1.462,1.587,1.0341,0.843,0.5785,0.8537,0.6689,0.6003,1.2966,0.9337,-0.6653,0.4104,0.7834,0.5131,0.8673,0.8371,0.6926,1.1138,0.917,1.0867,0.8016,0.4007,0.6288,0.8266,-0.0491,1.0172
0.3784,1.0455,0.723,1.1844,1.3934,1.592,0.9992,0.8425,0.5584,0.8108,0.6236,0.5379,1.3103,0.866,-0.6803,0.4125,0.8145,0.5171,0.9216,0.7875,0.6212,1.0695,0.8989,1.0252,0.7659,0.3692,0.5591,0.809,-0.0135,1.0539
0.3147,1.0239,0.6623,1.1396,1.3161,1.5822,0.9417,0.8197,0.5152,0.7378,0.5561,0.4498,1.2957,0.7906,-0.6956,0.4338,0.8598,0.5456,0.9987,0.7511,0.5538,1.0408,0.8833,0.9441,0.7076,0.3122,0.461,0.7598,0.0011,1.0602
0.2291,0.9994,0.5847,1.0882,1.2305,1.5529,0.86,0.7743,0.4505,0.6393,0.471,0.3445,1.2556,0.7154,-0.7109,0.4721,0.9083,0.5884,1.0816,0.7298,0.4972,1.0304,0.8696,0.852,0.6326,0.2382,0.3396,0.6874,-0.0074,1.0377
0.13,0.9693,0.4938,1.0274,1.1359,1.5004,0.7557,0.709,0.3693,0.524,0.3767,0.2337,1.1954,0.6477,-0.7266,0.52,0.9466,0.6316,1.1543,0.7209,0.4553,1.0359,0.8546,0.7582,0.5496,0.1579,0.2038,0.6053,-0.0366,0.9948
0.0276,0.9283,0.3939,0.9552,1.0331,1.4241,0.6344,0.6299,0.2808,0.4035,0.2842,0.1303,1.1234,0.5934,-0.7431,0.5675,0.962,0.6621,1.2049,0.7185,0.4302,1.0514,0.835,0.6717,0.4687,0.0826,0.0657,0.5293,-0.0796,0.9445
-0.0676,0.871,0.2894,0.8714,0.9261,1.3276,0.506,0.5462,0.1958,0.2907,0.2051,0.0466,1.0497,0.5565,-0.7601,0.6039,0.946,0.6716,1.2275,0.7163,0.4226,1.0701,0.8086,0.6005,0.4,0.0215,-0.0613,0.4743,-0.1272,0.9001
-0.1468,0.7931,0.1844,0.7791,0.8221,1.218,0.3823,0.4679,0.1248,0.1969,0.1483,-0.0091,0.984,0.5385,-0.7763,0.6206,0.8963,0.6589,1.2223,0.7101,0.432,1.0858,0.7755,0.5496,0.3517,-0.0196,-0.165,0.45,-0.17,0.8709
-0.2052,0.6934,0.0823,0.6837,0.7295,1.1037,0.2741,0.403,0.075,0.1292,0.1175,-0.0334,0.9329,0.5377,-0.7899,0.6123,0.8163,0.6288,1.1938,0.6981,0.4561,1.0945,0.7379,0.5208,0.3281,-0.0399,-0.2365,0.4588,-0.2007,0.8609
-0.2432,0.5736,-0.0151,0.591,0.655,0.9921,0.1883,0.3554,0.0481,0.088,0.11,-0.0296,0.8975,0.5482,-0.7995,0.5775,0.7139,0.5907,1.1485,0.6802,0.49,1.0941,0.6992,0.5115,0.3288,-0.0434,-0.2729,0.4948,-0.216,0.8678
-0.2666,0.4376,-0.1076,0.5055,0.601,0.8873,0.1253,0.3237,0.0396,0.0671,0.1175,-0.0059,0.8731,0.561,-0.8051,0.5176,0.5994,0.554,1.0922,0.6571,0.5262,1.0843,0.6621,0.5158,0.3487,-0.0378,-0.2781,0.5452,-0.2165,0.885
-0.2846,0.2911,-0.1964,0.4288,0.5637,0.7889,0.0791,0.3017,0.0407,0.0554,0.1282,0.0263,0.8498,0.5654,-0.8082,0.4362,0.4829,0.5253,1.0289,0.6289,0.5548,1.065,0.6276,0.5255,0.3797,-0.0324,-0.261,0.5936,-0.2064,0.9043
-0.3072,0.1403,-0.2838,0.3584,0.5338,0.6926,0.0386,0.2802,0.0406,0.0392,0.1301,0.0551,0.8154,0.5506,-0.8119,0.3378,0.3728,0.5058,0.9594,0.5939,0.5646,1.0357,0.594,0.5319,0.4122,-0.0357,-0.2343,0.6238,-0.1918,0.9186
-0.3427,-0.009,-0.3718,0.2891,0.4982,0.5915,-0.0097,0.2497,0.0287,0.006,0.1143,0.0711,0.7584,0.5081,-0.8203,0.2266,0.2742,0.4909,0.8811,0.5481,0.5452,0.9938,0.5563,0.5267,0.4366,-0.0532,-0.2106,0.6237,-0.1787,0.9243
-0.3953,-0.1519,-0.4615,0.2135,0.4432,0.4791,-0.0784,0.2027,-0.0022,-0.0535,0.0764,0.0686,0.6704,0.4324,-0.8372,0.1058,0.1882,0.4712,0.7892,0.4863,0.4877,0.935,0.507,0.5036,0.4455,-0.0862,-0.2003,0.5869,-0.1708,0.9225
-0.4643,-0.2852,-0.5524,0.1246,0.3579,0.351,-0.1756,0.1354,-0.0549,-0.1429,0.0173,0.0458,0.5477,0.3221,-0.8657,-0.0229,0.1116,0.4362,0.6773,0.402,0.3868,0.8534,0.4375,0.4583,0.4336,-0.1326,-0.2103,0.5138,-0.1686,0.919
-0.5449,-0.4078,-0.6418,0.017,0.237,0.2071,-0.3034,0.0489,-0.1274,-0.2599,-0.0578,0.0051,0.3916,0.1797,-0.9071,-0.1594,0.0382,0.3769,0.5396,0.2898,0.2413,0.743,0.3401,0.3892,0.3987,-0.1874,-0.2432,0.4103,-0.1691,0.9224
-0.63,-0.5214,-0.7257,-0.1114,0.0821,0.0521,-0.4564,-0.0513,-0.2133,-0.3967,-0.1407,-0.0488,0.2075,0.0108,-0.9609,-0.305,-0.0398,0.2885,0.373,0.1458,0.0542,0.5998,0.2098,0.2971,0.3408,-0.2452,-0.2983,0.2861,-0.1668,0.9419
-0.7116,-0.6292,-0.7987,-0.2587,-0.0985,-0.1051,-0.6233,-0.1558,-0.3032,-0.5411,-0.2223,-0.1095,0.0035,-0.1762,-1.0251,-0.4615,-0.1297,0.1716,0.1788,-0.0303,-0.167,0.4237,0.0459,0.1849,0.2626,-0.3017,-0.3722,0.153,-0.1549,0.9847
-0.7836,-0.7354,-0.8549,-0.4196,-0.2907,-0.2524,-0.7878,-0.2532,-0.386,-0.6786,-0.2941,-0.17,-0.2105,-0.3708,-1.0965,-0.6301,-0.2365,0.0316,-0.0368,-0.2345,-0.4107,0.2198,-0.1472,0.0578,0.1681,-0.3545,-0.4597,0.0228,-0.1274,1.0545
-0.8422,-0.8429,-0.8885,-0.586,-0.4775,-0.3771,-0.9324,-0.3319,-0.4509,-0.794,-0.3493,-0.2237,-0.4232,-0.561,-1.1722,-0.8106,-0.3619,-0.1233,-0.263,-0.4581,-0.6621,-0.0011,-0.3602,-0.0772,0.063,-0.4034,-0.5541,-0.0944,-0.08,1.1506
-0.8863,-0.952,-0.8948,-0.7477,-0.6411,-0.4679,-1.0409,-0.3816,-0.4887,-0.8742,-0.3838,-0.2649,-0.6226,-0.7338,-1.25,-0.9999,-0.5037,-0.2839,-0.4858,-0.6883,-0.9048,-0.2243,-0.5806,-0.2117,-0.046,-0.4488,-0.6477,-0.1909,-0.0113,1.2687
-0.9171,-1.0594,-0.8715,-0.894,-0.7663,-0.517,-1.1009,-0.3954,-0.4934,-0.9094,-0.3957,-0.2893,-0.7964,-0.8767,-1.3285,-1.1914,-0.6566,-0.4414,-0.6905,-0.9094,-1.1219,-0.4332,-0.7938,-0.3367,-0.1519,-0.4914,-0.7321,-0.2624,0.0769,1.4024
-0.9367,-1.1585,-0.8194,-1.015,-0.8418,-0.5212,-1.1064,-0.3704,-0.4628,-0.8954,-0.386,-0.2945,-0.9334,-0.9793,-1.4069,-1.3758,-0.813,-0.588,-0.8639,-1.105,-1.2986,-0.6126,-0.9863,-0.4435,-0.2475,-0.5306,-0.7992,-0.3078,0.1802,1.5444
-0.9472,-1.2404,-0.7431,-1.1027,-0.8624,-0.4823,-1.0581,-0.3084,-0.3993,-0.8336,-0.3573,-0.2801,-1.0256,-1.0348,-1.484,-1.5413,-0.9638,-0.7174,-0.9964,-1.2609,-1.424,-0.7515,-1.1471,-0.5249,-0.3267,-0.5645,-0.8424,-0.3291,0.2918,1.6871
-0.9492,-1.2957,-0.651,-1.1518,-0.8293,-0.4067,-0.9633,-0.2154,-0.3094,-0.7314,-0.3141,-0.248,-1.0691,-1.041,-1.5569,-1.6757,-1.0997,-0.8238,-1.0832,-1.3665,-1.4926,-0.8439,-1.2689,-0.5764,-0.3851,-0.5901,-0.8578,-0.3305,0.4033,1.8226
-0.9417,-1.3166,-0.5537,-1.1601,-0.7495,-0.3039,-0.8343,-0.1009,-0.2025,-0.6009,-0.2615,-0.2018,-1.0659,-1.0003,-1.6204,-1.7683,-1.2118,-0.9019,-1.1244,-1.4165,-1.504,-0.8893,-1.3487,-0.5965,-0.4206,-0.6046,-0.8446,-0.3172,0.506,1.9417
-0.9223,-1.2983,-0.4618,-1.1287,-0.6344,-0.1846,-0.6866,0.0239,-0.0897,-0.4571,-0.2051,-0.1466,-1.0232,-0.9197,-1.6674,-1.8113,-1.2925,-0.9474,-1.1246,-1.411,-1.4636,-0.8912,-1.3873,-0.5867,-0.4335,-0.6059,-0.8059,-0.2941,0.591,2.0341
-0.8882,-1.2405,-0.3842,-1.0615,-0.4981,-0.0596,-0.5361,0.1473,0.018,-0.3154,-0.1503,-0.0877,-0.9521,-0.8088,-1.6903,-1.8016,-1.3366,-0.958,-1.0924,-1.3554,-1.3806,-0.8557,-1.388,-0.5517,-0.4269,-0.5939,-0.7482,-0.2653,0.6513,2.0892
-0.838,-1.1478,-0.3257,-0.9653,-0.3554,0.0621,-0.3974,0.2592,0.111,-0.1895,-0.1017,-0.0305,-0.8662,-0.6791,-1.6832,-1.742,-1.3427,-0.935,-1.0393,-1.2601,-1.2674,-0.7901,-1.3565,-0.498,-0.4051,-0.5703,-0.6799,-0.2329,0.6825,2.0992
-0.7729,-1.0295,-0.2868,-0.849,-0.2203,0.1734,-0.2813,0.3521,0.1827,-0.0894,-0.062,0.0208,-0.7782,-0.5422,-1.6443,-1.6406,-1.3133,-0.8838,-0.9787,-1.1385,-1.1373,-0.7018,-1.2998,-0.4326,-0.3738,-0.538,-0.6098,-0.1972,0.6837,2.0614
-0.6967,-0.8979,-0.2636,-0.7229,-0.1042,0.2695,-0.1942,0.4218,0.2301,-0.0194,-0.0324,0.0637,-0.6986,-0.4084,-1.5766,-1.5091,-1.2546,-0.8138,-0.9243,-1.0056,-1.003,-0.5976,-1.2257,-0.3623,-0.338,-0.5003,-0.5442,-0.1569,0.6581,1.9803
-0.6156,-0.7663,-0.2502,-0.5972,-0.0156,0.3482,-0.1374,0.4673,0.2536,0.0211,-0.0118,0.0976,-0.633,-0.2859,-1.488,-1.3609,-1.1746,-0.7363,-0.8883,-0.8748,-0.8746,-0.4836,-1.1416,-0.2911,-0.3013,-0.4599,-0.4856,-0.11,0.6113,1.8673
-0.5366,-0.6459,-0.24,-0.4801,0.0418,0.4093,-0.1075,0.4906,0.2568,0.0382,0.0031,0.1244,-0.5817,-0.1795,-1.389,-1.2077,-1.081,-0.6619,-0.878,-0.7558,-0.7584,-0.3638,-1.0535,-0.2199,-0.2648,-0.4171,-0.4314,-0.0544,0.5497,1.7389
-0.4657,-0.5438,-0.2283,-0.3766,0.0686,0.4545,-0.0974,0.4956,0.2455,0.0411,0.0172,0.1477,-0.5397,-0.0902,-1.2905,-1.0574,-0.9791,-0.5976,-0.8943,-0.6526,-0.6563,-0.2404,-0.965,-0.1458,-0.2265,-0.3703,-0.3744,0.0114,0.4795,1.6128
-0.4068,-0.4616,-0.2138,-0.288,0.0701,0.4868,-0.0982,0.4876,0.2266,0.0401,0.0358,0.1726,-0.4986,-0.0159,-1.201,-0.9132,-0.8704,-0.5454,-0.9307,-0.5631,-0.5657,-0.114,-0.8773,-0.0637,-0.1822,-0.3156,-0.3056,0.0871,0.4048,1.5043
-0.3613,-0.3961,-0.1984,-0.2127,0.0544,0.51,-0.1009,0.4715,0.2068,0.0439,0.063,0.2031,-0.45,0.0472,-1.1253,-0.7741,-0.7537,-0.5021,-0.9739,-0.4806,-0.4817,0.0157,-0.789,0.0317,-0.127,-0.2493,-0.2165,0.1704,0.3278,1.4227
-0.3287,-0.3405,-0.1869,-0.1472,0.0313,0.5276,-0.099,0.4518,0.1914,0.0573,0.1,0.2408,-0.3887,0.1028,-1.0642,-0.6375,-0.6263,-0.4614,-1.0078,-0.3966,-0.3993,0.1479,-0.6986,0.1424,-0.0577,-0.1695,-0.1033,0.2563,0.2497,1.3698
-0.3071,-0.2876,-0.1846,-0.0885,0.0092,0.5427,-0.0896,0.4315,0.1829,0.0801,0.1436,0.283,-0.315,0.1518,-1.0151,-0.5014,-0.4868,-0.4167,-1.0173,-0.3046,-0.3153,0.2792,-0.605,0.2648,0.0248,-0.0786,0.0309,0.3365,0.1721,1.3399
-0.2947,-0.2324,-0.1955,-0.0352,-0.0058,0.5572,-0.0744,0.4124,0.1812,0.1069,0.1865,0.323,-0.2363,0.1916,-0.9746,-0.3672,-0.3374,-0.3637,-0.9927,-0.2027,-0.2306,0.4025,-0.5103,0.3887,0.1148,0.0162,0.1755,0.4007,0.0983,1.3225
-0.2905,-0.174,-0.2205,0.0118,-0.0112,0.5721,-0.0586,0.3952,0.1835,0.1292,0.219,0.3507,-0.1655,0.2157,-0.94,-0.241,-0.1853,-0.3032,-0.9332,-0.0959,-0.1508,0.5069,-0.4195,0.498,0.2018,0.1033,0.314,0.4374,0.0339,1.3059
-0.2946,-0.1156,-0.2561,0.0495,-0.0077,0.5874,-0.0491,0.38,0.1856,0.1376,0.2314,0.356,-0.1182,0.2153,-0.911,-0.1328,-0.0425,-0.2411,-0.8469,0.0051,-0.0852,0.58,-0.3409,0.5738,0.2726,0.1692,0.4268,0.4362,-0.0135,1.2811
-0.3075,-0.0635,-0.2958,0.074,0.0016,0.6026,-0.0524,0.3669,0.1835,0.1249,0.2168,0.3319,-0.1086,0.1821,-0.8902,-0.0544,0.076,-0.1869,-0.7497,0.0859,-0.0446,0.6094,-0.2845,0.5989,0.3144,0.2018,0.4964,0.3909,-0.0358,1.2448
-0.3293,-0.0243,-0.3309,0.0824,0.0131,0.6167,-0.0721,0.356,0.1743,0.0882,0.1733,0.2771,-0.1457,0.1111,-0.8822,-0.0159,0.1558,-0.151,-0.661,0.1325,-0.0386,0.5868,-0.2597,0.5631,0.3182,0.1941,0.5112,0.3014,-0.0273,1.2001
-0.3584,-0.0017,-0.3531,0.0746,0.0238,0.6291,-0.108,0.3476,0.1578,0.0301,0.1054,0.198,-0.2297,0.0039,-0.8908,-0.0216,0.1876,-0.1413,-0.5983,0.1361,-0.0717,0.5107,-0.2721,0.4663,0.2817,0.1466,0.4693,0.1752,0.0136,1.1547
-0.3912,0.0058,-0.3565,0.0543,0.0336,0.6401,-0.1552,0.3427,0.1365,-0.0411,0.0233,0.1075,-0.3513,-0.1298,-0.9173,-0.0679,0.17,-0.1607,-0.5725,0.0961,-0.1409,0.3883,-0.3214,0.3205,0.2103,0.0682,0.3796,0.0275,0.0823,1.1178
-0.4214,0.0049,-0.3396,0.0295,0.0458,0.6513,-0.2042,0.3433,0.1158,-0.1124,-0.058,0.0237,-0.4917,-0.2723,-0.9582,-0.142,0.1122,-0.2052,-0.5846,0.0224,-0.2343,0.2365,-0.3996,0.149,0.1169,-0.0248,0.2616,-0.1198,0.1687,1.0959
-0.4414,0.0069,-0.3047,0.0113,0.0669,0.6655,-0.2424,0.3519,0.1032,-0.1679,-0.121,-0.0338,-0.6254,-0.3998,-1.0048,-0.224,0.0328,-0.265,-0.6245,-0.0656,-0.3324,0.0795,-0.4914,-0.018,0.0194,-0.1121,0.1417,-0.2421,0.2581,1.0901
-0.4437,0.0244,-0.2584,0.0122,0.1052,0.6866,-0.2557,0.3713,0.1067,-0.1918,-0.1487,-0.0478,-0.7245,-0.4861,-1.044,-0.2905,-0.0432,-0.3256,-0.6733,-0.1426,-0.4109,-0.0544,-0.5762,-0.1482,-0.0624,-0.1728,0.049,-0.3157,0.3342,1.0947
-0.4224,0.0677,-0.2093,0.0428,0.1684,0.718,-0.2316,0.4039,0.1335,-0.1711,-0.1275,-0.0065,-0.7637,-0.5084,-1.0611,-0.3198,-0.0901,-0.3705,-0.7067,-0.1824,-0.4457,-0.1383,-0.6319,-0.214,-0.1103,-0.1896,0.0092,-0.3225,0.3817,1.0986
-0.3757,0.141,-0.1667,0.1088,0.2611,0.7616,-0.1622,0.4505,0.1877,-0.0987,-0.0501,0.0934,-0.7257,-0.4517,-1.0435,-0.2968,-0.0874,-0.3847,-0.7002,-0.1638,-0.4186,-0.1521,-0.6392,-0.1978,-0.1114,-0.1522,0.0393,-0.2537,0.3897,1.0892
-0.3062,0.2412,-0.1384,0.2096,0.3819,0.8166,-0.0466,0.509,0.2688,0.0246,0.0826,0.2461,-0.6055,-0.3131,-0.9844,-0.2169,-0.0249,-0.3578,-0.6345,-0.0758,-0.3214,-0.087,-0.5862,-0.0953,-0.06,-0.0586,0.1441,-0.1119,0.3536,1.0566
-0.2221,0.3576,-0.1294,0.3368,0.5236,0.8791,0.1076,0.5743,0.3709,0.1888,0.2605,0.4368,-0.4116,-0.1035,-0.8861,-0.087,0.0949,-0.2865,-0.4995,0.0799,-0.1588,0.0526,-0.4705,0.0834,0.0409,0.0834,0.3141,0.0888,0.2756,0.9975
-0.1352,0.4747,-0.1411,0.4764,0.6728,0.9429,0.2845,0.6386,0.483,0.3759,0.4655,0.6442,-0.1654,0.1536,-0.7599,0.0761,0.2574,-0.1755,-0.2974,0.2885,0.0524,0.2494,-0.301,0.3156,0.1804,0.2582,0.5276,0.3249,0.1649,0.9168
-0.0591,0.5762,-0.1706,0.6112,0.8134,1.001,0.4627,0.6929,0.5904,0.5624,0.6741,0.8435,0.1029,0.4269,-0.6245,0.2497,0.4394,-0.0372,-0.0425,0.5257,0.2862,0.4761,-0.096,0.5701,0.3408,0.4443,0.7543,0.567,0.0353,0.8263
-0.0064,0.6498,-0.2119,0.726,0.93,1.0467,0.6195,0.7285,0.6778,0.7235,0.8613,1.0104,0.3605,0.683,-0.5014,0.4105,0.6144,0.1109,0.2413,0.7629,0.5131,0.7012,0.1201,0.8126,0.5013,0.6182,0.961,0.7844,-0.0973,0.7413
0.0146,0.6901,-0.2574,0.8107,1.0115,1.0762,0.7358,0.7395,0.7322,0.8383,1.0054,1.1259,0.5787,0.8935,-0.4103,0.5405,0.759,0.2495,0.5251,0.9737,0.707,0.8944,0.3213,1.0123,0.6409,0.7578,1.1185,0.9505,-0.2172,0.6757
0.0012,0.7006,-0.3,0.8634,1.0541,1.0885,0.8003,0.7238,0.7463,0.8944,1.0922,1.1791,0.7383,1.0411,-0.364,0.631,0.8573,0.3614,0.7814,1.1397,0.8505,1.033,0.4851,1.1469,0.7424,0.8475,1.207,1.0469,-0.3127,0.6383
-0.0423,0.6923,-0.3345,0.8908,1.062,1.0861,0.8123,0.6841,0.7197,0.8905,1.1177,1.1692,0.833,1.1223,-0.3651,0.6837,0.9047,0.435,0.9907,1.2541,0.9389,1.1062,0.5972,1.2067,0.7961,0.8801,1.2197,1.0669,-0.3769,0.6299
-0.1059,0.6808,-0.3588,0.9061,1.0462,1.0746,0.7815,0.6272,0.6599,0.8365,1.0884,1.1057,0.8695,1.1474,-0.4059,0.7102,0.9078,0.4669,1.145,1.3221,0.9799,1.1161,0.6533,1.1955,0.8006,0.859,1.1639,1.0163,-0.4095,0.6431
-0.1753,0.6811,-0.3737,0.9248,1.0218,1.0609,0.7251,0.563,0.5797,0.7504,1.0191,1.0053,0.8637,1.136,-0.4693,0.7275,0.8819,0.4615,1.2493,1.3583,0.9908,1.0767,0.6596,1.1288,0.7638,0.7968,1.0579,0.9113,-0.4156,0.6638
-0.2355,0.704,-0.382,0.9603,1.0039,1.0517,0.6626,0.5016,0.4943,0.6534,0.9285,0.8881,0.8354,1.1105,-0.5341,0.753,0.8465,0.4301,1.3181,1.3811,0.9924,1.0091,0.6296,1.0292,0.6992,0.712,0.9264,0.7748,-0.4042,0.6756
-0.2736,0.7526,-0.3867,1.0197,1.0038,1.0521,0.6104,0.4513,0.4172,0.5639,0.8341,0.7726,0.8019,1.0897,-0.5799,0.799,0.8195,0.3868,1.3703,1.4074,1.0029,0.9358,0.5807,0.9206,0.6235,0.6241,0.7938,0.6309,-0.3855,0.6637
-0.2819,0.8216,-0.3902,1.1014,1.026,1.0643,0.5778,0.4164,0.3568,0.4933,0.7486,0.6721,0.7732,1.0836,-0.592,0.8698,0.8129,0.3454,1.4224,1.447,1.0328,0.8754,0.5291,0.8227,0.5516,0.5489,0.6796,0.4997,-0.3687,0.6191
-0.2591,0.8993,-0.3927,1.1964,1.0683,1.0879,0.5658,0.3967,0.3157,0.4445,0.6776,0.5928,0.7511,1.0923,-0.565,0.9605,0.8305,0.3165,1.4848,1.5012,1.0836,0.839,0.4876,0.7479,0.4946,0.4959,0.5946,0.3945,-0.3594,0.5403
-0.2102,0.9717,-0.393,1.2914,1.1228,1.1202,0.5681,0.3887,0.2911,0.413,0.6211,0.535,0.7303,1.1079,-0.5023,1.0604,0.8686,0.3064,1.5588,1.5641,1.1488,0.83,0.4643,0.7004,0.4586,0.4675,0.5411,0.3211,-0.3597,0.4338
-0.145,1.0269,-0.3884,1.3726,1.1799,1.1577,0.5751,0.3873,0.2785,0.3903,0.5758,0.4959,0.7031,1.1199,-0.415,1.1563,0.9188,0.3169,1.6382,1.6256,1.2177,0.8447,0.4624,0.6778,0.4451,0.4605,0.5142,0.2792,-0.3684,0.3121
-0.0749,1.0588,-0.3769,1.4303,1.2308,1.1971,0.5784,0.388,0.2735,0.3688,0.5383,0.4722,0.6639,1.1193,-0.3177,1.2378,0.9716,0.3462,1.7114,1.6767,1.2802,0.8763,0.4819,0.6742,0.4523,0.4688,0.5055,0.2648,-0.3823,0.19
-0.0108,1.0683,-0.3585,1.461,1.2707,1.236,0.5735,0.3885,0.275,0.3445,0.5078,0.4621,0.6128,1.1034,-0.225,1.2999,1.0198,0.3908,1.7663,1.7121,1.3297,0.9169,0.5205,0.6825,0.476,0.4859,0.5051,0.2715,-0.3981,0.0811
0.0393,1.0628,-0.336,1.4679,1.2993,1.2725,0.562,0.3893,0.2848,0.3189,0.4865,0.4658,0.5564,1.076,-0.1479,1.3444,1.0612,0.4458,1.793,1.7322,1.3648,0.9609,0.5748,0.6975,0.5113,0.5064,0.5046,0.2926,-0.4137,-0.0054
0.0715,1.0539,-0.3145,1.4594,1.321,1.3061,0.5511,0.393,0.3071,0.2982,0.4791,0.4846,0.506,1.0467,-0.0921,1.3784,1.0987,0.5065,1.7873,1.7426,1.3891,1.0055,0.6407,0.7161,0.5522,0.5263,0.4985,0.3207,-0.4289,-0.0665
0.0858,1.0538,-0.2999,1.447,1.3433,1.3372,0.5513,0.404,0.3463,0.2916,0.491,0.519,0.4752,1.0275,-0.0578,1.4118,1.1396,0.5681,1.7515,1.7521,1.4093,1.0509,0.7137,0.7377,0.5925,0.5428,0.4847,0.3491,-0.4446,-0.1054
0.085,1.0728,-0.2965,1.4431,1.3756,1.3683,0.5736,0.4269,0.4059,0.3084,0.5263,0.568,0.4757,1.0293,-0.0408,1.4545,1.1925,0.6263,1.6942,1.7704,1.4331,1.0995,0.7893,0.763,0.626,0.554,0.4652,0.3719,-0.4626,-0.13
0.0741,1.1173,-0.3051,1.458,1.4267,1.4035,0.6264,0.4654,0.4867,0.3554,0.5871,0.6286,0.5144,1.0595,-0.0343,1.5134,1.2649,0.6777,1.629,1.8055,1.4671,1.1544,0.8629,0.7934,0.6477,0.5589,0.4454,0.3858,-0.4836,-0.1499
0.0582,1.1882,-0.3216,1.4991,1.5031,1.4481,0.7133,0.5217,0.5865,0.4349,0.6719,0.6969,0.5922,1.1196,-0.0311,1.5914,1.3609,0.7199,1.5723,1.8623,1.5151,1.2187,0.9311,0.8303,0.655,0.558,0.4336,0.3908,-0.5072,-0.1739
0.042,1.2823,-0.338,1.569,1.6071,1.507,0.8309,0.5949,0.6996,0.5435,0.7759,0.7682,0.7038,1.2059,-0.0255,1.6869,1.4794,0.7528,1.5404,1.9416,1.5778,1.2941,0.992,0.8744,0.6487,0.5535,0.4391,0.3908,-0.5321,-0.2074
0.0292,1.3925,-0.3443,1.6653,1.7356,1.5825,0.9697,0.681,0.817,0.6727,0.8914,0.8386,0.8393,1.3105,-0.0135,1.7951,1.6148,0.7784,1.547,2.0406,1.6529,1.3817,1.046,0.9258,0.6332,0.549,0.47,0.3923,-0.5568,-0.2523
0.0221,1.5097,-0.3324,1.7807,1.8798,1.6732,1.1155,0.7726,0.9281,0.8104,1.0088,0.9051,0.9875,1.4234,0.0068,1.9097,1.7587,0.8014,1.6012,2.1539,1.7366,1.4815,1.0959,0.9844,0.6161,0.5495,0.5319,0.4028,-0.5804,-0.3071
0.0224,1.6254,-0.2981,1.9048,2.0277,1.7727,1.2525,0.8598,1.0216,0.9428,1.1182,0.9658,1.1381,1.5362,0.0361,2.0251,1.9017,0.8281,1.7063,2.2754,1.8253,1.5934,1.1466,1.0498,0.607,0.5605,0.6264,0.4289,-0.6039,-0.3683
0.0308,1.7327,-0.2434,2.0266,2.1663,1.8717,1.3671,0.9319,1.0882,1.0579,1.2116,1.0198,1.2852,1.6437,0.0749,2.1375,2.0357,0.865,1.8602,2.3998,1.9168,1.7167,1.2038,1.122,0.615,0.5869,0.751,0.4745,-0.6294,-0.4322
0.0484,1.8286,-0.1753,2.1373,2.2854,1.9597,1.4512,0.9805,1.1224,1.1471,1.2835,1.0672,1.4276,1.7455,0.1237,2.2458,2.1557,0.9177,2.0551,2.524,2.0114,1.8501,1.2725,1.2013,0.6465,0.6319,0.8995,0.5397,-0.6598,-0.4957
0.0757,1.9138,-0.1036,2.2324,2.3794,2.028,1.5038,1.0007,1.1237,1.207,1.3324,1.1081,1.5677,1.8448,0.1823,2.3506,2.2589,0.988,2.2776,2.6465,2.1112,1.9909,1.355,1.2873,0.7038,0.6956,1.0633,0.621,-0.6969,-0.5566
0.113,1.9918,-0.0377,2.3118,2.4484,2.0724,1.5304,0.9932,1.0968,1.2392,1.3596,1.1422,1.7096,1.9459,0.249,2.4524,2.3439,1.0736,2.5094,2.7661,2.2179,2.1333,1.4494,1.3783,0.7829,0.775,1.2317,0.7111,-0.7397,-0.6119
0.1588,2.0664,0.0159,2.378,2.4957,2.0935,1.5405,0.9635,1.05,1.2482,1.3679,1.1681,1.8545,2.0508,0.3185,2.5494,2.4085,1.167,2.7275,2.8793,2.3304,2.2682,1.549,1.4695,0.8746,0.8629,1.3932,0.8002,-0.7833,-0.6569
0.209,2.1394,0.0547,2.434,2.526,2.0958,1.5439,0.9202,0.9927,1.2391,1.3598,1.1825,1.9988,2.1559,0.382,2.6361,2.4488,1.2566,2.9073,2.9794,2.4431,2.3834,1.6425,1.553,0.9654,0.9487,1.5354,0.8765,-0.8196,-0.6839
0.2575,2.2086,0.08,2.4804,2.5418,2.0858,1.5466,0.8724,0.9327,1.2153,1.336,1.1804,2.1322,2.252,0.4281,2.7041,2.4596,1.329,3.0264,3.0565,2.5452,2.4653,1.7167,1.6183,1.0406,1.0202,1.6465,0.9278,-0.839,-0.6843
0.2967,2.2675,0.0952,2.5149,2.5421,2.0693,1.5485,0.8272,0.8742,1.1769,1.295,1.1558,2.2387,2.325,0.4454,2.7438,2.4363,1.3724,3.0687,3.0999,2.6232,2.5016,1.7589,1.6545,1.0875,1.066,1.7165,0.943,-0.8339,-0.6511
0.3192,2.3069,0.1032,2.532,2.5224,2.049,1.543,0.7874,0.8165,1.1207,1.2338,1.1031,2.3004,2.3598,0.4271,2.7479,2.3777,1.3805,3.0293,3.1007,2.6634,2.4852,1.7612,1.6529,1.0989,1.0779,1.7393,0.9146,-0.8015,-0.5827
0.32,2.3173,0.1051,2.5252,2.477,2.0242,1.5192,0.7515,0.7556,1.0418,1.1497,1.0195,2.3016,2.3448,0.3735,2.7145,2.2888,1.3549,2.9171,3.0561,2.6563,2.4169,1.7227,1.6096,1.075,1.0535,1.7138,0.8403,-0.7461,-0.4856
0.2976,2.2922,0.0987,2.4893,2.401,1.9909,1.4653,0.7138,0.6849,0.9358,1.042,0.9057,2.2336,2.2757,0.2926,2.6484,2.1804,1.3052,2.7541,2.9704,2.5994,2.3056,1.6503,1.5272,1.023,0.9967,1.6453,0.7245,-0.6785,-0.3739
0.2531,2.2306,0.0791,2.4225,2.2938,1.9438,1.3724,0.6662,0.5985,0.8011,0.9126,0.7671,2.0968,2.1569,0.1986,2.5611,2.0684,1.2463,2.5725,2.8556,2.4982,2.1677,1.5572,1.4145,0.9552,0.917,1.5438,0.5776,-0.6137,-0.267
0.1906,2.1381,0.0406,2.3278,2.1605,1.8785,1.2379,0.601,0.4924,0.64,0.7671,0.6124,1.9019,2.0014,0.107,2.4677,1.9695,1.1943,2.4076,2.729,2.3661,2.0235,1.46,1.2842,0.885,0.826,1.4229,0.4149,-0.5669,-0.1843
0.1151,2.0271,-0.021,2.2141,2.0122,1.794,1.0672,0.5133,0.3673,0.4607,0.6142,0.4534,1.6682,1.8286,0.0308,2.3843,1.8989,1.1621,2.2915,2.6097,2.2216,1.8929,1.3744,1.1508,0.8238,0.7355,1.2972,0.2533,-0.5497,-0.1404
0.0325,1.9148,-0.1055,2.0948,1.8653,1.6945,0.8742,0.4035,0.229,0.2762,0.4655,0.3027,1.4204,1.6609,-0.0231,2.324,1.8667,1.1561,2.2461,2.5151,2.0847,1.7922,1.3125,1.028,0.7784,0.6541,1.1798,0.1091,-0.5674,-0.1419
-0.051,1.8202,-0.2068,1.986,1.7383,1.5892,0.6792,0.2782,0.0886,0.1041,0.3347,0.1737,1.1845,1.5195,-0.0542,2.2946,1.8769,1.1762,2.2796,2.4572,1.9738,1.7312,1.2803,0.9264,0.7503,0.5868,1.0815,-0.0044,-0.6176,-0.1861
-0.1293,1.7594,-0.3139,1.9032,1.6485,1.4907,0.5056,0.1505,-0.039,-0.0366,0.2359,0.0785,0.9836,1.421,-0.0671,2.297,1.9277,1.216,2.3852,2.4404,1.9013,1.7119,1.2776,0.8527,0.7367,0.5353,1.0086,-0.078,-0.6919,-0.2626
-0.1965,1.7419,-0.4132,1.8574,1.6082,1.4119,0.3757,0.0368,-0.1375,-0.1284,0.1822,0.0271,0.8348,1.3742,-0.069,2.3255,2.0121,1.266,2.5429,2.4605,1.8715,1.7287,1.2983,0.809,0.7322,0.4985,0.9635,-0.1072,-0.7773,-0.3557
-0.2477,1.7672,-0.4922,1.8522,1.6215,1.3626,0.3062,-0.0457,-0.1926,-0.1591,0.1827,0.0256,0.7465,1.3786,-0.0667,2.3696,2.1198,1.3157,2.7235,2.5058,1.8802,1.7695,1.3327,0.7934,0.7307,0.4743,0.944,-0.0924,-0.86,-0.4482
-0.2803,1.8249,-0.543,1.8825,1.6834,1.3466,0.3042,-0.0833,-0.195,-0.1248,0.2404,0.0746,0.7187,1.4254,-0.0649,2.4161,2.2392,1.3564,2.8948,2.5598,1.9154,1.8187,1.3694,0.8003,0.728,0.4608,0.9449,-0.0381,-0.9278,-0.5246
-0.2945,1.897,-0.5643,1.936,1.7805,1.3606,0.3663,-0.069,-0.1433,-0.0311,0.3512,0.1683,0.7443,1.4988,-0.065,2.4529,2.3587,1.3829,3.0274,2.605,1.9611,1.8606,1.3982,0.8226,0.7221,0.4566,0.9592,0.0476,-0.9722,-0.5732
-0.2935,1.9622,-0.5611,1.9958,1.8938,1.395,0.4787,-0.0044,-0.0445,0.1071,0.5028,0.2951,0.8115,1.5804,-0.0666,2.4716,2.4686,1.3933,3.1016,2.6274,2.0013,1.8823,1.4119,0.8523,0.7137,0.4615,0.9798,0.1546,-0.99,-0.5877
-0.2825,2.0016,-0.5422,2.0456,2.0028,1.4367,0.6204,0.1007,0.087,0.2682,0.6773,0.4389,0.9063,1.6527,-0.0682,2.4689,2.562,1.3893,3.1097,2.6193,2.0237,1.8771,1.4083,0.8829,0.7057,0.4753,1.001,0.2712,-0.9829,-0.5676
-0.2679,2.0036,-0.5178,2.0732,2.089,1.4725,0.7679,0.23,0.2317,0.4284,0.8534,0.582,1.0148,1.7027,-0.0691,2.4475,2.6352,1.3738,3.0569,2.581,2.0226,1.8453,1.3894,0.9095,0.7013,0.4974,1.0184,0.386,-0.9569,-0.5172
-0.2551,1.9663,-0.4959,2.0739,2.1399,1.4921,0.8997,0.3644,0.3694,0.5659,1.0105,0.7076,1.125,1.7243,-0.0703,2.4141,2.6874,1.3503,2.9583,2.5198,1.9998,1.7932,1.3609,0.9289,0.7024,0.5249,1.0293,0.4879,-0.9204,-0.4456
-0.247,1.8981,-0.4806,2.0508,2.1508,1.4916,1.0004,0.4867,0.483,0.6652,1.1322,0.8031,1.2266,1.7185,-0.0742,2.378,2.7202,1.3212,2.834,2.4484,1.9631,1.7315,1.3296,0.9398,0.7081,0.553,1.0316,0.5676,-0.8822,-0.3648
-0.2435,1.8146,-0.4713,2.0139,2.1254,1.4737,1.0633,0.5848,0.562,0.7195,1.2091,0.8614,1.3121,1.6922,-0.0837,2.3481,2.7372,1.288,2.7046,2.3812,1.9241,1.6718,1.301,0.9414,0.7148,0.5747,1.0232,0.6177,-0.8494,-0.288
-0.2416,1.7349,-0.4642,1.9766,2.0755,1.4475,1.0909,0.6542,0.6043,0.7309,1.2398,0.8817,1.3761,1.656,-0.1013,2.3314,2.7432,1.2521,2.587,2.3315,1.8953,1.6241,1.2784,0.9333,0.7167,0.5822,1.0021,0.6338,-0.8264,-0.2278
-0.2363,1.677,-0.4539,1.9527,2.0179,1.4263,1.0925,0.6984,0.6155,0.7088,1.2307,0.869,1.4156,1.6212,-0.1272,2.3319,2.7435,1.2156,2.4927,2.3086,1.8868,1.595,1.2617,0.9157,0.7077,0.5695,0.9666,0.6153,-0.8144,-0.1934
-0.2228,1.6535,-0.4356,1.9522,1.9712,1.4238,1.0813,0.7267,0.6068,0.6666,1.1931,0.8317,1.43,1.5973,-0.1596,2.3499,2.7439,1.1821,2.4262,2.3169,1.9045,1.5865,1.2483,0.8893,0.6832,0.5336,0.9156,0.5655,-0.8121,-0.1895
-0.1982,1.6692,-0.4069,1.979,1.9511,1.4507,1.0703,0.7507,0.591,0.6176,1.1411,0.7801,1.4209,1.5903,-0.1942,2.3831,2.7491,1.1562,2.386,2.3547,1.9488,1.5964,1.2343,0.8556,0.6416,0.4759,0.8493,0.4913,-0.8169,-0.2152
-0.1627,1.7205,-0.3691,2.0301,1.9666,1.5112,1.0686,0.7807,0.579,0.5723,1.087,0.7235,1.3922,1.6014,-0.2264,2.4265,2.7616,1.1414,2.3652,2.4154,2.0146,1.6194,1.2159,0.8171,0.5846,0.4021,0.7691,0.4022,-0.8253,-0.2645
-0.1204,1.7961,-0.3267,2.096,2.0173,1.6013,1.079,0.8224,0.5769,0.5356,1.0395,0.6688,1.3497,1.627,-0.2517,2.473,2.7808,1.1384,2.3533,2.4889,2.0926,1.648,1.19,0.7764,0.5162,0.3204,0.6782,0.3081,-0.8344,-0.3278
-0.0783,1.88,-0.2867,2.1634,2.0937,1.7097,1.0981,0.8757,0.5851,0.5073,1.0018,0.6192,1.2997,1.6598,-0.2677,2.515,2.802,1.1432,2.3381,2.5629,2.1707,1.6741,1.1552,0.7362,0.442,0.2402,0.58,0.2182,-0.8414,-0.3942
-0.0445,1.9549,-0.2561,2.2178,2.1796,1.82,1.1177,0.9347,0.5987,0.4827,0.9717,0.5748,1.2483,1.69,-0.2744,2.5445,2.8178,1.1478,2.3083,2.6259,2.2369,1.691,1.1114,0.6983,0.3677,0.1695,0.4786,0.1392,-0.8445,-0.4536
-0.0252,2.0059,-0.24,2.2482,2.2563,1.9155,1.1285,0.9903,0.6097,0.4559,0.9436,0.5333,1.2006,1.7086,-0.2731,2.5553,2.8191,1.1428,2.2557,2.6688,2.2818,1.6942,1.06,0.6638,0.2987,0.1143,0.3785,0.0755,-0.8423,-0.4988
-0.0228,2.0243,-0.2393,2.2492,2.3086,1.9832,1.1234,1.0334,0.6108,0.4221,0.9115,0.4926,1.1607,1.71,-0.2654,2.5442,2.7991,1.121,2.1786,2.6875,2.3012,1.6836,1.0049,0.6338,0.24,0.0786,0.285,0.0294,-0.8345,-0.5271
-0.0337,2.0094,-0.2499,2.2234,2.3287,2.0182,1.1008,1.0583,0.5975,0.3806,0.8719,0.4525,1.1317,1.694,-0.2511,2.5124,2.7554,1.0822,2.083,2.6834,2.2974,1.6636,0.9523,0.6103,0.1971,0.0646,0.2046,0.0027,-0.8218,-0.5403
-0.0491,1.9685,-0.2629,2.1798,2.3184,2.0247,1.0657,1.0643,0.5709,0.3355,0.826,0.4158,1.117,1.6669,-0.2278,2.4661,2.6925,1.0344,1.983,2.6638,2.279,1.6427,0.9109,0.5966,0.1757,0.0739,0.145,-0.0027,-0.8063,-0.5447
-0.057,1.9144,-0.2667,2.132,2.288,2.0145,1.028,1.0568,0.5376,0.2951,0.7801,0.3885,1.1194,1.6402,-0.1911,2.4152,2.6213,0.9929,1.898,2.6396,2.2587,1.632,0.8905,0.597,0.1811,0.1076,0.1136,0.0154,-0.7913,-0.5483
-0.0462,1.8613,-0.2507,2.0931,2.253,2.0038,0.9999,1.0451,0.5077,0.269,0.7436,0.3774,1.1405,1.6267,-0.1367,2.371,2.5564,0.9766,1.8484,2.6221,2.2492,1.6419,0.8995,0.6154,0.2167,0.1651,0.1156,0.0586,-0.7804,-0.5588
-0.01,1.82,-0.2085,2.0719,2.2282,2.0072,0.9914,1.0398,0.4924,0.2651,0.7263,0.3877,1.1793,1.6363,-0.0627,2.3424,2.5121,1.0014,1.8495,2.6194,2.2593,1.6786,0.9421,0.653,0.282,0.2428,0.1517,0.1261,-0.7763,-0.5811
0.0516,1.7955,-0.1409,2.0706,2.2238,2.0341,1.0069,1.0495,0.4996,0.2866,0.7343,0.4202,1.2304,1.6727,0.0282,2.3334,2.4974,1.0751,1.907,2.634,2.291,1.7419,1.0162,0.7067,0.3711,0.3329,0.2162,0.2129,-0.7797,-0.6162
0.132,1.7854,-0.0557,2.0844,2.2421,2.0858,1.0438,1.0782,0.5321,0.3301,0.7683,0.4702,1.2844,1.7309,0.1288,2.3418,2.5131,1.1941,2.0146,2.6613,2.3389,1.8246,1.1125,0.7684,0.4729,0.4236,0.2972,0.3098,-0.789,-0.6616
0.2203,1.7823,0.0341,2.1039,2.2783,2.1564,1.0933,1.1245,0.5858,0.3868,0.8227,0.528,1.3291,1.7992,0.2292,2.3598,2.5509,1.3428,2.1546,2.6922,2.3918,1.9137,1.2165,0.8262,0.5733,0.5009,0.3788,0.4041,-0.8001,-0.713
0.3059,1.777,0.1144,2.1192,2.3229,2.235,1.1431,1.1823,0.6511,0.4447,0.8876,0.5813,1.3523,1.862,0.3193,2.377,2.5948,1.4965,2.3026,2.7151,2.4368,1.994,1.3115,0.8671,0.6576,0.5516,0.4435,0.4819,-0.8074,-0.7661
0.3815,1.7625,0.1736,2.1234,2.3653,2.31,1.1809,1.2429,0.715,0.4918,0.9514,0.6181,1.3449,1.9041,0.3916,2.3832,2.625,1.6268,2.4329,2.7201,2.4628,2.0517,1.3821,0.8805,0.7146,0.566,0.4769,0.5312,-0.8049,-0.8185
0.4456,1.7357,0.2055,2.1145,2.3973,2.3723,1.1977,1.2974,0.7647,0.5193,1.0037,0.6299,1.303,1.9149,0.4435,2.3714,2.6226,1.7069,2.5244,2.7009,2.4639,2.0772,1.4175,0.86,0.7379,0.5402,0.4694,0.5442,-0.7877,-0.8704
0.5023,1.6982,0.2108,2.0954,2.4154,2.4173,1.1897,1.3389,0.7904,0.5231,1.0377,0.6127,1.2284,1.8897,0.4773,2.3388,2.5736,1.7178,2.5647,2.6563,2.4397,2.0669,1.4132,0.8048,0.7272,0.4763,0.4187,0.5187,-0.7529,-0.9244
0.5588,1.6547,0.1948,2.0719,2.42,2.4453,1.1577,1.3637,0.7874,0.5039,1.0512,0.5677,1.1271,1.8308,0.4988,2.2874,2.4722,1.6518,2.5521,2.5898,2.395,2.0233,1.3714,0.719,0.6873,0.3811,0.3287,0.4582,-0.6999,-0.9843
0.622,1.61,0.1657,2.0495,2.4145,2.4599,1.1064,1.372,0.7567,0.466,1.0459,0.5,1.0078,1.745,0.515,2.2214,2.3213,1.5142,2.494,2.5072,2.3368,1.9532,1.2994,0.6101,0.6259,0.264,0.2081,0.37,-0.631,-1.0536
0.6952,1.5673,0.1308,2.0314,2.4026,2.4657,1.0422,1.3669,0.7041,0.4155,1.0267,0.4168,0.8788,1.6413,0.5316,2.1465,2.1322,1.3221,2.404,2.4152,2.2718,1.866,1.2075,0.4871,0.5522,0.1348,0.0681,0.264,-0.5504,-1.1327
0.7763,1.5264,0.0952,2.0171,2.3871,2.4671,0.9716,1.3538,0.6388,0.359,0.9996,0.3264,0.7471,1.5294,0.5511,2.0671,1.9214,1.1006,2.2981,2.3194,2.2049,1.7714,1.1069,0.3585,0.4745,0.0021,-0.0799,0.1508,-0.4638,-1.2186
