FP1,F3,F7,FC3,C3,C5,P3,P7,PO7,PO3,O1,Oz,Pz,CPz,FP2,Fz,F4,F8,FC4,FCz,Cz,C4,C6,P4,P8,PO8,PO4,O2,HEOG_left,HEOG_right
-0.9962,-0.7089,-1.1076,-0.8224,-0.2318,-0.5417,0.5726,0.3176,0.5018,1.1406,0.8878,0.8447,1.1072,0.7986,-1.0022,-0.5852,-0.3933,-0.1717,-0.1799,-0.3698,0.0583,0.3564,0.0338,0.9767,0.5756,0.7156,0.9183,0.8981,-0.4666,-0.9258
-0.9217,-0.6923,-1.0285,-0.8056,-0.2557,-0.4903,0.4628,0.2655,0.4709,0.9751,0.7838,0.6972,0.9576,0.623,-0.9236,-0.5682,-0.3895,-0.2844,-0.1758,-0.41,-0.0226,0.2307,-0.0221,0.78,0.4414,0.5428,0.7668,0.7177,-0.4617,-0.815
-0.8366,-0.6674,-0.9481,-0.784,-0.2764,-0.4447,0.355,0.2081,0.4276,0.8126,0.6777,0.5564,0.8124,0.456,-0.8314,-0.5409,-0.3754,-0.3724,-0.1626,-0.4392,-0.0957,0.121,-0.0653,0.5992,0.3246,0.3909,0.625,0.5519,-0.4429,-0.7072
-0.7361,-0.6296,-0.8656,-0.7547,-0.2914,-0.4099,0.2517,0.1433,0.3644,0.6572,0.5697,0.4306,0.6755,0.3043,-0.718,-0.4976,-0.3435,-0.4161,-0.1335,-0.4501,-0.1561,0.0407,-0.0854,0.4476,0.2395,0.2772,0.502,0.4139,-0.4015,-0.6051
-0.6208,-0.5787,-0.7821,-0.7177,-0.3009,-0.389,0.1549,0.0712,0.2775,0.5128,0.4607,0.325,0.5489,0.1719,-0.5821,-0.4371,-0.2921,-0.4051,-0.088,-0.4407,-0.2021,-0.0043,-0.0775,0.3327,0.1934,0.2108,0.4026,0.3109,-0.3334,-0.5105
-0.4966,-0.5186,-0.7001,-0.676,-0.3071,-0.383,0.0655,-0.0051,0.1681,0.3821,0.3518,0.2412,0.4321,0.0596,-0.4306,-0.3638,-0.2259,-0.3398,-0.0313,-0.4141,-0.2358,-0.0163,-0.0435,0.2546,0.1859,0.1903,0.3272,0.2423,-0.2405,-0.4252
-0.3742,-0.4573,-0.6233,-0.6345,-0.3134,-0.3901,-0.0161,-0.0805,0.0419,0.2665,0.2453,0.1772,0.3235,-0.0341,-0.2767,-0.286,-0.154,-0.2305,0.0268,-0.3778,-0.2621,-0.0038,0.0093,0.2076,0.2093,0.2056,0.272,0.2013,-0.1302,-0.35
-0.2662,-0.4036,-0.5551,-0.5981,-0.3226,-0.4064,-0.0899,-0.1482,-0.0912,0.1667,0.1441,0.1286,0.2216,-0.1119,-0.1371,-0.214,-0.0876,-0.0954,0.0758,-0.3413,-0.2861,0.0213,0.0701,0.1823,0.252,0.2409,0.231,0.1772,-0.0149,-0.2856
-0.1838,-0.3651,-0.4971,-0.57,-0.3356,-0.426,-0.1552,-0.201,-0.2192,0.0825,0.0522,0.0896,0.1264,-0.1759,-0.0275,-0.157,-0.0356,0.0442,0.1082,-0.3125,-0.3114,0.0486,0.1289,0.1694,0.3008,0.2791,0.1981,0.1581,0.0912,-0.2317
-0.1341,-0.3452,-0.4483,-0.5499,-0.35,-0.442,-0.2107,-0.2334,-0.3298,0.0136,-0.0265,0.0551,0.0405,-0.2258,0.042,-0.1201,-0.0018,0.1684,0.1227,-0.2956,-0.3376,0.0726,0.1795,0.1618,0.3445,0.3057,0.1684,0.1344,0.1746,-0.1872
-0.117,-0.3417,-0.4044,-0.5339,-0.3609,-0.4474,-0.2539,-0.242,-0.4128,-0.0408,-0.0888,0.0211,-0.031,-0.2591,0.0698,-0.1027,0.0164,0.2628,0.1248,-0.2894,-0.3598,0.0935,0.2208,0.1565,0.375,0.3109,0.1398,0.1001,0.2262,-0.1492
-0.1252,-0.3467,-0.359,-0.5145,-0.361,-0.4355,-0.282,-0.2267,-0.462,-0.0817,-0.1332,-0.0151,-0.0819,-0.2708,0.0639,-0.0983,0.0275,0.3218,0.125,-0.2869,-0.3692,0.1161,0.256,0.154,0.3883,0.291,0.112,0.0535,0.2435,-0.1135
-0.145,-0.3486,-0.3041,-0.4828,-0.343,-0.4013,-0.2923,-0.1905,-0.4764,-0.111,-0.1606,-0.055,-0.1067,-0.2558,0.0403,-0.0958,0.0426,0.3483,0.1352,-0.2776,-0.3557,0.1469,0.2902,0.1562,0.3834,0.247,0.086,-0.0039,0.2321,-0.0746
-0.1592,-0.3352,-0.2331,-0.4305,-0.3008,-0.3421,-0.2837,-0.1389,-0.4606,-0.1311,-0.175,-0.0993,-0.1028,-0.2103,0.0193,-0.0826,0.0727,0.3523,0.1652,-0.25,-0.3107,0.191,0.3274,0.1653,0.362,0.1837,0.063,-0.0682,0.2044,-0.0266
-0.151,-0.2962,-0.1416,-0.3525,-0.2323,-0.258,-0.257,-0.0797,-0.4233,-0.145,-0.1819,-0.1478,-0.0714,-0.1341,0.0202,-0.0477,0.1253,0.347,0.2191,-0.1948,-0.2298,0.249,0.369,0.1814,0.3275,0.1076,0.0434,-0.135,0.1766,0.0356
-0.1082,-0.2271,-0.0294,-0.2485,-0.1396,-0.1526,-0.2157,-0.0208,-0.3752,-0.1558,-0.1881,-0.1994,-0.0185,-0.0323,0.0572,0.0148,0.2019,0.345,0.294,-0.1078,-0.1152,0.3169,0.4124,0.2024,0.2835,0.0254,0.0263,-0.1998,0.1653,0.1149
-0.0274,-0.1308,0.0991,-0.1247,-0.0301,-0.0333,-0.1654,0.0301,-0.3272,-0.1663,-0.1992,-0.2519,0.046,0.085,0.1348,0.1036,0.2973,0.3547,0.3802,0.0077,0.0235,0.3858,0.4517,0.2233,0.2336,-0.0571,0.0096,-0.2591,0.1818,0.2108
0.0846,-0.0184,0.2341,0.0067,0.0846,0.0895,-0.1134,0.067,-0.288,-0.1786,-0.2192,-0.3017,0.1094,0.2031,0.2457,0.209,0.3997,0.3777,0.4625,0.1405,0.1703,0.4438,0.4783,0.2371,0.1805,-0.1353,-0.0097,-0.3099,0.2293,0.3179
0.2102,0.0924,0.3619,0.1288,0.1893,0.2024,-0.0676,0.0861,-0.2633,-0.1947,-0.2493,-0.345,0.158,0.3043,0.3713,0.3141,0.4918,0.4075,0.5225,0.2724,0.3046,0.4777,0.4825,0.236,0.1251,-0.2066,-0.0352,-0.3502,0.3003,0.4256
0.3241,0.1798,0.4655,0.2223,0.2683,0.2911,-0.0361,0.0858,-0.2553,-0.2164,-0.2885,-0.3784,0.1787,0.3707,0.485,0.3968,0.5536,0.4306,0.5425,0.3806,0.4039,0.4758,0.4555,0.2126,0.0669,-0.2696,-0.0706,-0.3789,0.3778,0.5188
0.3987,0.2223,0.5276,0.2691,0.3068,0.3417,-0.0254,0.0664,-0.2635,-0.2455,-0.334,-0.4001,0.1612,0.3869,0.5568,0.4344,0.5654,0.4292,0.5078,0.442,0.4484,0.4296,0.3911,0.1613,0.004,-0.3242,-0.1186,-0.3961,0.4384,0.5799
0.4097,0.2036,0.5332,0.256,0.2943,0.3439,-0.0406,0.0294,-0.2855,-0.2843,-0.3823,-0.4105,0.0993,0.3426,0.5599,0.4077,0.5116,0.3854,0.4103,0.437,0.4239,0.336,0.2875,0.0796,-0.0654,-0.3704,-0.1809,-0.4033,0.4576,0.5912
0.3417,0.1162,0.4727,0.1775,0.2264,0.2924,-0.0837,-0.023,-0.3182,-0.3347,-0.4298,-0.4125,-0.008,0.2347,0.477,0.306,0.3841,0.286,0.2502,0.3547,0.3247,0.1979,0.1486,-0.0307,-0.1418,-0.4079,-0.2567,-0.4028,0.415,0.5393
0.1925,-0.0363,0.3443,0.038,0.1062,0.1889,-0.1538,-0.0882,-0.358,-0.3976,-0.4736,-0.4105,-0.156,0.0683,0.3044,0.1293,0.1852,0.1274,0.0366,0.1948,0.1556,0.0243,-0.0165,-0.1633,-0.2233,-0.4359,-0.343,-0.3976,0.3001,0.4178
-0.0261,-0.2396,0.1552,-0.1485,-0.0558,0.0425,-0.2461,-0.1629,-0.4007,-0.4716,-0.5113,-0.409,-0.3342,-0.1436,0.0546,-0.11,-0.0717,-0.0825,-0.2131,-0.0307,-0.0688,-0.1704,-0.1937,-0.3078,-0.3049,-0.4524,-0.4337,-0.3904,0.115,0.2301
-0.2895,-0.4709,-0.0784,-0.3604,-0.2423,-0.1316,-0.3519,-0.2426,-0.4416,-0.552,-0.5407,-0.4111,-0.5275,-0.3814,-0.2454,-0.3888,-0.3632,-0.324,-0.4751,-0.299,-0.3257,-0.3687,-0.3658,-0.451,-0.3787,-0.4548,-0.5206,-0.3834,-0.1246,-0.0093
-0.5652,-0.7031,-0.3336,-0.5722,-0.4324,-0.3141,-0.4594,-0.3215,-0.475,-0.6309,-0.5591,-0.4174,-0.7173,-0.6212,-0.5582,-0.6775,-0.6594,-0.5693,-0.7235,-0.5804,-0.5875,-0.5518,-0.5146,-0.5783,-0.4356,-0.4404,-0.5939,-0.3765,-0.3923,-0.2769
-0.8189,-0.91,-0.5845,-0.7594,-0.6048,-0.485,-0.5555,-0.3929,-0.4943,-0.6976,-0.5634,-0.4246,-0.8841,-0.8379,-0.844,-0.9448,-0.9292,-0.7872,-0.9337,-0.8435,-0.8264,-0.7029,-0.624,-0.6757,-0.4671,-0.407,-0.643,-0.3676,-0.6554,-0.5439
-1.0207,-1.0709,-0.8065,-0.9023,-0.7416,-0.6272,-0.6268,-0.4498,-0.4934,-0.7404,-0.55,-0.4258,-1.0092,-1.0087,-1.0674,-1.1631,-1.1455,-0.9497,-1.0866,-1.06,-1.0177,-0.8092,-0.6828,-0.732,-0.4669,-0.3534,-0.6584,-0.3516,-0.8819,-0.7821
-1.1504,-1.1731,-0.9805,-0.9897,-0.8309,-0.7289,-0.663,-0.4861,-0.4673,-0.7489,-0.5153,-0.4116,-1.0781,-1.1154,-1.2049,-1.3134,-1.2896,-1.0374,-1.1714,-1.2097,-1.1435,-0.8636,-0.6872,-0.7397,-0.4324,-0.2794,-0.6325,-0.3216,-1.0461,-0.9692
-1.1999,-1.213,-1.0948,-1.0189,-0.8685,-0.7852,-0.6577,-0.4975,-0.4135,-0.7157,-0.4564,-0.3728,-1.0815,-1.1468,-1.2485,-1.3866,-1.3532,-1.0429,-1.1864,-1.2817,-1.1939,-0.8655,-0.6409,-0.6967,-0.3658,-0.1873,-0.5617,-0.2708,-1.1331,-1.0921
-1.1733,-1.194,-1.1458,-0.9947,-0.8564,-0.7971,-0.6095,-0.4818,-0.3323,-0.6381,-0.3722,-0.3026,-1.0171,-1.0993,-1.2051,-1.3833,-1.3384,-0.972,-1.1376,-1.2752,-1.1672,-0.8194,-0.5544,-0.6061,-0.274,-0.0815,-0.4471,-0.1944,-1.1408,-1.1485
-1.0837,-1.1232,-1.1365,-0.9255,-0.8006,-0.769,-0.5216,-0.4395,-0.2268,-0.5183,-0.2641,-0.1999,-0.8891,-0.9766,-1.0934,-1.3112,-1.2551,-0.8412,-1.0365,-1.1964,-1.068,-0.7336,-0.4429,-0.476,-0.1676,0.0309,-0.2949,-0.0922,-1.0791,-1.1447
-0.9488,-1.0081,-1.0732,-0.8194,-0.7078,-0.7061,-0.3999,-0.3728,-0.1022,-0.3634,-0.136,-0.0696,-0.7069,-0.7886,-0.9374,-1.1812,-1.1169,-0.6739,-0.8963,-1.0555,-0.9053,-0.6174,-0.3225,-0.3176,-0.0596,0.1408,-0.1161,0.0307,-0.9667,-1.092
-0.7863,-0.8539,-0.9633,-0.6817,-0.5827,-0.6119,-0.2519,-0.2852,0.0351,-0.1838,0.0057,0.0774,-0.4834,-0.5495,-0.7607,-1.0043,-0.9378,-0.4952,-0.7294,-0.8637,-0.6905,-0.4798,-0.2077,-0.1446,0.0369,0.2385,0.0747,0.1641,-0.8259,-1.0025
-0.6095,-0.6631,-0.8127,-0.5133,-0.4275,-0.4871,-0.0847,-0.1806,0.1781,0.0081,0.153,0.2269,-0.234,-0.2766,-0.5807,-0.7892,-0.7299,-0.3263,-0.5454,-0.6315,-0.4361,-0.3287,-0.1092,0.0293,0.1111,0.3153,0.2614,0.2953,-0.6775,-0.8857
-0.4259,-0.4364,-0.6253,-0.3123,-0.2429,-0.3304,0.0945,-0.0638,0.32,0.1991,0.2968,0.3638,0.0251,0.0107,-0.4065,-0.543,-0.5027,-0.1816,-0.3513,-0.3687,-0.1559,-0.171,-0.0324,0.1904,0.156,0.3654,0.4282,0.411,-0.5368,-0.7466
-0.2373,-0.1753,-0.4038,-0.0774,-0.0307,-0.1416,0.2781,0.0601,0.4535,0.3757,0.4274,0.4749,0.2763,0.292,-0.2388,-0.272,-0.264,-0.0663,-0.1526,-0.0857,0.1351,-0.0138,0.0217,0.3264,0.1692,0.3861,0.5605,0.4998,-0.4107,-0.586
-0.0415,0.1156,-0.1513,0.1894,0.2029,0.0761,0.4563,0.1846,0.5709,0.5246,0.5349,0.55,0.5009,0.546,-0.0722,0.0161,-0.0211,0.022,0.0449,0.2058,0.4199,0.1346,0.0558,0.426,0.1523,0.3781,0.646,0.5534,-0.2978,-0.4024
0.1647,0.4266,0.1266,0.4799,0.4458,0.3138,0.6168,0.3016,0.664,0.6333,0.6094,0.5828,0.6795,0.7522,0.1003,0.3103,0.2182,0.0917,0.234,0.4917,0.6799,0.2645,0.0743,0.4797,0.1104,0.3439,0.6757,0.5666,-0.1899,-0.1941
0.3824,0.7431,0.4211,0.7793,0.6802,0.5566,0.7448,0.4023,0.725,0.691,0.6424,0.5709,0.7939,0.8926,0.284,0.597,0.4442,0.1537,0.4057,0.7558,0.8965,0.3656,0.0816,0.4807,0.0501,0.2871,0.6443,0.5376,-0.0759,0.0378
0.6091,1.0468,0.7195,1.0684,0.8853,0.7853,0.8253,0.4779,0.7474,0.6908,0.6279,0.5157,0.83,0.9542,0.4787,0.8609,0.647,0.2178,0.5494,0.9828,1.0534,0.4286,0.0806,0.4257,-0.0211,0.2116,0.5513,0.4675,0.0548,0.2883
0.8385,1.3186,1.0069,1.3269,1.0412,0.9803,0.8463,0.5215,0.7285,0.6309,0.5645,0.4227,0.781,0.9324,0.679,1.0877,0.817,0.2905,0.6557,1.1598,1.1402,0.4475,0.0728,0.3172,-0.0961,0.1215,0.4025,0.3612,0.209,0.5484
1.0616,1.5425,1.2681,1.5375,1.1341,1.1249,0.8022,0.5301,0.67,0.5165,0.4569,0.3013,0.6504,0.8322,0.8749,1.267,0.9472,0.3735,0.7183,1.2802,1.1545,0.4215,0.0586,0.1641,-0.1682,0.0219,0.2102,0.2273,0.3877,0.8056
1.2685,1.7084,1.4896,1.6897,1.1597,1.2097,0.6971,0.505,0.5794,0.3606,0.3164,0.165,0.4538,0.6696,1.0545,1.3942,1.0353,0.4646,0.7368,1.3444,1.1041,0.357,0.0391,-0.0179,-0.2314,-0.0809,-0.0067,0.0783,0.5849,1.0462
1.4505,1.8139,1.6614,1.7814,1.1248,1.2337,0.5451,0.4525,0.469,0.183,0.1603,0.0297,0.218,0.4701,1.2069,1.4716,1.0842,0.5587,0.7175,1.3607,1.006,0.267,0.0167,-0.2069,-0.2806,-0.1789,-0.2244,-0.0708,0.7886,1.2562
1.6015,1.8646,1.7777,1.8192,1.0463,1.2045,0.3689,0.3823,0.354,0.0079,0.0093,-0.0879,-0.0222,0.2649,1.3249,1.5076,1.1021,0.6497,0.6734,1.3433,0.8846,0.1698,-0.0037,-0.3787,-0.3114,-0.2636,-0.4176,-0.2038,0.9814,1.4231
1.7187,1.872,1.8375,1.8161,0.9477,1.1361,0.1963,0.306,0.2502,-0.1399,-0.1159,-0.173,-0.2299,0.0864,1.4059,1.5145,1.1009,0.7322,0.6216,1.3098,0.7669,0.0858,-0.0152,-0.5096,-0.3208,-0.3267,-0.5631,-0.3063,1.1441,1.5375
1.8029,1.8517,1.8448,1.789,0.8541,1.0458,0.0548,0.2348,0.1706,-0.2389,-0.1977,-0.2146,-0.3722,-0.038,1.4527,1.5061,1.0939,0.8023,0.5805,1.2776,0.6782,0.0335,-0.0107,-0.5812,-0.3078,-0.3616,-0.6438,-0.3677,1.2591,1.5943
1.8575,1.82,1.8079,1.7548,0.7873,0.9511,-0.0331,0.1782,0.1239,-0.2741,-0.2249,-0.207,-0.4256,-0.0896,1.4716,1.4953,1.0933,0.8582,0.5659,1.2612,0.6374,0.0263,0.0161,-0.5834,-0.2732,-0.3643,-0.651,-0.3823,1.314,1.594
1.8874,1.7908,1.7377,1.7273,0.7615,0.8665,-0.0543,0.1423,0.1135,-0.2397,-0.1938,-0.1501,-0.3805,-0.0622,1.471,1.4915,1.108,0.8994,0.5874,1.2701,0.6538,0.0696,0.068,-0.5158,-0.2201,-0.3337,-0.5858,-0.3496,1.304,1.5421
1.8974,1.7729,1.6462,1.7148,0.7812,0.8014,-0.0064,0.13,0.1377,-0.1393,-0.109,-0.0496,-0.2416,0.0379,1.4581,1.4993,1.1408,0.9263,0.6462,1.3069,0.7258,0.1596,0.1429,-0.3879,-0.1533,-0.2721,-0.4584,-0.2742,1.2324,1.4484
1.8901,1.7684,1.5436,1.7192,0.841,0.7597,0.1016,0.1413,0.1905,0.0141,0.0175,0.0842,-0.027,0.1934,1.4371,1.5179,1.1883,0.9386,0.7341,1.3681,0.8422,0.284,0.2327,-0.2169,-0.0793,-0.1844,-0.286,-0.1648,1.1093,1.3246
1.8652,1.7734,1.437,1.7361,0.9279,0.7401,0.252,0.1734,0.2634,0.2007,0.169,0.2367,0.2348,0.3794,1.4079,1.5418,1.241,0.9346,0.8356,1.4443,0.9844,0.424,0.3243,-0.0251,-0.0054,-0.0786,-0.0902,-0.0337,0.9479,1.1821
1.82,1.7794,1.3303,1.7575,1.0243,0.7374,0.4214,0.2219,0.3466,0.3962,0.3255,0.3906,0.51,0.5682,1.3669,1.5628,1.2862,0.9112,0.9309,1.5238,1.1307,0.5582,0.4018,0.1631,0.0608,0.0349,0.1056,0.104,0.7622,1.0306
1.7515,1.7771,1.2254,1.7745,1.1131,0.7455,0.5856,0.2814,0.4301,0.5759,0.4674,0.528,0.7645,0.7339,1.3098,1.5731,1.3119,0.8651,1.0016,1.595,1.2613,0.6669,0.4504,0.3254,0.1122,0.1442,0.2798,0.2324,0.5648,0.878
1.6598,1.7606,1.1251,1.7815,1.1818,0.7595,0.7238,0.3462,0.5051,0.7185,0.5781,0.6328,0.9696,0.8573,1.235,1.5688,1.3113,0.7947,1.0359,1.6506,1.3623,0.737,0.4604,0.4446,0.1438,0.2376,0.4154,0.3368,0.367,0.7315
1.5513,1.7308,1.0349,1.7786,1.2259,0.7782,0.822,0.4113,0.5653,0.8102,0.6469,0.6945,1.1067,0.9295,1.1478,1.553,1.2862,0.7034,1.0329,1.6901,1.4292,0.7654,0.4314,0.512,0.1535,0.3057,0.5025,0.4069,0.1794,0.5989
1.4398,1.6969,0.9648,1.7734,1.2499,0.8046,0.8756,0.4727,0.607,0.8468,0.6703,0.7098,1.1701,0.9527,1.061,1.5363,1.2482,0.6006,1.0038,1.7209,1.4676,0.7598,0.3726,0.5284,0.1429,0.3436,0.5396,0.4385,0.0132,0.49
1.3457,1.675,0.928,1.7793,1.2658,0.8446,0.8891,0.5277,0.6294,0.8338,0.6521,0.6839,1.1668,0.9393,0.9946,1.5357,1.2173,0.5025,0.9703,1.7567,1.4913,0.7368,0.3019,0.5035,0.1174,0.3519,0.5336,0.4353,-0.1193,0.4161
1.2929,1.6854,0.9385,1.813,1.2903,0.9059,0.8737,0.5746,0.634,0.7847,0.6025,0.6287,1.1145,0.9083,0.9721,1.5713,1.2178,0.43,0.9594,1.8147,1.5193,0.7182,0.2417,0.4535,0.0847,0.3363,0.4971,0.4072,-0.2059,0.3883
1.3042,1.7481,1.0071,1.8908,1.3405,0.9943,0.8449,0.6121,0.6242,0.717,0.5352,0.5601,1.0371,0.8813,1.0159,1.6615,1.2734,0.4052,0.998,1.9117,1.5711,0.7261,0.2142,0.3976,0.0532,0.3058,0.4458,0.3681,-0.2361,0.4157
1.396,1.8779,1.1385,2.0246,1.4303,1.1127,0.8182,0.6397,0.6035,0.6485,0.4642,0.4937,0.96,0.8786,1.1415,1.8201,1.4029,0.4477,1.1073,2.0609,1.6635,0.7789,0.2375,0.354,0.0305,0.2699,0.3944,0.3321,-0.2044,0.5025
1.5746,2.0813,1.3287,2.2194,1.5675,1.2593,0.8068,0.6568,0.5757,0.5936,0.4012,0.4417,0.9055,0.9157,1.354,2.0525,1.6161,0.5705,1.2986,2.2687,1.8074,0.8885,0.3227,0.3374,0.0215,0.2363,0.3546,0.3099,-0.1125,0.6465
1.8328,2.3536,1.5647,2.4716,1.7525,1.4281,0.8194,0.6636,0.5442,0.5613,0.3537,0.4099,0.8895,1.0015,1.6447,2.3534,1.9102,0.7753,1.5701,2.5331,2.006,1.058,0.4715,0.3561,0.0283,0.2086,0.3324,0.306,0.0296,0.8381
2.1495,2.6773,1.8248,2.7669,1.977,1.6087,0.8589,0.6614,0.512,0.5545,0.324,0.3975,0.9189,1.1362,1.9909,2.7053,2.268,1.0505,1.9053,2.8411,2.2524,1.2803,0.676,0.4111,0.0493,0.1864,0.3284,0.3184,0.203,1.0601
2.4908,3.0224,2.0809,3.0815,2.2243,1.788,0.9231,0.6527,0.4817,0.5707,0.3101,0.3979,0.991,1.3106,2.3569,3.078,2.6572,1.3698,2.2726,3.1682,2.5288,1.5374,0.9176,0.4957,0.0803,0.1655,0.3378,0.3391,0.3829,1.2885
2.8133,3.3494,2.302,3.3827,2.4703,1.9504,1.0045,0.6417,0.4559,0.6033,0.3065,0.4008,1.094,1.5063,2.6978,3.43,3.032,1.6939,2.6278,3.4791,2.807,1.8009,1.1689,0.5968,0.1148,0.1401,0.3525,0.3567,0.5413,1.4954
3.0703,3.6135,2.4577,3.6331,2.6862,2.08,1.0918,0.6338,0.4367,0.6435,0.3065,0.3953,1.2092,1.6973,2.9648,3.7131,3.3391,1.9756,2.9197,3.7315,3.0505,2.0352,1.3964,0.6965,0.1453,0.104,0.3622,0.3595,0.6513,1.652
3.2169,3.7711,2.5222,3.7945,2.8414,2.1614,1.1715,0.6346,0.4258,0.6814,0.3037,0.3726,1.3142,1.8539,3.112,3.8783,3.525,2.1663,3.0974,3.8809,3.2194,2.2023,1.5651,0.7753,0.1645,0.053,0.3576,0.3384,0.6907,1.7326
3.2175,3.7866,2.4781,3.8339,2.9077,2.1813,1.2299,0.6489,0.4244,0.7078,0.293,0.3283,1.3864,1.9468,3.1036,3.8839,3.5453,2.2247,3.1196,3.8887,3.2767,2.2686,1.6449,0.8154,0.1664,-0.0143,0.3316,0.2887,0.6456,1.7186
3.0509,3.6381,2.3185,3.7288,2.864,2.131,1.2548,0.6794,0.4327,0.7147,0.2715,0.2632,1.4071,1.9527,2.9193,3.7038,3.3741,2.1239,2.9635,3.7292,3.1956,2.2114,1.6165,0.8044,0.1478,-0.0955,0.2808,0.212,0.5114,1.6013
2.7146,3.3221,2.0485,3.4715,2.7002,2.0068,1.2376,0.7256,0.4505,0.6967,0.2388,0.1829,1.3649,1.8591,2.5592,3.333,3.0096,1.8579,2.6299,3.3958,2.9653,2.0243,1.4755,0.7372,0.1094,-0.1844,0.2069,0.1159,0.294,1.383
2.2269,2.855,1.6852,3.0721,2.4199,1.8122,1.1748,0.7838,0.4768,0.6516,0.197,0.0971,1.2576,1.6676,2.045,2.7916,2.4769,1.4439,2.145,2.9044,2.5955,1.7196,1.2343,0.6182,0.0553,-0.2718,0.1161,0.0125,0.0085,1.0774
1.6251,2.2719,1.256,2.5588,2.0417,1.558,1.0689,0.8478,0.5102,0.5815,0.1505,0.0171,1.0941,1.3947,1.4182,2.1232,1.8251,0.9206,1.5574,2.2933,2.1167,1.3272,0.9206,0.4601,-0.0065,-0.3471,0.0185,-0.0838,-0.3231,0.7074
0.9618,1.6228,0.7956,1.9749,1.5974,1.2613,0.9282,0.9096,0.5486,0.4926,0.105,-0.0463,0.892,1.0698,0.7352,1.3897,1.1202,0.3434,0.9304,1.6184,1.5762,0.8904,0.5728,0.2823,-0.0668,-0.4003,-0.0741,-0.1594,-0.674,0.3027
0.2982,0.9662,0.3419,1.3735,1.128,0.9437,0.7657,0.9603,0.5892,0.3947,0.0664,-0.0845,0.6758,0.7307,0.0606,0.6634,0.4352,-0.2251,0.3322,0.9466,1.0321,0.4584,0.2332,0.1069,-0.1163,-0.4237,-0.1499,-0.204,-1.0156,-0.1035
-0.3037,0.3617,-0.0682,0.8105,0.6779,0.629,0.5968,0.9914,0.6287,0.2992,0.0405,-0.093,0.4717,0.4176,-0.5414,0.0166,-0.1603,-0.725,-0.1747,0.3457,0.5437,0.0791,-0.0587,-0.0445,-0.148,-0.4141,-0.1997,-0.213,-1.3203,-0.4781
-0.7892,-0.137,-0.4039,0.3376,0.2889,0.3395,0.4375,0.9959,0.6626,0.217,0.0308,-0.0716,0.3035,0.1663,-1.0151,-0.4884,-0.6102,-1.1081,-0.5423,-0.1248,0.1631,-0.2085,-0.2735,-0.1552,-0.1589,-0.3726,-0.2184,-0.1877,-1.5643,-0.7919
-1.1175,-0.4884,-0.6435,-0.004,-0.0049,0.0943,0.3017,0.9686,0.6862,0.157,0.0393,-0.0243,0.1892,0.0039,-1.3203,-0.8065,-0.8777,-1.3443,-0.7425,-0.4212,-0.0719,-0.3789,-0.395,-0.2148,-0.1503,-0.3049,-0.2047,-0.1346,-1.7303,-1.0227
-1.2658,-0.6671,-0.7757,-0.188,-0.1807,-0.0927,0.2002,0.9084,0.6953,0.1249,0.0653,0.0418,0.1389,-0.0546,-1.4361,-0.9144,-0.9484,-1.4251,-0.7683,-0.5205,-0.1413,-0.4222,-0.4217,-0.2199,-0.127,-0.2197,-0.1612,-0.0635,-1.809,-1.1579
-1.231,-0.6654,-0.8005,-0.2045,-0.2282,-0.2128,0.1403,0.8182,0.6876,0.1233,0.1068,0.1184,0.1556,-0.0062,-1.3632,-0.812,-0.829,-1.3624,-0.6314,-0.4214,-0.0446,-0.3428,-0.3648,-0.1733,-0.0953,-0.1265,-0.092,0.0154,-1.801,-1.1957
-1.0286,-0.4936,-0.7277,-0.0605,-0.1493,-0.2631,0.126,0.7056,0.6637,0.1524,0.1609,0.1979,0.236,0.1412,-1.1218,-0.5201,-0.5441,-1.1849,-0.3575,-0.1425,0.2024,-0.1571,-0.2448,-0.0819,-0.0617,-0.034,-0.002,0.0935,-1.7168,-1.1448
-0.6898,-0.1768,-0.5746,0.2226,0.0434,-0.2452,0.1587,0.5826,0.6281,0.211,0.2251,0.2754,0.3728,0.3718,-0.749,-0.077,-0.1322,-0.9324,0.0179,0.2819,0.5705,0.11,-0.0869,0.0453,-0.0306,0.0519,0.1049,0.1663,-1.5753,-1.023
-0.2568,0.2479,-0.3637,0.6121,0.3294,-0.1649,0.2376,0.4644,0.5885,0.2975,0.2978,0.3496,0.5559,0.6648,-0.2927,0.4677,0.3601,-0.649,0.455,0.8068,1.0228,0.429,0.0829,0.198,-0.0041,0.1282,0.2258,0.2328,-1.4013,-0.8539
0.2218,0.7362,-0.1196,1.0681,0.6825,-0.0309,0.3602,0.3668,0.5553,0.4105,0.3789,0.4227,0.7736,0.9971,0.1933,1.0581,0.8821,-0.3776,0.9126,1.3823,1.5186,0.7687,0.2408,0.3663,0.0177,0.1949,0.3578,0.2959,-1.2217,-0.6634
0.6963,1.241,0.1332,1.5477,1.0729,0.1456,0.5213,0.3041,0.5385,0.5472,0.4689,0.4992,1.0129,1.3446,0.6555,1.6378,1.3832,-0.1552,1.3507,1.9573,2.0172,1.0989,0.3671,0.5397,0.0353,0.2535,0.4972,0.3597,-1.0631,-0.4768
1.1194,1.7156,0.3711,2.0077,1.4689,0.3507,0.7118,0.2861,0.5461,0.7031,0.5676,0.5838,1.2585,1.6829,1.0452,2.154,1.8158,-0.0105,1.7315,2.4828,2.4794,1.3906,0.4465,0.7067,0.0483,0.3053,0.6381,0.4278,-0.9484,-0.3168
1.449,2.1166,0.5721,2.4071,1.8377,0.5681,0.9178,0.3159,0.5815,0.8701,0.673,0.6788,1.493,1.9866,1.3214,2.5596,2.1374,0.0366,2.0197,2.9137,2.8684,1.6174,0.4678,0.8543,0.0544,0.3499,0.7716,0.501,-0.8962,-0.2029
1.6508,2.4061,0.7161,2.7088,2.1461,0.7779,1.12,0.3886,0.6418,1.0354,0.7799,0.7818,1.6966,2.2294,1.4537,2.8161,2.3123,-0.0251,2.1838,3.2097,3.1502,1.7547,0.4226,0.9671,0.0485,0.3846,0.8856,0.5758,-0.9193,-0.1516
1.7004,2.5539,0.7859,2.8817,2.363,0.9579,1.2949,0.4917,0.7186,1.1824,0.8789,0.8849,1.8478,2.3848,1.4238,2.8945,2.3148,-0.1983,2.198,3.338,3.2949,1.7818,0.3058,1.0289,0.0242,0.4034,0.9663,0.644,-1.0238,-0.175
1.5858,2.5396,0.7687,2.9026,2.4618,1.0853,1.4167,0.6071,0.7985,1.2918,0.9579,0.9757,1.9261,2.4287,1.2281,2.7788,2.1315,-0.4769,2.046,3.2756,3.279,1.6841,0.1163,1.0246,-0.0248,0.3991,0.9998,0.6946,-1.2076,-0.2793
1.3095,2.356,0.659,2.7589,2.4235,1.1394,1.4618,0.7139,0.8658,1.3447,1.0037,1.039,1.9143,2.3428,0.878,2.4676,1.765,-0.8451,1.7249,3.0133,3.0891,1.4564,-0.1407,0.9433,-0.1023,0.365,0.9752,0.7149,-1.4589,-0.4629
0.8894,2.0094,0.4599,2.4511,2.2407,1.1054,1.4129,0.7923,0.9056,1.3262,1.0047,1.0606,1.8019,2.1194,0.4002,1.976,1.2356,-1.2773,1.2485,2.5586,2.7253,1.1061,-0.4523,0.7819,-0.2078,0.2969,0.8869,0.6948,-1.7563,-0.7144
0.3578,1.5205,0.1846,1.9937,1.9189,0.9773,1.2631,0.8272,0.9067,1.2289,0.9537,1.0301,1.5886,1.7643,-0.1661,1.3354,0.5803,-1.7392,0.6479,1.9364,2.2029,0.6541,-0.7976,0.5463,-0.3353,0.1952,0.7366,0.6284,-2.07,-1.0125
-0.2418,0.9226,-0.145,1.4147,1.4776,0.7598,1.0181,0.8107,0.8636,1.055,0.8495,0.9437,1.2853,1.2982,-0.7729,0.5907,-0.1507,-2.1908,-0.0317,1.1876,1.5533,0.1345,-1.1493,0.2528,-0.4745,0.0659,0.5334,0.5162,-2.3646,-1.3281
-0.8604,0.2574,-0.5008,0.7534,0.9483,0.4687,0.6962,0.7437,0.7779,0.8168,0.6975,0.8049,0.9146,0.7556,-1.3703,-0.2047,-0.9005,-2.592,-0.7363,0.3648,0.821,-0.41,-1.4772,-0.0746,-0.6118,-0.0805,0.293,0.3653,-2.6049,-1.6282
-1.4498,-0.4288,-0.8524,0.0562,0.3709,0.1287,0.3261,0.6357,0.6577,0.5356,0.5092,0.6243,0.5079,0.1808,-1.9133,-0.9957,-1.6141,-2.9091,-1.412,-0.4741,0.0587,-0.9339,-1.7529,-0.4069,-0.734,-0.2303,0.0353,0.1882,-2.7618,-1.8812
-1.9693,-1.091,-1.1717,-0.6286,-0.2106,-0.2297,-0.0575,0.503,0.5162,0.2382,0.3001,0.4176,0.101,-0.3788,-2.3681,-1.7328,-2.2457,-3.1205,-2.0123,-1.2733,-0.6796,-1.3961,-1.9547,-0.7157,-0.83,-0.3697,-0.2182,0,-2.8179,-2.0627
-2.3917,-1.6904,-1.4374,-1.2564,-0.7546,-0.5748,-0.42,0.3655,0.3693,-0.0473,0.0875,0.2025,-0.2714,-0.8795,-2.7165,-2.3777,-2.7646,-3.2203,-2.5049,-1.9862,-1.3458,-1.7659,-2.0708,-0.9769,-0.8939,-0.4875,-0.4482,-0.1841,-2.7716,-2.1596
-2.7053,-2.1983,-1.6377,-1.7917,-1.2262,-0.8792,-0.7311,0.244,0.2335,-0.2955,-0.1114,-0.0035,-0.5812,-1.2878,-2.9565,-2.9069,-3.1573,-3.2189,-2.8742,-2.5802,-1.9037,-2.0267,-2.101,-1.1748,-0.925,-0.5763,-0.6396,-0.3509,-2.6379,-2.1724
-2.9141,-2.5986,-1.772,-2.2116,-1.6015,-1.1229,-0.9695,0.1559,0.1234,-0.4873,-0.2813,-0.1853,-0.81,-1.5845,-3.0999,-3.3122,-3.4263,-3.1391,-3.1205,-3.0383,-2.3324,-2.177,-2.0563,-1.3031,-0.9273,-0.6333,-0.7829,-0.4908,-2.4452,-2.1139
-3.0337,-2.8873,-1.8489,-2.5076,-1.8689,-1.2964,-1.1241,0.1126,0.0504,-0.6117,-0.41,-0.3305,-0.9507,-1.7653,-3.1664,-3.5979,-3.5853,-3.0106,-3.2561,-3.3588,-2.6269,-2.2276,-1.955,-1.364,-0.9076,-0.6591,-0.874,-0.5967,-2.2295,-2.006
-3.0855,-3.0706,-1.8829,-2.6836,-2.0286,-1.3997,-1.1941,0.1177,0.0215,-0.6656,-0.4886,-0.4305,-1.006,-1.8391,-3.1783,-3.7757,-3.6531,-2.8625,-3.2995,-3.5508,-2.7946,-2.1963,-1.818,-1.3658,-0.8729,-0.6563,-0.9133,-0.6638,-2.0266,-1.8741
-3.0906,-3.1612,-1.8898,-2.7528,-2.0892,-1.4407,-1.1865,0.1673,0.0384,-0.6525,-0.5122,-0.4796,-0.9856,-1.8228,-3.1534,-3.86,-3.6478,-2.7175,-3.2683,-3.629,-2.8502,-2.1023,-1.664,-1.319,-0.8281,-0.6274,-0.9036,-0.6883,-1.8648,-1.742
-3.0645,-3.1743,-1.8826,-2.7329,-2.0641,-1.4312,-1.1131,0.2507,0.0982,-0.5806,-0.4798,-0.4753,-0.902,-1.7355,-3.102,-3.8621,-3.5822,-2.5875,-3.1751,-3.609,-2.8102,-1.9607,-1.5047,-1.2327,-0.7747,-0.5738,-0.849,-0.6675,-1.7609,-1.6271
-3.0144,-3.1232,-1.8675,-2.6409,-1.9672,-1.3828,-0.9872,0.3538,0.194,-0.4602,-0.3945,-0.4186,-0.7675,-1.5934,-3.0256,-3.7884,-3.4611,-2.4738,-3.0244,-3.5022,-2.6879,-1.7791,-1.3431,-1.113,-0.7108,-0.4952,-0.7534,-0.6001,-1.7176,-1.5381
-2.9392,-3.0172,-1.8438,-2.4899,-1.8097,-1.3044,-0.8212,0.4621,0.3158,-0.302,-0.263,-0.3141,-0.5918,-1.4066,-2.9184,-3.6394,-3.283,-2.3684,-2.8134,-3.3146,-2.4909,-1.5573,-1.1746,-0.9615,-0.6319,-0.3908,-0.6205,-0.4877,-1.7264,-1.4746
-2.8316,-2.8608,-1.8045,-2.2871,-1.5989,-1.2005,-0.6245,0.5638,0.4529,-0.1158,-0.095,-0.1702,-0.3813,-1.1778,-2.7713,-3.4121,-3.0421,-2.2586,-2.535,-3.0469,-2.2213,-1.29,-0.9893,-0.7774,-0.5331,-0.2605,-0.4544,-0.3354,-1.7706,-1.4291
-2.6822,-2.6547,-1.7397,-2.0347,-1.3388,-1.0717,-0.4039,0.6524,0.5952,0.0899,0.0979,0.0019,-0.1399,-0.9048,-2.576,-3.1035,-2.733,-2.1307,-2.1834,-2.6976,-1.8783,-0.9707,-0.7773,-0.5594,-0.4115,-0.106,-0.2602,-0.1526,-1.8312,-1.3903
-2.4841,-2.3984,-1.6402,-1.7322,-1.0317,-0.916,-0.1635,0.7271,0.7348,0.3081,0.3037,0.1892,0.1296,-0.5836,-2.3291,-2.7142,-2.3548,-1.975,-1.7581,-2.267,-1.462,-0.5972,-0.5328,-0.3084,-0.268,0.0678,-0.0444,0.0485,-1.891,-1.3462
-2.2355,-2.0933,-1.5009,-1.3803,-0.6807,-0.7312,0.0936,0.7924,0.867,0.533,0.5114,0.3789,0.4238,-0.2125,-2.0344,-2.2522,-1.9144,-1.7877,-1.2685,-1.7614,-0.9773,-0.1749,-0.2578,-0.0294,-0.1078,0.2531,0.1849,0.2541,-1.9378,-1.2871
-1.9425,-1.7447,-1.3226,-0.9838,-0.292,-0.5166,0.3648,0.8565,0.9909,0.76,0.7121,0.5606,0.7372,0.2044,-1.703,-1.734,-1.4276,-1.5724,-0.7345,-1.1953,-0.4367,0.2807,0.0369,0.2681,0.0594,0.4397,0.4189,0.4512,-1.9653,-1.2078
-1.6187,-1.3635,-1.1126,-0.5537,0.124,-0.2747,0.6464,0.9283,1.1086,0.9852,0.8999,0.7273,1.0625,0.6558,-1.3529,-1.1843,-0.9189,-1.3403,-0.1856,-0.5926,0.139,0.7455,0.3325,0.5702,0.2211,0.6157,0.648,0.6295,-1.9733,-1.1076
-1.284,-0.9655,-0.8832,-0.1073,0.5529,-0.0116,0.9336,1.0154,1.2245,1.2055,1.0719,0.8753,1.3899,1.1232,-1.0057,-0.6341,-0.4191,-1.1083,0.343,0.0154,0.7223,1.1893,0.6052,0.8607,0.3636,0.7694,0.8634,0.7815,-1.9664,-0.991
-0.9622,-0.5706,-0.6507,0.3334,0.9764,0.2625,1.2195,1.1214,1.3426,1.4182,1.2269,1.0041,1.7081,1.5834,-0.6848,-0.1165,0.039,-0.8958,0.815,0.5937,1.2819,1.5807,0.8304,1.1229,0.4746,0.8904,1.0566,0.9034,-1.9528,-0.8664
-0.6777,-0.2008,-0.4324,0.7444,1.3746,0.534,1.4953,1.2448,1.4649,1.6199,1.365,1.1148,2.0049,2.0115,-0.4121,0.3369,0.4245,-0.7221,1.1987,1.1079,1.7867,1.8922,0.9876,1.3426,0.5451,0.971,1.2203,0.9942,-1.9421,-0.7457
-0.4515,0.1228,-0.2441,1.1031,1.7279,0.7869,1.7501,1.3787,1.5894,1.8066,1.4859,1.2088,2.2689,2.3848,-0.2057,0.7006,0.7136,-0.6025,1.4714,1.5289,2.2096,2.1048,1.0636,1.5095,0.5716,1.0077,1.3489,1.0558,-1.9428,-0.6417
-0.2984,0.3822,-0.098,1.3911,2.0187,1.0046,1.9716,1.5111,1.7098,1.9727,1.5881,1.2874,2.49,2.6864,-0.0766,0.9582,0.8926,-0.5451,1.6231,1.837,2.5318,2.211,1.0559,1.6191,0.5568,1.0019,1.4394,1.0917,-1.96,-0.5661
-0.2239,0.5653,-0.0003,1.5971,2.2344,1.1724,2.1476,1.6277,1.8161,2.1118,1.6693,1.3508,2.661,2.9067,-0.0279,1.1046,0.9602,-0.5497,1.6574,2.0244,2.7443,2.2155,0.9733,1.6729,0.5092,0.9598,1.4913,1.1076,-1.994,-0.5274
-0.2236,0.6682,0.0494,1.7181,2.3682,1.2798,2.2673,1.7141,1.8968,2.2171,1.7269,1.3986,2.7781,3.0446,-0.0529,1.1464,0.928,-0.6068,1.5912,2.0954,2.849,2.1348,0.8342,1.6778,0.4414,0.8917,1.5075,1.1096,-2.039,-0.5279
-0.2843,0.6949,0.0583,1.7587,2.4199,1.3222,2.3233,1.7591,1.9417,2.2825,1.7585,1.4299,2.841,3.106,-0.1366,1.0999,0.8176,-0.6998,1.4509,2.065,2.8573,1.9935,0.6641,1.6444,0.368,0.8102,1.493,1.1037,-2.0846,-0.5637
-0.3874,0.6568,0.0372,1.7296,2.3956,1.3008,2.3132,1.7566,1.9442,2.3035,1.7631,1.4434,2.8518,3.1017,-0.2579,0.9875,0.6564,-0.8083,1.2674,1.9552,2.7869,1.8198,0.4908,1.585,0.3027,0.7281,1.4547,1.0949,-2.1179,-0.6252
-0.5136,0.5695,-0.002,1.645,2.3056,1.2223,2.2394,1.7058,1.903,2.2782,1.7413,1.4378,2.8148,3.0441,-0.3943,0.8337,0.4729,-0.9119,1.0707,1.7898,2.658,1.6407,0.3397,1.5111,0.2561,0.6569,1.3997,1.0861,-2.1271,-0.6997
-0.6467,0.4491,-0.0501,1.5193,2.1622,1.0965,2.1094,1.612,1.8222,2.2073,1.6955,1.4123,2.7348,2.9449,-0.5258,0.66,0.291,-0.9948,0.8847,1.5908,2.4896,1.4774,0.2295,1.4318,0.2342,0.6046,1.3342,1.0778,-2.1053,-0.775
-0.7765,0.3099,-0.1024,1.3652,1.9786,0.935,1.9348,1.4841,1.7101,2.0946,1.6293,1.3664,2.6175,2.8132,-0.6392,0.4822,0.1274,-1.0483,0.724,1.3746,2.2968,1.3426,0.1694,1.3529,0.2386,0.5755,1.2633,1.0683,-2.0522,-0.8425
-0.8992,0.1615,-0.1592,1.1927,1.7669,0.7494,1.7304,1.3342,1.5784,1.9473,1.5476,1.3017,2.4695,2.6553,-0.7296,0.3093,-0.01,-1.0713,0.5932,1.1513,2.0894,1.2403,0.159,1.2779,0.2673,0.5701,1.1905,1.0544,-1.9747,-0.8985
-1.0165,0.0093,-0.2243,1.0084,1.5379,0.5505,1.5125,1.1755,1.4394,1.7756,1.456,1.2215,2.2987,2.4756,-0.8002,0.1436,-0.1212,-1.0695,0.4892,0.9251,1.8728,1.1666,0.1897,1.2088,0.3163,0.586,1.1192,1.0335,-1.8848,-0.9443
-1.1323,-0.1452,-0.303,0.8168,1.3012,0.3479,1.2976,1.0207,1.3049,1.5927,1.3606,1.1322,2.1146,2.2778,-0.8596,-0.0168,-0.2111,-1.0528,0.4036,0.6972,1.6492,1.1131,0.2482,1.1479,0.3808,0.6197,1.0526,1.0048,-1.7966,-0.9852
-1.2507,-0.3023,-0.3996,0.6208,1.065,0.1497,1.1009,0.8805,1.1842,1.413,1.2679,1.0423,1.9278,2.0665,-0.9184,-0.1751,-0.2869,-1.0324,0.3271,0.4674,1.4196,1.0702,0.3199,1.0983,0.457,0.6675,0.9952,0.9708,-1.7228,-1.0278
-1.3728,-0.4622,-0.5151,0.423,0.8369,-0.0375,0.9345,0.7626,1.0832,1.2503,1.1836,0.9613,1.7494,1.8478,-0.985,-0.3339,-0.3553,-1.018,0.2525,0.2371,1.1856,1.0295,0.3926,1.0641,0.5415,0.7267,0.9518,0.9364,-1.6712,-1.0778
-1.496,-0.6234,-0.6463,0.2263,0.6231,-0.2086,0.806,0.6708,1.0042,1.1159,1.1126,0.8977,1.5883,1.6289,-1.0627,-0.493,-0.4207,-1.0152,0.1753,0.0099,0.9508,0.9855,0.4576,1.0486,0.6313,0.7946,0.9263,0.9079,-1.6438,-1.1381
-1.6141,-0.782,-0.7857,0.0347,0.4295,-0.36,0.7176,0.6048,0.9454,1.0162,1.0577,0.8567,1.4505,1.4176,-1.1481,-0.6492,-0.4847,-1.0255,0.0947,-0.2084,0.7206,0.9357,0.5103,1.0532,0.7224,0.8684,0.9207,0.8908,-1.6358,-1.2072
-1.7176,-0.9315,-0.923,-0.1468,0.2604,-0.4899,0.6663,0.5608,0.9025,0.9524,1.019,0.8394,1.3377,1.2208,-1.232,-0.7969,-0.5466,-1.0459,0.0115,-0.4105,0.502,0.8795,0.549,1.0753,0.8095,0.9439,0.9331,0.8877,-1.638,-1.2801
-1.7966,-1.064,-1.0464,-0.3124,0.1191,-0.5977,0.645,0.5329,0.8699,0.9203,0.9948,0.8422,1.2474,1.0438,-1.3015,-0.9294,-0.6046,-1.0715,-0.0725,-0.5894,0.3023,0.8173,0.5721,1.1083,0.8851,1.0151,0.9582,0.8978,-1.6382,-1.3483
-1.8427,-1.1717,-1.1457,-0.4557,0.0072,-0.6839,0.644,0.5147,0.8427,0.9122,0.9815,0.8581,1.1747,0.8896,-1.3431,-1.0406,-0.6565,-1.0967,-0.156,-0.7397,0.1278,0.7493,0.5779,1.1422,0.9408,1.0742,0.9874,0.9167,-1.6247,-1.4024
-1.8513,-1.2477,-1.2129,-0.5713,-0.0747,-0.7492,0.6541,0.5007,0.8181,0.9194,0.9756,0.8789,1.1137,0.7597,-1.3463,-1.1263,-0.7009,-1.1171,-0.2382,-0.8588,-0.0169,0.6753,0.5637,1.1655,0.9681,1.1133,1.0115,0.9379,-1.5889,-1.4332
-1.8229,-1.2884,-1.2441,-0.6549,-0.1279,-0.7938,0.6679,0.4877,0.7964,0.9346,0.9742,0.897,1.0605,0.6543,-1.3062,-1.1853,-0.7369,-1.1301,-0.3182,-0.9471,-0.1299,0.5955,0.527,1.1682,0.9605,1.1247,1.0226,0.9543,-1.5267,-1.4339
-1.7631,-1.2938,-1.239,-0.7051,-0.1544,-0.817,0.6818,0.4753,0.7805,0.9531,0.976,0.9067,1.014,0.5732,-1.2249,-1.2196,-0.7645,-1.1351,-0.3948,-1.0082,-0.2118,0.5109,0.467,1.1442,0.9146,1.1028,1.0159,0.9593,-1.4395,-1.4007
-1.6815,-1.2683,-1.2011,-0.7234,-0.1578,-0.8175,0.6957,0.4655,0.7742,0.9732,0.9812,0.9054,0.9769,0.5157,-1.111,-1.234,-0.7842,-1.133,-0.4661,-1.0481,-0.266,0.424,0.3855,1.0921,0.8311,1.0447,0.9905,0.9483,-1.333,-1.3329
-1.5895,-1.2197,-1.1364,-0.7148,-0.1425,-0.7944,0.712,0.4616,0.7808,0.9956,0.9906,0.8933,0.9543,0.481,-0.9781,-1.2351,-0.7968,-1.126,-0.5295,-1.0744,-0.2983,0.3389,0.2875,1.0157,0.7148,0.951,0.9491,0.919,-1.2154,-1.2331
-1.4985,-1.1589,-1.0529,-0.6871,-0.1139,-0.7483,0.734,0.4665,0.8015,1.0218,1.0049,0.8728,0.9515,0.4674,-0.8417,-1.2304,-0.8032,-1.1164,-0.5827,-1.0956,-0.3162,0.2602,0.1806,0.9225,0.5738,0.8257,0.8965,0.8722,-1.0953,-1.106
-1.4178,-1.0978,-0.9591,-0.6502,-0.0785,-0.6823,0.7632,0.4821,0.8342,1.052,1.0236,0.8477,0.9716,0.4713,-0.7163,-1.2275,-0.8047,-1.1066,-0.6244,-1.1198,-0.3279,0.192,0.0741,0.8222,0.4181,0.6764,0.8385,0.8112,-0.98,-0.9587
-1.3536,-1.0482,-0.8636,-0.6145,-0.0438,-0.6028,0.7986,0.5078,0.8738,1.0839,1.0445,0.8215,1.0131,0.487,-0.6133,-1.2334,-0.8036,-1.0989,-0.655,-1.1545,-0.342,0.1374,-0.0224,0.7237,0.2587,0.5132,0.7799,0.7414,-0.874,-0.7991
-1.3097,-1.0198,-0.7732,-0.59,-0.018,-0.5185,0.8354,0.5407,0.9125,1.1118,1.0631,0.7967,1.0684,0.5063,-0.5395,-1.2535,-0.8027,-1.0949,-0.6766,-1.205,-0.3661,0.0969,-0.1002,0.6337,0.1057,0.3476,0.724,0.6691,-0.779,-0.6361
-1.2868,-1.0187,-0.6928,-0.5843,-0.0091,-0.4396,0.8654,0.5761,0.9424,1.1275,1.0734,0.7741,1.1241,0.5188,-0.497,-1.2908,-0.8052,-1.0958,-0.6927,-1.2741,-0.4059,0.0691,-0.1528,0.5555,-0.0323,0.1907,0.6716,0.6009,-0.6945,-0.4782
-1.2832,-1.0467,-0.6246,-0.602,-0.0237,-0.3758,0.8789,0.6084,0.956,1.1213,1.0693,0.7521,1.1632,0.514,-0.4834,-1.3447,-0.8131,-1.1007,-0.707,-1.3611,-0.464,0.0506,-0.177,0.4883,-0.1489,0.0518,0.6216,0.5417,-0.6175,-0.3323
-1.2947,-1.1,-0.5681,-0.6437,-0.0658,-0.3348,0.8665,0.6322,0.9489,1.0844,1.0462,0.7278,1.1688,0.4828,-0.4924,-1.4109,-0.8268,-1.1074,-0.7217,-1.4611,-0.5394,0.0373,-0.1737,0.4283,-0.2407,-0.0622,0.5718,0.4947,-0.5442,-0.2033
-1.3153,-1.1704,-0.521,-0.7062,-0.1353,-0.321,0.8214,0.6428,0.9198,1.0116,1.0017,0.6977,1.1276,0.4204,-0.5152,-1.4807,-0.8438,-1.1111,-0.7368,-1.5654,-0.6274,0.0256,-0.1478,0.3706,-0.3063,-0.148,0.52,0.4603,-0.47,-0.093
-1.3373,-1.2465,-0.4804,-0.7827,-0.2274,-0.3351,0.7413,0.6369,0.8707,0.9021,0.9368,0.6591,1.034,0.3273,-0.5413,-1.5431,-0.8588,-1.1061,-0.7496,-1.6629,-0.7203,0.0131,-0.1074,0.3106,-0.3467,-0.2049,0.4647,0.4368,-0.3913,-0.001
-1.3536,-1.3163,-0.444,-0.8649,-0.3341,-0.3743,0.6291,0.6121,0.806,0.7608,0.8552,0.6114,0.8913,0.2096,-0.5602,-1.5861,-0.8654,-1.0865,-0.7552,-1.7421,-0.8091,-0.0008,-0.0627,0.2457,-0.3641,-0.2347,0.4058,0.4208,-0.3063,0.0745
-1.358,-1.3697,-0.4119,-0.9442,-0.4453,-0.4334,0.4916,0.5671,0.731,0.5969,0.7625,0.5559,0.7109,0.0779,-0.5636,-1.6006,-0.8574,-1.048,-0.7487,-1.7934,-0.8856,-0.0157,-0.0232,0.1765,-0.3614,-0.2411,0.3449,0.4087,-0.2159,0.1349
-1.3478,-1.4008,-0.3863,-1.0136,-0.5513,-0.5064,0.3387,0.5015,0.6508,0.4225,0.665,0.4962,0.5104,-0.0552,-0.5468,-1.5822,-0.8311,-0.99,-0.7271,-1.8121,-0.944,-0.0304,0.0036,0.1062,-0.3417,-0.2282,0.2848,0.3977,-0.1238,0.1798
-1.3233,-1.4091,-0.372,-1.0691,-0.6451,-0.588,0.1809,0.4158,0.5688,0.2501,0.5686,0.4368,0.3095,-0.1784,-0.5096,-1.5329,-0.787,-0.9155,-0.6907,-1.7987,-0.9831,-0.0445,0.0142,0.0397,-0.308,-0.2009,0.2286,0.3862,-0.0359,0.2074
-1.2883,-1.3993,-0.3745,-1.1106,-0.7237,-0.6741,0.0275,0.3125,0.4872,0.0909,0.4779,0.382,0.1259,-0.2835,-0.4563,-1.4607,-0.7295,-0.8314,-0.6433,-1.7596,-1.0059,-0.0581,0.0094,-0.0179,-0.2632,-0.1644,0.1793,0.3739,0.0411,0.2146
-1.2484,-1.3797,-0.3982,-1.1409,-0.788,-0.7621,-0.1144,0.1955,0.4066,-0.0466,0.3964,0.3349,-0.0276,-0.3674,-0.3934,-1.3772,-0.6653,-0.7458,-0.5913,-1.7049,-1.019,-0.0718,-0.006,-0.0626,-0.2106,-0.1237,0.139,0.3614,0.1021,0.1998
-1.2092,-1.3603,-0.4445,-1.1646,-0.8421,-0.8504,-0.2405,0.0707,0.3273,-0.1575,0.3264,0.2967,-0.1447,-0.4314,-0.3277,-1.2946,-0.6016,-0.6662,-0.5413,-1.6455,-1.0302,-0.0865,-0.0248,-0.0932,-0.1536,-0.0842,0.1087,0.3494,0.1448,0.1639
-1.1742,-1.3491,-0.5109,-1.1866,-0.8906,-0.937,-0.3488,-0.0545,0.2498,-0.2405,0.2687,0.266,-0.226,-0.4802,-0.2638,-1.2225,-0.5434,-0.5966,-0.4983,-1.5906,-1.0466,-0.1029,-0.0389,-0.1112,-0.0967,-0.0511,0.0878,0.3381,0.1711,0.1124
-1.1434,-1.3505,-0.5908,-1.2097,-0.937,-1.019,-0.439,-0.1715,0.1759,-0.2967,0.2236,0.24,-0.2767,-0.5196,-0.2027,-1.165,-0.492,-0.5374,-0.464,-1.5451,-1.0719,-0.1206,-0.0413,-0.1207,-0.0447,-0.0294,0.075,0.3267,0.1864,0.0548
-1.1131,-1.3636,-0.6741,-1.2334,-0.9817,-1.0917,-0.5115,-0.272,0.1091,-0.3293,0.1907,0.2147,-0.3051,-0.554,-0.1419,-1.1202,-0.4451,-0.4857,-0.4365,-1.5087,-1.1047,-0.1381,-0.028,-0.1268,-0.003,-0.0232,0.0675,0.3134,0.1987,0.0033
-1.0768,-1.3818,-0.7495,-1.2534,-1.0209,-1.1491,-0.5662,-0.3479,0.0545,-0.3419,0.1691,0.1862,-0.3189,-0.5845,-0.0765,-1.0807,-0.3973,-0.4369,-0.4107,-1.4761,-1.1385,-0.1525,0.0018,-0.1347,0.0232,-0.0358,0.0621,0.2956,0.2161,-0.0296
-1.0267,-1.3943,-0.8056,-1.2621,-1.0478,-1.1841,-0.6025,-0.3929,0.0184,-0.3383,0.1579,0.1521,-0.3242,-0.608,-0.0011,-1.0355,-0.3421,-0.3869,-0.3799,-1.4383,-1.1625,-0.1602,0.0457,-0.1476,0.03,-0.0685,0.0555,0.2707,0.2442,-0.0336
-0.9564,-1.3882,-0.8326,-1.2498,-1.0536,-1.1899,-0.6189,-0.4029,0.0071,-0.3215,0.1565,0.1122,-0.324,-0.6186,0.0878,-0.9732,-0.2742,-0.3336,-0.3372,-1.3851,-1.1637,-0.1566,0.0984,-0.1665,0.0148,-0.1202,0.0446,0.237,0.2844,-0.0031
-0.8629,-1.3515,-0.8233,-1.2076,-1.0301,-1.1607,-0.6139,-0.3761,0.0257,-0.2944,0.1641,0.069,-0.3184,-0.6088,0.19,-0.885,-0.1909,-0.2787,-0.2777,-1.3077,-1.1302,-0.1382,0.1538,-0.1895,-0.0217,-0.187,0.0269,0.1946,0.3336,0.0613
-0.7481,-1.2767,-0.775,-1.1295,-0.9717,-1.0937,-0.5868,-0.3142,0.0761,-0.2592,0.1805,0.0271,-0.3056,-0.5721,0.301,-0.7671,-0.0935,-0.2273,-0.2003,-1.2014,-1.0543,-0.1026,0.2054,-0.2128,-0.0761,-0.2623,0.0016,0.1458,0.384,0.153
-0.6194,-1.1627,-0.6895,-1.0149,-0.8779,-0.9897,-0.5389,-0.2217,0.1565,-0.2187,0.2047,-0.0081,-0.2836,-0.5056,0.4123,-0.6226,0.0121,-0.1876,-0.1077,-1.0669,-0.935,-0.0501,0.2472,-0.2318,-0.1418,-0.3371,-0.0308,0.0954,0.4257,0.2601
-0.4883,-1.0167,-0.5738,-0.8696,-0.7535,-0.854,-0.4735,-0.1064,0.2601,-0.1762,0.2347,-0.0319,-0.2519,-0.4114,0.5126,-0.4609,0.1172,-0.1682,-0.007,-0.9114,-0.7791,0.0162,0.2752,-0.2429,-0.2103,-0.4018,-0.0683,0.049,0.4484,0.3679
-0.3687,-0.8526,-0.4392,-0.706,-0.6087,-0.6967,-0.3965,0.0211,0.3753,-0.1358,0.2673,-0.0422,-0.2121,-0.297,0.5903,-0.2964,0.2112,-0.1762,0.0922,-0.7467,-0.6005,0.091,0.2874,-0.2442,-0.2724,-0.4481,-0.108,0.0118,0.4446,0.4612
-0.2737,-0.6891,-0.3,-0.5406,-0.4577,-0.5311,-0.3159,0.1486,0.4873,-0.1021,0.2976,-0.04,-0.1682,-0.1738,0.6357,-0.1453,0.2846,-0.2144,0.1793,-0.5878,-0.418,0.1674,0.2847,-0.236,-0.32,-0.4702,-0.1463,-0.0126,0.411,0.5272
-0.2131,-0.5458,-0.1715,-0.3919,-0.3159,-0.3731,-0.2411,0.2629,0.5799,-0.0802,0.3202,-0.0294,-0.126,-0.0554,0.6423,-0.0233,0.3303,-0.2801,0.2452,-0.4498,-0.252,0.2382,0.2702,-0.221,-0.3471,-0.4663,-0.1799,-0.023,0.3493,0.5575
-0.1922,-0.4398,-0.0675,-0.2769,-0.1979,-0.2386,-0.1813,0.3522,0.6388,-0.074,0.3295,-0.0166,-0.0917,0.0453,0.6085,0.0571,0.3448,-0.366,0.2831,-0.3456,-0.1212,0.2967,0.2488,-0.2031,-0.3513,-0.4389,-0.2062,-0.0212,0.2661,0.5491
-0.211,-0.3835,0.0005,-0.2084,-0.1155,-0.1414,-0.1444,0.4073,0.6539,-0.0861,0.3213,-0.0085,-0.0704,0.1182,0.5367,0.0886,0.3279,-0.462,0.2896,-0.2842,-0.0395,0.3376,0.2251,-0.1865,-0.3337,-0.3943,-0.2236,-0.0111,0.1709,0.5039
-0.2654,-0.3826,0.0254,-0.1932,-0.0757,-0.0914,-0.1355,0.4233,0.6221,-0.1168,0.2939,-0.0109,-0.0649,0.1579,0.4329,0.0686,0.282,-0.5578,0.2646,-0.2701,-0.0141,0.3572,0.2025,-0.1747,-0.2991,-0.3414,-0.232,0.0023,0.0737,0.4276
-0.3482,-0.436,0.0049,-0.2309,-0.08,-0.0927,-0.1558,0.4004,0.5479,-0.1635,0.249,-0.0264,-0.0749,0.1641,0.3056,-0.0001,0.2109,-0.6457,0.211,-0.3035,-0.0449,0.3544,0.1827,-0.1693,-0.2548,-0.2898,-0.2321,0.0145,-0.0166,0.3283
-0.4506,-0.5359,-0.0579,-0.3142,-0.1238,-0.1423,-0.202,0.3434,0.4426,-0.2202,0.1919,-0.0536,-0.0961,0.1417,0.1645,-0.1101,0.1195,-0.7213,0.1342,-0.3797,-0.1245,0.3311,0.166,-0.1692,-0.2084,-0.2474,-0.2244,0.0233,-0.0946,0.2147
-0.5632,-0.6689,-0.1541,-0.4296,-0.1972,-0.2304,-0.2659,0.2619,0.3225,-0.278,0.1312,-0.0868,-0.121,0.1002,0.0205,-0.25,0.0139,-0.7841,0.0425,-0.4904,-0.2392,0.2924,0.152,-0.1712,-0.1668,-0.2188,-0.2092,0.0294,-0.1583,0.095
-0.6764,-0.8179,-0.2702,-0.5593,-0.2861,-0.3411,-0.3356,0.1681,0.2057,-0.3261,0.0771,-0.1175,-0.1395,0.0524,-0.1147,-0.405,-0.0984,-0.8351,-0.054,-0.6233,-0.3705,0.2458,0.1405,-0.1701,-0.1341,-0.2047,-0.1862,0.036,-0.2079,-0.0227
-0.7805,-0.9638,-0.3889,-0.6843,-0.3741,-0.4551,-0.3975,0.0753,0.1088,-0.3536,0.0398,-0.1366,-0.141,0.0119,-0.2293,-0.5585,-0.2086,-0.8752,-0.1442,-0.7636,-0.4979,0.2001,0.1314,-0.161,-0.1122,-0.2025,-0.1545,0.0473,-0.2446,-0.1305
-0.8665,-1.0883,-0.4918,-0.7867,-0.4455,-0.5529,-0.4386,-0.0041,0.0436,-0.3517,0.0267,-0.1366,-0.1166,-0.0087,-0.3117,-0.6937,-0.3065,-0.9035,-0.2175,-0.8951,-0.6024,0.1636,0.125,-0.1407,-0.0999,-0.207,-0.1138,0.0672,-0.2684,-0.2203
-0.9261,-1.1758,-0.5621,-0.8529,-0.4875,-0.6181,-0.4492,-0.0603,0.0159,-0.3155,0.041,-0.1142,-0.0615,-0.001,-0.3519,-0.7957,-0.3819,-0.9167,-0.2655,-1.0022,-0.6688,0.1423,0.1212,-0.1088,-0.0948,-0.2119,-0.0645,0.0974,-0.2773,-0.2839
-0.9529,-1.2153,-0.5875,-0.8751,-0.4923,-0.6405,-0.4249,-0.0876,0.0246,-0.2462,0.081,-0.0702,0.0241,0.0385,-0.343,-0.8535,-0.4261,-0.9101,-0.2833,-1.0721,-0.6887,0.1391,0.1197,-0.0677,-0.0928,-0.2113,-0.0077,0.1378,-0.267,-0.3141
-0.9432,-1.2016,-0.563,-0.8517,-0.4581,-0.6181,-0.367,-0.0845,0.0633,-0.15,0.1409,-0.0093,0.1347,0.1076,-0.2825,-0.8616,-0.4336,-0.8797,-0.2708,-1.0971,-0.6613,0.1537,0.1201,-0.0219,-0.0897,-0.1996,0.0553,0.1867,-0.2328,-0.3066
-0.8969,-1.1356,-0.4918,-0.7871,-0.3892,-0.5571,-0.2826,-0.0543,0.1221,-0.0375,0.212,0.0617,0.2611,0.1989,-0.1735,-0.8209,-0.4031,-0.8239,-0.2319,-1.0756,-0.5933,0.1833,0.1224,0.0239,-0.081,-0.1725,0.1231,0.2418,-0.171,-0.2618
-0.8178,-1.0242,-0.3847,-0.6904,-0.2949,-0.4705,-0.1826,-0.0036,0.1904,0.079,0.2848,0.1359,0.3925,0.3024,-0.0252,-0.7385,-0.3386,-0.745,-0.1739,-1.0127,-0.4968,0.2237,0.1274,0.0666,-0.0629,-0.127,0.1948,0.3014,-0.0814,-0.1854
-0.7134,-0.8788,-0.2585,-0.5738,-0.1876,-0.3748,-0.0791,0.0587,0.2591,0.1876,0.3512,0.2081,0.5183,0.4068,0.1476,-0.6272,-0.2488,-0.6496,-0.1062,-0.9198,-0.3875,0.2706,0.1365,0.1052,-0.0333,-0.062,0.2695,0.3645,0.0311,-0.0886
-0.5948,-0.7145,-0.1321,-0.4508,-0.0809,-0.2872,0.0163,0.1236,0.3221,0.279,0.4059,0.2751,0.63,0.5017,0.3261,-0.5037,-0.1463,-0.5487,-0.0386,-0.8126,-0.2817,0.3196,0.151,0.1408,0.0077,0.0208,0.346,0.4299,0.1554,0.0131
-0.4753,-0.5482,-0.0241,-0.3346,0.0124,-0.2216,0.0951,0.1834,0.3764,0.3473,0.447,0.3353,0.7218,0.5791,0.4886,-0.3866,-0.0457,-0.4566,0.0198,-0.7094,-0.1938,0.3669,0.1718,0.1758,0.057,0.1168,0.4221,0.4961,0.2748,0.1018
-0.3693,-0.3967,0.0511,-0.2367,0.0823,-0.1867,0.1522,0.2334,0.4223,0.3908,0.4756,0.3884,0.7903,0.6332,0.614,-0.2938,0.0376,-0.3887,0.0617,-0.6276,-0.135,0.4089,0.1979,0.2118,0.1087,0.218,0.4942,0.56,0.3696,0.1606
-0.2891,-0.2745,0.0855,-0.1652,0.1231,-0.1836,0.1865,0.2721,0.4613,0.4108,0.495,0.4337,0.8339,0.6611,0.6852,-0.2396,0.0909,-0.3587,0.0817,-0.5811,-0.1115,0.4417,0.2261,0.2484,0.1546,0.3143,0.5572,0.6167,0.4206,0.1767
-0.243,-0.1916,0.0791,-0.1236,0.134,-0.2058,0.2007,0.3011,0.4956,0.4111,0.5092,0.4696,0.8522,0.6623,0.693,-0.2321,0.1056,-0.3757,0.0777,-0.5778,-0.1246,0.4618,0.2515,0.2827,0.1861,0.3943,0.6047,0.6604,0.4145,0.1449
-0.2325,-0.1512,0.0404,-0.1095,0.1201,-0.24,0.2007,0.3246,0.5268,0.3969,0.5215,0.4942,0.8462,0.6388,0.6385,-0.2713,0.0799,-0.4416,0.0508,-0.6175,-0.1703,0.4663,0.2684,0.31,0.196,0.4474,0.6304,0.6854,0.3477,0.0701
-0.2513,-0.1492,-0.015,-0.1148,0.0914,-0.2685,0.1951,0.3481,0.5554,0.3751,0.5346,0.5057,0.8186,0.596,0.5338,-0.3479,0.0191,-0.5492,0.0061,-0.6915,-0.2397,0.4545,0.272,0.325,0.1804,0.4663,0.6298,0.688,0.229,-0.0332
-0.287,-0.174,-0.0668,-0.1264,0.0619,-0.2725,0.194,0.3773,0.5812,0.3534,0.5503,0.5039,0.7749,0.5426,0.4003,-0.445,-0.0637,-0.6836,-0.0474,-0.7834,-0.3196,0.4284,0.2605,0.3244,0.1401,0.4481,0.6019,0.6678,0.0782,-0.1427
-0.3224,-0.2085,-0.0935,-0.1283,0.0471,-0.2361,0.2084,0.4172,0.604,0.3403,0.5697,0.4909,0.7236,0.4907,0.2642,-0.5407,-0.1501,-0.8243,-0.0976,-0.8718,-0.3935,0.3937,0.2359,0.3085,0.0807,0.3958,0.55,0.6283,-0.0777,-0.2333
-0.3401,-0.233,-0.0764,-0.1046,0.0621,-0.149,0.2486,0.4712,0.6242,0.3442,0.5942,0.4705,0.6762,0.4546,0.1517,-0.6114,-0.2193,-0.9492,-0.1312,-0.9338,-0.444,0.3586,0.204,0.2815,0.0114,0.3173,0.4817,0.5763,-0.2104,-0.2814
-0.3251,-0.2289,-0.0029,-0.0421,0.1188,-0.0087,0.3228,0.5408,0.6435,0.3724,0.6254,0.4486,0.6453,0.4489,0.0844,-0.6364,-0.2516,-1.0387,-0.1356,-0.9492,-0.4547,0.3331,0.1731,0.2515,-0.0571,0.2241,0.4079,0.5207,-0.2964,-0.2707
-0.2675,-0.1815,0.1313,0.0672,0.2244,0.1804,0.436,0.6259,0.6659,0.4306,0.6653,0.4314,0.6433,0.486,0.0763,-0.6013,-0.2317,-1.0788,-0.1007,-0.9037,-0.4127,0.3267,0.1522,0.2287,-0.115,0.1289,0.3408,0.4703,-0.3214,-0.1941
-0.1641,-0.082,0.3211,0.2252,0.3806,0.4084,0.5894,0.7246,0.697,0.5212,0.7159,0.4248,0.6797,0.5742,0.1323,-0.4998,-0.1515,-1.0631,-0.0213,-0.7908,-0.3107,0.3476,0.1495,0.2236,-0.1548,0.0442,0.2916,0.4331,-0.2831,-0.0558
-0.0178,0.0711,0.5535,0.4277,0.5834,0.6622,0.7798,0.8338,0.7432,0.6431,0.7792,0.4338,0.7603,0.7162,0.2493,-0.3346,-0.0112,-0.9923,0.1033,-0.6125,-0.1475,0.4009,0.1714,0.2452,-0.1719,-0.0201,0.2699,0.4155,-0.1908,0.1305
0.1633,0.2725,0.8097,0.6655,0.8239,0.9277,0.9994,0.9489,0.8096,0.7911,0.856,0.4618,0.8856,0.9081,0.4176,-0.1152,0.182,-0.8733,0.2689,-0.3779,0.0708,0.4892,0.2222,0.2988,-0.1647,-0.0563,0.2817,0.4217,-0.0622,0.3441
0.3681,0.5114,1.0688,0.9258,1.0888,1.1911,1.2362,1.0636,0.8983,0.9565,0.9455,0.5102,1.0501,1.1395,0.6234,0.1438,0.4152,-0.7163,0.468,-0.101,0.3325,0.6117,0.3035,0.3861,-0.1335,-0.0602,0.3294,0.4548,0.0811,0.5614
0.5847,0.7738,1.3116,1.1946,1.3626,1.4397,1.4752,1.1699,1.0064,1.1276,1.0447,0.5778,1.2433,1.3951,0.852,0.4261,0.6733,-0.5327,0.6915,0.2019,0.6216,0.7649,0.4148,0.5046,-0.0792,-0.03,0.4119,0.5159,0.2196,0.7604
0.8023,1.0451,1.5233,1.4583,1.629,1.6628,1.6993,1.2584,1.1257,1.2913,1.1487,0.6612,1.4509,1.6566,1.0901,0.7169,0.9412,-0.333,0.9299,0.5151,0.9203,0.943,0.5531,0.6484,-0.0032,0.0333,0.5253,0.6044,0.3399,0.9247
1.0121,1.3117,1.6951,1.7054,1.873,1.8518,1.8926,1.3196,1.2443,1.4353,1.251,0.7549,1.6568,1.9058,1.3271,1.0042,1.2061,-0.126,1.1742,0.825,1.2118,1.1388,0.7137,0.8098,0.0928,0.1267,0.6632,0.7178,0.4372,1.0455
1.2075,1.5627,1.8242,1.9271,2.0829,2.0008,2.0421,1.3455,1.349,1.5493,1.345,0.8519,1.846,2.1275,1.5554,1.2797,1.4583,0.0814,1.4169,1.1214,1.4828,1.3437,0.8902,0.9799,0.2069,0.2448,0.8177,0.8511,0.5146,1.122
1.383,1.7901,1.9118,2.1172,2.2507,2.1068,2.1406,1.3319,1.4285,1.6274,1.4247,0.9446,2.0066,2.3117,1.7702,1.5378,1.6909,0.2828,1.6511,1.3969,1.7244,1.5483,1.0748,1.15,0.3353,0.3803,0.9799,0.9967,0.5797,1.1597
1.534,1.9877,1.9622,2.2709,2.373,2.1693,2.1871,1.28,1.4757,1.6683,1.4862,1.0254,2.1308,2.4541,1.9672,1.7742,1.8987,0.4716,1.8697,1.6467,1.9324,1.7427,1.2584,1.3115,0.4721,0.5237,1.1398,1.1444,0.6406,1.1677
1.656,2.1507,1.9802,2.3844,2.4505,2.1902,2.1867,1.1967,1.4893,1.675,1.5272,1.0877,2.2152,2.5552,2.1418,1.9843,2.0777,0.6404,2.0658,1.8667,2.1061,1.9168,1.431,1.4556,0.6084,0.6634,1.2867,1.2822,0.7016,1.1559
1.745,2.2745,1.9701,2.4541,2.4864,2.1734,2.1491,1.0942,1.4738,1.6535,1.5478,1.1267,2.2596,2.619,2.2882,2.1628,2.2238,0.7812,2.2319,2.053,2.2462,2.0617,1.5827,1.5739,0.733,0.7873,1.4094,1.3977,0.7613,1.1321
1.7977,2.3546,1.9352,2.4774,2.4857,2.1238,2.0855,0.9871,1.4374,1.6107,1.5489,1.1393,2.2658,2.6501,2.3994,2.3032,2.3336,0.8862,2.3615,2.2017,2.3534,2.1702,1.7046,1.6586,0.8341,0.884,1.4977,1.4796,0.8123,1.1014
1.8124,2.3872,1.8773,2.4537,2.4537,2.0475,2.0062,0.8897,1.3903,1.5531,1.5323,1.1249,2.2368,2.6519,2.4689,2.3991,2.4044,0.9502,2.4493,2.3086,2.4272,2.2376,1.7902,1.7038,0.9014,0.9447,1.5437,1.5201,0.8434,1.0656
1.7898,2.3702,1.798,2.3855,2.3955,1.9511,1.9188,0.8133,1.3418,1.485,1.5,1.0853,2.1761,2.6263,2.4921,2.446,2.4347,0.9717,2.493,2.3705,2.4658,2.2629,1.8364,1.7067,0.929,0.9652,1.5435,1.5156,0.8432,1.0239
1.7338,2.3058,1.6994,2.2793,2.3162,1.8422,1.8279,0.7642,1.2989,1.4091,1.4543,1.0245,2.0881,2.5744,2.469,2.4427,2.4256,0.9539,2.4932,2.3858,2.468,2.2482,1.8441,1.6691,0.9168,0.9467,1.4984,1.468,0.8047,0.9751
1.6515,2.201,1.5858,2.1466,2.2215,1.7291,1.7356,0.7427,1.2651,1.3269,1.398,0.9485,1.979,2.4978,2.4044,2.3932,2.3808,0.9047,2.4548,2.3566,2.4343,2.1994,1.8182,1.5976,0.871,0.896,1.4157,1.3849,0.728,0.9185
1.5532,2.0687,1.4641,2.0027,2.119,1.6209,1.6437,0.7448,1.2414,1.2407,1.3351,0.8651,1.8576,2.4016,2.3092,2.3073,2.3073,0.8356,2.3863,2.2894,2.3696,2.1252,1.7672,1.5041,0.8033,0.8249,1.3082,1.2782,0.6211,0.8553
1.4517,1.9268,1.3441,1.8654,2.0183,1.5273,1.5553,0.7634,1.2263,1.1546,1.2708,0.7829,1.7358,2.2951,2.1986,2.2002,2.2155,0.7605,2.2996,2.1959,2.2839,2.0371,1.7021,1.4039,0.7286,0.7475,1.1928,1.1632,0.4991,0.7891
1.3611,1.7961,1.2381,1.753,1.9315,1.4578,1.4761,0.7911,1.2179,1.0756,1.2116,0.711,1.6282,2.1926,2.0909,2.0909,2.1187,0.6935,2.2091,2.0926,2.1925,1.9482,1.6352,1.3138,0.6621,0.6786,1.0879,1.0563,0.3808,0.7255
1.2947,1.6973,1.1585,1.6817,1.8713,1.4208,1.4144,0.8216,1.2149,1.0133,1.164,0.6579,1.5509,2.1114,2.0044,1.9999,2.032,0.6471,2.1297,1.9994,2.1138,1.8719,1.5785,1.25,0.6168,0.6311,1.0113,0.9726,0.2846,0.6713
1.2631,1.6475,1.116,1.6631,1.8496,1.4214,1.3799,0.8511,1.2171,0.9784,1.1342,0.6307,1.5188,2.0688,1.9552,1.9463,1.9702,0.6304,2.0754,1.9367,2.0667,1.8209,1.5426,1.2256,0.601,0.6138,0.9771,0.9237,0.2245,0.6327
1.2727,1.6572,1.1173,1.7029,1.8747,1.461,1.3812,0.8782,1.226,0.9804,1.1266,0.6342,1.543,2.0785,1.9542,1.9444,1.9458,0.6473,2.0573,1.9221,2.0669,1.8047,1.5348,1.2483,0.6176,0.6308,0.9936,0.9163,0.2073,0.6138
1.3239,1.7288,1.1628,1.7998,1.9494,1.5363,1.4235,0.9032,1.2437,1.0254,1.1431,0.6699,1.6285,2.1477,2.0057,2.0017,1.9667,0.6961,2.0816,1.9672,2.1233,1.8284,1.5582,1.3191,0.6635,0.681,1.0619,0.9515,0.2311,0.6156
1.4121,1.8559,1.2472,1.946,2.0695,1.6398,1.5065,0.9273,1.2721,1.1138,1.1819,0.7358,1.772,2.2742,2.1062,2.1171,2.0346,0.7696,2.1484,2.0749,2.2365,1.8916,1.6104,1.4319,0.7308,0.758,1.1752,1.0243,0.2866,0.6359
1.5277,2.0251,1.3592,2.1281,2.2242,1.7608,1.6231,0.9511,1.312,1.2387,1.2382,0.8257,1.9615,2.4465,2.2453,2.2817,2.1442,0.8563,2.252,2.2389,2.3975,1.9875,1.6844,1.574,0.8079,0.8517,1.3196,1.1247,0.3591,0.6691
1.6584,2.2179,1.4838,2.3288,2.3973,1.8869,1.7604,0.9741,1.3615,1.3871,1.3037,0.9296,2.1778,2.6453,2.407,2.4793,2.2844,0.9428,2.3811,2.4438,2.5897,2.1043,1.7695,1.7277,0.8822,0.9494,1.4762,1.2392,0.4323,0.7078
1.7909,2.4132,1.6048,2.5286,2.5695,2.0051,1.9012,0.9937,1.416,1.5406,1.3685,1.0351,2.3961,2.8463,2.5718,2.689,2.4387,1.016,2.5205,2.668,2.7913,2.2264,1.853,1.8734,0.9413,1.0378,1.6239,1.3527,0.4917,0.7442
1.9131,2.5902,1.7077,2.7082,2.7213,2.1039,2.0268,1.0061,1.4681,1.679,1.4215,1.1281,2.59,3.0239,2.7203,2.888,2.5886,1.065,2.6531,2.8866,2.9784,2.3371,1.9224,1.9918,0.9757,1.1045,1.7429,1.4502,0.5272,0.7714
2.0149,2.7309,1.7819,2.8507,2.8362,2.1742,2.1202,1.0063,1.5087,1.7831,1.453,1.1951,2.7347,3.1554,2.8353,3.0542,2.7148,1.0827,2.7622,3.0747,3.1292,2.4207,1.9672,2.0672,0.9789,1.1396,1.817,1.5187,0.5347,0.7849
2.0893,2.8213,1.8218,2.943,2.9028,2.2102,2.1691,0.9898,1.5291,1.838,1.4552,1.2248,2.811,3.2241,2.9042,3.1689,2.8003,1.0657,2.8332,3.211,3.2263,2.4649,1.98,2.0888,0.9485,1.136,1.8355,1.5485,0.5157,0.7836
2.1321,2.8533,1.8277,2.9777,2.9165,2.2104,2.1672,0.9536,1.5226,1.8356,1.4243,1.2096,2.8084,3.2212,2.9202,3.2184,2.8317,1.0141,2.8548,3.2799,3.2591,2.4619,1.9571,2.0521,0.8854,1.0904,1.7945,1.5337,0.4762,0.7692
2.1419,2.8252,1.8045,2.9537,2.8796,2.1772,2.1158,0.8976,1.4867,1.7757,1.3611,1.1472,2.7268,3.1471,2.8826,3.196,2.801,0.9302,2.8208,3.2732,3.2247,2.4092,1.8991,1.9592,0.7939,1.0034,1.6969,1.4732,0.4243,0.746
2.1201,2.7419,1.7599,2.8766,2.8009,2.1165,2.0226,0.8251,1.4241,1.6664,1.2712,1.0415,2.5773,3.011,2.7961,3.1024,2.7067,0.8182,2.7303,3.1917,3.1281,2.3099,1.8102,1.8181,0.6813,0.8799,1.5519,1.3711,0.3677,0.719
2.07,2.6144,1.7026,2.7579,2.6935,2.0364,1.9004,0.7425,1.3422,1.5223,1.1643,0.9024,2.38,2.8293,2.6693,2.946,2.5539,0.6838,2.5887,3.0446,2.9817,2.1724,1.698,1.6426,0.5574,0.7293,1.3744,1.237,0.3122,0.6925
1.9968,2.4585,1.6407,2.6134,2.5731,1.9461,1.7649,0.6584,1.2527,1.3623,1.0532,0.7449,2.1615,2.6235,2.5135,2.7424,2.3545,0.5346,2.4075,2.8483,2.8037,2.0098,1.573,1.4504,0.4337,0.5654,1.1826,1.0851,0.2604,0.6682
1.9069,2.2931,1.58,2.4615,2.4551,1.8538,1.6325,0.5819,1.1688,1.2067,0.9519,0.5867,1.9498,2.4167,2.3409,2.5125,2.1258,0.3796,2.2033,2.6248,2.6152,1.8387,1.4474,1.2611,0.3228,0.405,0.9964,0.9325,0.2123,0.6455
1.8076,2.1369,1.5239,2.3204,2.3528,1.7667,1.5177,0.5213,1.1031,1.0743,0.873,0.4458,1.7706,2.2312,2.1635,2.2794,1.8881,0.2295,1.9957,2.3983,2.4378,1.6766,1.3337,1.0943,0.2363,0.2656,0.8346,0.7972,0.1661,0.622
1.7061,2.0059,1.4737,2.2058,2.2756,1.6901,1.4318,0.4825,1.0655,0.9802,0.8262,0.3381,1.6428,2.0845,1.9922,2.0652,1.663,0.0956,1.8048,2.1915,2.29,1.5402,1.2432,0.9669,0.1834,0.163,0.7129,0.6949,0.1194,0.5942
1.6086,1.9107,1.4288,2.1287,2.2286,1.6269,1.3819,0.4688,1.061,0.9336,0.8169,0.2749,1.5764,1.9877,1.8365,1.8876,1.4694,-0.0123,1.6483,2.0226,2.1841,1.4425,1.1838,0.8905,0.1691,0.1082,0.6412,0.6366,0.0702,0.5597
1.52,1.855,1.3883,2.094,2.2116,1.5789,1.37,0.4804,1.0893,0.9375,0.845,0.2616,1.5716,1.9437,1.7037,1.7574,1.3216,-0.0871,1.5386,1.9028,2.125,1.3906,1.1588,0.8696,0.1931,0.1053,0.6233,0.6272,0.0174,0.5179
1.4435,1.8358,1.351,2.0999,2.2205,1.546,1.3932,0.5146,1.145,0.9877,0.9054,0.2979,1.6197,1.9476,1.5986,1.6775,1.2266,-0.1261,1.4807,1.8349,2.1095,1.3845,1.1662,0.9012,0.2496,0.1515,0.6559,0.6651,-0.0383,0.4705
1.381,1.8451,1.3166,2.1385,2.2478,1.5273,1.4446,0.5659,1.2187,1.0739,0.9892,0.3775,1.7052,1.9879,1.5234,1.6437,1.1838,-0.1316,1.4721,1.8139,2.1275,1.4176,1.1995,0.9751,0.3282,0.2373,0.7301,0.7428,-0.0947,0.4208
1.333,1.8719,1.2855,2.1977,2.2842,1.5209,1.5138,0.6266,1.2986,1.1815,1.0845,0.4903,1.8095,2.05,1.4776,1.6461,1.185,-0.1098,1.503,1.8289,2.1651,1.4778,1.2489,1.0762,0.4165,0.3494,0.833,0.8492,-0.1478,0.3734
1.2997,1.9056,1.2589,2.2636,2.3205,1.5247,1.5892,0.6877,1.3726,1.294,1.1794,0.6236,1.9147,2.1186,1.4582,1.6721,1.2172,-0.0691,1.5593,1.8656,2.2078,1.5506,1.304,1.1881,0.5019,0.4725,0.9498,0.9711,-0.193,0.3326
1.2806,1.9375,1.2388,2.3228,2.3493,1.5363,1.6594,0.7402,1.4305,1.3956,1.2635,0.7641,2.0063,2.1812,1.4605,1.7088,1.2648,-0.0185,1.6249,1.9097,2.243,1.6221,1.3564,1.2952,0.574,0.5922,1.0659,1.095,-0.2257,0.3018
1.2747,1.9626,1.2278,2.3651,2.3661,1.5539,1.7147,0.7764,1.465,1.4736,1.3294,0.899,2.0754,2.2288,1.4781,1.7448,1.3128,0.0337,1.6854,1.9487,2.2623,1.6813,1.4007,1.3857,0.6259,0.6961,1.1688,1.2088,-0.2428,0.2835
1.2798,1.9786,1.2283,2.3841,2.3693,1.5761,1.7482,0.7917,1.4733,1.5199,1.3732,1.0173,2.1184,2.2571,1.5032,1.7716,1.3486,0.0811,1.7297,1.9736,2.2617,1.7218,1.4356,1.4519,0.6547,0.7745,1.2484,1.3018,-0.2441,0.2791
1.2916,1.9854,1.242,2.3775,2.36,1.6012,1.7562,0.7853,1.4561,1.5308,1.3944,1.1098,2.1366,2.2646,1.5273,1.783,1.3639,0.1184,1.7514,1.9787,2.2413,1.7411,1.462,1.4904,0.6604,0.8212,1.2979,1.3655,-0.2328,0.2885
1.304,1.9832,1.2684,2.3466,2.3407,1.6269,1.7384,0.7599,1.4172,1.507,1.3947,1.17,2.1337,2.2521,1.541,1.7751,1.3539,0.1415,1.748,1.9617,2.2035,1.7399,1.4812,1.501,0.6455,0.8326,1.3137,1.3937,-0.2156,0.3101
1.3087,1.972,1.3039,2.2948,2.3139,1.6497,1.6969,0.7215,1.3618,1.4521,1.3771,1.1939,2.1143,2.2212,1.5345,1.7454,1.3178,0.1466,1.7201,1.9225,2.152,1.7203,1.4926,1.4856,0.614,0.8085,1.2951,1.3831,-0.2022,0.3397
1.2957,1.9503,1.3414,2.2265,2.2814,1.6649,1.6361,0.6773,1.2954,1.3715,1.3445,1.1801,2.0822,2.1735,1.4985,1.6929,1.2566,0.1294,1.6701,1.8625,2.0903,1.6846,1.4921,1.4472,0.5703,0.7513,1.2441,1.3335,-0.2044,0.3698
1.2545,1.9158,1.3701,2.1452,2.2434,1.6661,1.5613,0.6347,1.2221,1.271,1.2993,1.1297,2.0397,2.1106,1.424,1.6168,1.1724,0.0852,1.6004,1.7837,2.0209,1.6337,1.4715,1.3888,0.519,0.6658,1.1648,1.2474,-0.2348,0.3894
1.1749,1.8646,1.3771,2.0534,2.1986,1.6465,1.478,0.5997,1.1446,1.1563,1.2429,1.0454,1.9874,2.0337,1.3032,1.5166,1.0668,0.0088,1.5123,1.6876,1.9447,1.5672,1.42,1.3132,0.4641,0.5581,1.0628,1.1295,-0.3052,0.3856
1.0487,1.7931,1.3502,1.9515,2.1441,1.5998,1.391,0.576,1.064,1.032,1.1762,0.9311,1.9251,1.9438,1.1304,1.3923,0.9405,-0.1043,1.4057,1.5752,1.8612,1.4834,1.3268,1.2228,0.4088,0.4345,0.9439,0.9859,-0.4237,0.3456
0.8724,1.6988,1.2813,1.8389,2.0772,1.5227,1.3033,0.5645,0.9802,0.9014,1.0999,0.7922,1.8522,1.8419,0.9039,1.2445,0.7938,-0.2559,1.2801,1.4471,1.7694,1.3808,1.1848,1.1199,0.3551,0.3012,0.8136,0.8234,-0.5932,0.2611
0.6489,1.5818,1.1696,1.7154,1.9967,1.4159,1.2168,0.564,0.8927,0.7668,1.0152,0.6349,1.7693,1.7296,0.6282,1.0755,0.6282,-0.4433,1.136,1.3046,1.6685,1.2594,0.994,1.007,0.3037,0.1629,0.6764,0.6483,-0.8093,0.1313
0.3885,1.4463,1.0226,1.5823,1.9041,1.2855,1.1318,0.5713,0.8016,0.63,0.9241,0.4661,1.6781,1.6096,0.3148,0.8904,0.4479,-0.6585,0.9772,1.1508,1.5593,1.1228,0.7631,0.8872,0.2544,0.0231,0.5361,0.4666,-1.0609,-0.0358
0.1083,1.3003,0.8555,1.4435,1.8041,1.1422,1.0483,0.5825,0.7078,0.4923,0.8296,0.2935,1.5821,1.4854,-0.0183,0.697,0.26,-0.8882,0.8104,0.991,1.4449,0.9776,0.5096,0.7643,0.2063,-0.1158,0.3958,0.2838,-1.3309,-0.2239
