FP1,F3,F7,FC3,C3,C5,P3,P7,PO7,PO3,O1,Oz,Pz,CPz,FP2,Fz,F4,F8,FC4,FCz,Cz,C4,C6,P4,P8,PO8,PO4,O2,HEOG_left,HEOG_right
-1.1398,-0.7355,-0.767,-0.6444,-1.4043,-0.752,-0.6874,-0.3949,0.1339,-0.4249,-0.1625,-0.4232,-0.9276,-1.5031,-0.6921,-1.2874,-1.4728,-0.403,-1.8316,-1.562,-1.5989,-2.2372,-1.8347,-1.0645,-0.557,-0.4666,-0.637,-0.2989,-0.1989,-0.4856
-0.9637,-0.6475,-0.5218,-0.6438,-1.1631,-0.6541,-0.5742,-0.2199,0.0722,-0.3917,-0.2071,-0.3961,-0.7112,-1.0284,-0.6502,-1.0518,-1.3381,-0.3784,-1.6134,-1.2664,-1.2342,-1.8736,-1.5501,-0.7124,-0.3791,-0.2785,-0.4817,-0.249,-0.3025,-0.4749
-0.8061,-0.5673,-0.2991,-0.6437,-0.9336,-0.5587,-0.45,-0.0439,0.0314,-0.3427,-0.2294,-0.3681,-0.5015,-0.5895,-0.6099,-0.835,-1.2112,-0.3626,-1.404,-0.9925,-0.8928,-1.5277,-1.2835,-0.385,-0.219,-0.1159,-0.3356,-0.2107,-0.3973,-0.4652
-0.6844,-0.504,-0.1238,-0.6452,-0.7282,-0.4706,-0.3085,0.1298,0.0271,-0.2674,-0.2152,-0.3375,-0.3051,-0.2175,-0.5755,-0.6554,-1.1,-0.3639,-1.2128,-0.7606,-0.5969,-1.2139,-1.0476,-0.1028,-0.0891,0.0034,-0.2038,-0.1896,-0.4794,-0.4589
-0.6102,-0.4649,-0.0129,-0.651,-0.5574,-0.3941,-0.1491,0.296,0.0683,-0.1617,-0.1589,-0.3016,-0.1279,0.0655,-0.5515,-0.5268,-1.0111,-0.3853,-1.0481,-0.5851,-0.3637,-0.943,-0.8508,0.1197,0.0036,0.0709,-0.0885,-0.1855,-0.5465,-0.4572
-0.5868,-0.4546,0.0276,-0.6649,-0.4281,-0.332,0.0227,0.4482,0.1555,-0.0286,-0.064,-0.257,0.0256,0.2497,-0.5411,-0.4563,-0.9481,-0.4236,-0.915,-0.4727,-0.2034,-0.7204,-0.6956,0.2761,0.0588,0.0895,0.0118,-0.1916,-0.5984,-0.4596
-0.6089,-0.4737,0.0017,-0.6889,-0.3425,-0.2853,0.1966,0.5793,0.2813,0.1225,0.0579,-0.2006,0.1529,0.3379,-0.5452,-0.4429,-0.9109,-0.4701,-0.815,-0.4223,-0.1176,-0.5451,-0.5783,0.3678,0.0824,0.0716,0.1009,-0.1968,-0.6356,-0.4638
-0.6636,-0.5183,-0.0781,-0.7222,-0.2972,-0.2527,0.3594,0.6833,0.4318,0.2778,0.1902,-0.1307,0.2532,0.3436,-0.5622,-0.4779,-0.8945,-0.5131,-0.7446,-0.4255,-0.0999,-0.4112,-0.4907,0.4035,0.0842,0.0353,0.1839,-0.1886,-0.6594,-0.4661
-0.7339,-0.5816,-0.195,-0.7609,-0.2848,-0.2319,0.4967,0.7562,0.5886,0.4213,0.3145,-0.0486,0.3264,0.2868,-0.588,-0.5473,-0.8902,-0.5413,-0.697,-0.4694,-0.1378,-0.3098,-0.4217,0.3957,0.0754,0.0002,0.264,-0.1574,-0.6712,-0.4627
-0.803,-0.6555,-0.3311,-0.7985,-0.2958,-0.2202,0.5944,0.7964,0.7311,0.5369,0.4141,0.0407,0.3716,0.1889,-0.6171,-0.6348,-0.888,-0.5468,-0.6639,-0.5402,-0.2162,-0.2317,-0.3611,0.3572,0.0654,-0.0182,0.3412,-0.0995,-0.673,-0.4508
-0.858,-0.7321,-0.4704,-0.8278,-0.3213,-0.2165,0.6404,0.8045,0.8393,0.6101,0.4761,0.1282,0.3856,0.0675,-0.6442,-0.725,-0.8786,-0.527,-0.6375,-0.6254,-0.3206,-0.1711,-0.3017,0.2976,0.06,-0.0113,0.4101,-0.0191,-0.6672,-0.4297
-0.8914,-0.8047,-0.6001,-0.8425,-0.3549,-0.2206,0.6264,0.7823,0.8964,0.63,0.4933,0.2021,0.3629,-0.0657,-0.6648,-0.8058,-0.8565,-0.4854,-0.613,-0.7157,-0.4395,-0.1266,-0.2418,0.2214,0.0596,0.0204,0.4606,0.0719,-0.6563,-0.4008
-0.9022,-0.8677,-0.7105,-0.8385,-0.3927,-0.233,0.5497,0.7336,0.8919,0.5912,0.4649,0.2505,0.2977,-0.2057,-0.6762,-0.8695,-0.8202,-0.4303,-0.5886,-0.8051,-0.5649,-0.1015,-0.1857,0.1278,0.0604,0.0681,0.4793,0.1563,-0.6431,-0.3682
-0.8932,-0.9163,-0.7941,-0.8147,-0.4325,-0.2542,0.415,0.6633,0.8237,0.4954,0.3967,0.2637,0.1864,-0.3519,-0.6776,-0.9124,-0.7725,-0.3726,-0.5659,-0.8898,-0.692,-0.1021,-0.1428,0.0126,0.0549,0.1173,0.4528,0.2153,-0.6294,-0.3365
-0.8687,-0.9462,-0.8454,-0.7729,-0.4722,-0.2826,0.2353,0.5773,0.6984,0.3519,0.2997,0.2373,0.0304,-0.505,-0.6689,-0.9339,-0.7186,-0.3233,-0.5475,-0.9666,-0.8169,-0.1349,-0.1243,-0.1283,0.0352,0.1512,0.3714,0.2324,-0.6153,-0.3103
-0.8319,-0.9533,-0.8602,-0.717,-0.5086,-0.3149,0.0304,0.4827,0.5309,0.1767,0.1884,0.1729,-0.1618,-0.6637,-0.6504,-0.9346,-0.664,-0.2906,-0.5356,-1.0315,-0.9347,-0.2028,-0.1394,-0.2958,-0.0054,0.1548,0.2324,0.1976,-0.5991,-0.292
-0.7836,-0.9336,-0.8369,-0.6511,-0.5363,-0.3454,-0.1755,0.3864,0.3416,-0.0095,0.0775,0.0786,-0.374,-0.822,-0.6218,-0.9153,-0.6122,-0.2784,-0.5302,-1.0784,-1.0382,-0.3024,-0.1917,-0.4845,-0.0694,0.1182,0.0428,0.1094,-0.5777,-0.2817
-0.7221,-0.8833,-0.7766,-0.578,-0.5478,-0.3666,-0.3572,0.2955,0.1534,-0.1847,-0.0202,-0.0321,-0.5839,-0.9684,-0.5817,-0.8749,-0.5632,-0.2849,-0.528,-1.0991,-1.1167,-0.4222,-0.2761,-0.6813,-0.154,0.0391,-0.1804,-0.0242,-0.5467,-0.2767
-0.6441,-0.7985,-0.6827,-0.4976,-0.5349,-0.3709,-0.4926,0.2158,-0.012,-0.3284,-0.0957,-0.1429,-0.7655,-1.086,-0.5274,-0.8105,-0.5134,-0.3029,-0.5221,-1.0834,-1.1562,-0.5433,-0.3785,-0.8656,-0.2509,-0.0761,-0.411,-0.1864,-0.5018,-0.2728
-0.5466,-0.6767,-0.5603,-0.4071,-0.4906,-0.3515,-0.5665,0.1517,-0.1381,-0.4249,-0.1449,-0.2369,-0.8934,-1.1557,-0.4561,-0.7188,-0.4564,-0.3211,-0.504,-1.022,-1.1423,-0.6421,-0.4778,-1.0115,-0.3465,-0.2128,-0.6174,-0.3538,-0.4398,-0.2649
-0.429,-0.5184,-0.4154,-0.3034,-0.4121,-0.3054,-0.5731,0.1043,-0.2161,-0.4659,-0.168,-0.2998,-0.9471,-1.1598,-0.3666,-0.5976,-0.3859,-0.3272,-0.4658,-0.9092,-1.0632,-0.696,-0.5511,-1.0933,-0.4245,-0.3503,-0.7683,-0.5008,-0.3598,-0.2491
-0.2943,-0.329,-0.2547,-0.1858,-0.303,-0.2345,-0.5177,0.0712,-0.2471,-0.4522,-0.1698,-0.3231,-0.9156,-1.0872,-0.2607,-0.4489,-0.2986,-0.3111,-0.4037,-0.7465,-0.9147,-0.6886,-0.5794,-1.0903,-0.4692,-0.4662,-0.8393,-0.604,-0.2639,-0.2239
-0.1501,-0.1202,-0.0852,-0.059,-0.1742,-0.1469,-0.4158,0.046,-0.2416,-0.3934,-0.1575,-0.3054,-0.8008,-0.937,-0.1446,-0.2808,-0.196,-0.2679,-0.3198,-0.5445,-0.703,-0.615,-0.5526,-0.9933,-0.4691,-0.541,-0.8186,-0.648,-0.1578,-0.1904
-0.007,0.0911,0.0851,0.0672,-0.0422,-0.0555,-0.2902,0.0197,-0.2173,-0.3066,-0.1398,-0.2536,-0.6172,-0.7206,-0.028,-0.1066,-0.0846,-0.1989,-0.2223,-0.3221,-0.4456,-0.4832,-0.4718,-0.8074,-0.4197,-0.5629,-0.7113,-0.6284,-0.0497,-0.152
0.1242,0.2851,0.2473,0.1791,0.0744,0.0243,-0.1659,-0.0168,-0.1946,-0.2121,-0.125,-0.1809,-0.3907,-0.4601,0.0782,0.0571,0.0255,-0.111,-0.123,-0.1031,-0.1688,-0.3119,-0.3478,-0.5524,-0.3251,-0.5305,-0.5385,-0.5528,0.052,-0.1119
0.2352,0.4432,0.3921,0.2631,0.1593,0.0779,-0.0654,-0.07,-0.1923,-0.1303,-0.1195,-0.1048,-0.1534,-0.1846,0.1651,0.1951,0.1247,-0.0142,-0.0332,0.0891,0.0973,-0.1253,-0.1975,-0.2597,-0.1977,-0.4537,-0.3334,-0.4401,0.1412,-0.0716
0.3225,0.5522,0.5106,0.31,0.2026,0.0955,-0.0039,-0.1423,-0.2233,-0.0772,-0.1273,-0.0429,0.0616,0.0756,0.2285,0.2964,0.2067,0.081,0.0398,0.2371,0.3252,0.0527,-0.0389,0.0333,-0.0561,-0.3513,-0.135,-0.3151,0.2152,-0.0295
0.3878,0.6067,0.5959,0.3177,0.2028,0.0742,0.0125,-0.2311,-0.2922,-0.0622,-0.1497,-0.0098,0.2262,0.2944,0.2701,0.3577,0.2703,0.1665,0.0951,0.3326,0.4952,0.2043,0.1128,0.2896,0.078,-0.2468,0.0207,-0.2041,0.2755,0.0188
0.4367,0.6099,0.6446,0.2926,0.1673,0.0189,-0.0126,-0.3296,-0.3939,-0.0869,-0.1856,-0.014,0.3213,0.4535,0.2966,0.3833,0.3198,0.2381,0.1376,0.3779,0.5983,0.3209,0.248,0.4795,0.1844,-0.1633,0.1071,-0.1285,0.3264,0.0786
0.4759,0.5728,0.6573,0.2478,0.1099,-0.0583,-0.0682,-0.4278,-0.5153,-0.1453,-0.2314,-0.0562,0.3393,0.5449,0.3175,0.384,0.3626,0.2953,0.1763,0.3847,0.6369,0.4031,0.3624,0.5849,0.2477,-0.1178,0.1117,-0.1007,0.3728,0.1537
0.5109,0.5118,0.6384,0.2003,0.0481,-0.1406,-0.1386,-0.5148,-0.6376,-0.2252,-0.2813,-0.1292,0.2849,0.5709,0.342,0.3742,0.407,0.3407,0.221,0.3705,0.6229,0.459,0.4567,0.6019,0.2609,-0.1183,0.0382,-0.1216,0.418,0.2443
0.5453,0.4462,0.5958,0.1674,-0.0007,-0.2096,-0.2064,-0.5802,-0.7397,-0.3101,-0.3268,-0.2193,0.1737,0.5424,0.3769,0.3691,0.4599,0.3785,0.2799,0.3549,0.5747,0.5012,0.5345,0.5409,0.226,-0.1617,-0.0948,-0.181,0.4627,0.3456
0.5799,0.3951,0.539,0.1636,-0.0215,-0.2486,-0.256,-0.6152,-0.8027,-0.3821,-0.358,-0.3085,0.03,0.4772,0.4248,0.3818,0.5252,0.4122,0.3583,0.3564,0.514,0.543,0.6003,0.4241,0.1544,-0.2348,-0.2575,-0.2594,0.505,0.4486
0.6143,0.3744,0.4782,0.198,-0.0045,-0.2458,-0.2755,-0.6144,-0.8129,-0.4245,-0.3645,-0.3778,-0.1168,0.3968,0.4842,0.4213,0.6043,0.4444,0.4577,0.389,0.462,0.5955,0.6586,0.2817,0.0637,-0.317,-0.4137,-0.3321,0.541,0.5413
0.6477,0.3938,0.4223,0.2731,0.0544,-0.1962,-0.2581,-0.5765,-0.7647,-0.4245,-0.3378,-0.4105,-0.2363,0.3227,0.5502,0.491,0.6957,0.475,0.5766,0.4607,0.4369,0.6653,0.7125,0.146,-0.0249,-0.3843,-0.5273,-0.3737,0.5665,0.6117
0.6791,0.455,0.3778,0.3843,0.1524,-0.1028,-0.2029,-0.5049,-0.6615,-0.3751,-0.2733,-0.3946,-0.3021,0.2737,0.6154,0.588,0.7957,0.5016,0.7104,0.5722,0.4508,0.7535,0.7635,0.0462,-0.0915,-0.4139,-0.5684,-0.3629,0.5785,0.6501
0.7079,0.5505,0.3481,0.5206,0.2808,0.0246,-0.1142,-0.4077,-0.515,-0.2767,-0.1721,-0.3253,-0.2962,0.2619,0.672,0.7033,0.8985,0.5202,0.8521,0.7163,0.5073,0.8547,0.8105,0.0022,-0.1208,-0.3893,-0.5191,-0.2873,0.5758,0.6515
0.7329,0.6649,0.3328,0.6664,0.4264,0.1707,-0.0009,-0.2963,-0.3428,-0.1371,-0.0415,-0.206,-0.2125,0.2917,0.7125,0.8231,0.9963,0.5265,0.9921,0.879,0.6012,0.9581,0.8506,0.021,-0.1055,-0.3039,-0.3778,-0.1464,0.5597,0.6169
0.7527,0.7775,0.3285,0.8037,0.5738,0.3182,0.1248,-0.1841,-0.165,0.0291,0.1055,-0.0476,-0.0586,0.3584,0.7314,0.9315,1.0799,0.5177,1.1196,1.042,0.7189,1.0493,0.8792,0.096,-0.0478,-0.1622,-0.1596,0.0474,0.5334,0.5534
0.7655,0.8672,0.3292,0.9155,0.708,0.4517,0.2489,-0.0844,-0.0013,0.2027,0.2519,0.1328,0.1456,0.4505,0.7266,1.0138,1.1405,0.4936,1.2235,1.1855,0.8416,1.1131,0.8911,0.2084,0.0417,0.0207,0.106,0.2707,0.5017,0.4727
0.7698,0.9169,0.3282,0.9889,0.817,0.5604,0.3579,-0.0087,0.1323,0.3631,0.3794,0.3147,0.3711,0.5518,0.6998,1.0593,1.1709,0.4577,1.2942,1.292,0.9495,1.1366,0.8822,0.3329,0.1464,0.2221,0.3807,0.4941,0.47,0.3889
0.7655,0.9182,0.3201,1.0177,0.8943,0.6404,0.4403,0.0348,0.2256,0.4912,0.471,0.4776,0.5857,0.6455,0.6567,1.064,1.1676,0.4162,1.3255,1.3499,1.0258,1.1128,0.8506,0.4435,0.2472,0.4166,0.6255,0.6879,0.4445,0.3161
0.7547,0.873,0.3021,1.0039,0.939,0.6944,0.4888,0.0417,0.2744,0.5727,0.5145,0.6042,0.7603,0.7175,0.6064,1.0318,1.1317,0.3773,1.3153,1.3557,1.0604,1.0421,0.7975,0.5196,0.3274,0.5814,0.8086,0.8288,0.4306,0.2654
0.7409,0.7935,0.2755,0.9577,0.9556,0.7301,0.501,0.0117,0.2804,0.6003,0.5038,0.683,0.8736,0.7587,0.5593,0.9728,1.0697,0.3492,1.2669,1.3143,1.0517,0.9329,0.7279,0.551,0.376,0.7002,0.911,0.9037,0.4328,0.2433
0.7285,0.6991,0.2443,0.8951,0.952,0.7571,0.4797,-0.0522,0.2497,0.5745,0.4404,0.7094,0.9161,0.7666,0.5248,0.9017,0.9918,0.338,1.1883,1.2377,1.0064,0.8005,0.6497,0.5389,0.3896,0.7655,0.9286,0.912,0.453,0.2501
0.7209,0.6108,0.2137,0.8331,0.9365,0.7833,0.4312,-0.144,0.1909,0.5027,0.3325,0.6856,0.8903,0.7449,0.5088,0.8334,0.9106,0.3466,1.0909,1.1419,0.9369,0.6641,0.5725,0.4941,0.3723,0.779,0.8707,0.8634,0.4894,0.2802
0.7187,0.5457,0.1878,0.7853,0.9149,0.8118,0.3638,-0.2563,0.1137,0.397,0.1932,0.6196,0.8085,0.7014,0.5118,0.7799,0.8375,0.374,0.9872,1.0429,0.8582,0.5419,0.5057,0.433,0.3336,0.749,0.7557,0.7744,0.5355,0.323
0.7197,0.5124,0.1672,0.7577,0.888,0.8395,0.2852,-0.3806,0.0276,0.2714,0.0377,0.5225,0.689,0.6461,0.5283,0.7472,0.7808,0.4145,0.8883,0.9536,0.7843,0.4479,0.4556,0.3722,0.2841,0.6869,0.6049,0.6633,0.5807,0.365
0.7186,0.5083,0.1483,0.747,0.8508,0.8577,0.2009,-0.5082,-0.0591,0.1392,-0.1198,0.4064,0.5515,0.5881,0.5483,0.7343,0.7427,0.459,0.8013,0.8803,0.7246,0.3882,0.4243,0.3232,0.2326,0.6034,0.4373,0.5452,0.6117,0.3926
0.7086,0.5207,0.1234,0.7411,0.7939,0.8541,0.1133,-0.6299,-0.1393,0.0104,-0.2678,0.2826,0.4129,0.5332,0.5597,0.7333,0.7199,0.4957,0.7283,0.8224,0.6819,0.3601,0.4089,0.2893,0.1831,0.5056,0.266,0.4298,0.6152,0.3951
0.6831,0.5301,0.0832,0.7228,0.7055,0.816,0.0223,-0.7369,-0.2073,-0.1084,-0.3985,0.1601,0.2842,0.4828,0.5509,0.7317,0.704,0.5122,0.6663,0.7724,0.6517,0.3541,0.4021,0.266,0.1345,0.3964,0.0978,0.3206,0.5805,0.3663
0.6379,0.5156,0.0193,0.6743,0.5755,0.7343,-0.0736,-0.8209,-0.2586,-0.2136,-0.5071,0.0461,0.17,0.4337,0.5137,0.7152,0.6842,0.4978,0.6087,0.7185,0.6235,0.357,0.3949,0.2427,0.0824,0.2756,-0.065,0.2174,0.5028,0.3063
0.5723,0.4609,-0.0721,0.5825,0.3991,0.6068,-0.1747,-0.875,-0.289,-0.3033,-0.59,-0.0534,0.0698,0.3797,0.4457,0.6717,0.6509,0.4464,0.5481,0.6484,0.5845,0.3561,0.3789,0.2074,0.0216,0.143,-0.2217,0.1188,0.3849,0.2212
0.4901,0.3596,-0.188,0.4435,0.1806,0.4405,-0.2791,-0.8945,-0.2951,-0.3756,-0.644,-0.1336,-0.0199,0.3149,0.351,0.5945,0.5987,0.3591,0.4795,0.5535,0.5229,0.3435,0.3487,0.1512,-0.051,0.0016,-0.3693,0.0253,0.2376,0.1221
0.3997,0.2181,-0.3172,0.2651,-0.065,0.2518,-0.3812,-0.878,-0.2739,-0.4278,-0.6661,-0.1903,-0.102,0.2361,0.2404,0.4855,0.5298,0.2458,0.4032,0.4329,0.4333,0.3185,0.3044,0.0716,-0.1342,-0.1407,-0.5013,-0.0589,0.0785,0.0232
0.3132,0.0562,-0.4417,0.0678,-0.3124,0.0651,-0.4729,-0.8269,-0.2245,-0.4569,-0.654,-0.2203,-0.177,0.1462,0.1305,0.3564,0.4548,0.1242,0.3269,0.2958,0.3198,0.2886,0.2521,-0.0255,-0.2222,-0.2708,-0.6073,-0.1265,-0.07,-0.0605
0.2453,-0.0956,-0.5391,-0.1183,-0.5289,-0.0914,-0.5447,-0.746,-0.1488,-0.4601,-0.6076,-0.2213,-0.2411,0.055,0.042,0.2281,0.392,0.0176,0.2651,0.1615,0.1968,0.2681,0.2035,-0.1264,-0.3056,-0.3723,-0.675,-0.1678,-0.1846,-0.1155
0.2113,-0.2016,-0.5875,-0.2575,-0.6797,-0.1898,-0.589,-0.6424,-0.0526,-0.4367,-0.5302,-0.1931,-0.2874,-0.0222,-0.0038,0.1272,0.3642,-0.0492,0.2369,0.0563,0.0876,0.2742,0.1737,-0.2122,-0.373,-0.4289,-0.6924,-0.1741,-0.244,-0.1311
0.2253,-0.228,-0.5701,-0.3159,-0.7348,-0.2085,-0.6012,-0.5251,0.0542,-0.3885,-0.4288,-0.1371,-0.3069,-0.0674,0.0122,0.0813,0.3934,-0.0543,0.2613,0.0082,0.0192,0.3231,0.1782,-0.2632,-0.4139,-0.4276,-0.652,-0.1392,-0.2322,-0.1008
0.2977,-0.1503,-0.4786,-0.2682,-0.6758,-0.1364,-0.5814,-0.4041,0.1586,-0.3206,-0.3141,-0.0568,-0.2918,-0.0646,0.1026,0.1122,0.4954,0.0169,0.3523,0.0401,0.0162,0.4245,0.2291,-0.2632,-0.4206,-0.3622,-0.5525,-0.0616,-0.141,-0.023
0.4335,0.0411,-0.315,-0.104,-0.5007,0.024,-0.5339,-0.2891,0.2469,-0.2408,-0.1981,0.0426,-0.2376,-0.0047,0.2707,0.2313,0.6752,0.169,0.5138,0.1634,0.0932,0.5786,0.3321,-0.2045,-0.3905,-0.2356,-0.4009,0.0544,0.029,0.0996
0.6309,0.337,-0.0915,0.1681,-0.2261,0.2558,-0.4652,-0.189,0.3079,-0.1573,-0.0925,0.1548,-0.1451,0.1114,0.509,0.4352,0.9249,0.3948,0.7376,0.3741,0.2505,0.7742,0.4838,-0.09,-0.3273,-0.061,-0.2122,0.1988,0.2684,0.2602
0.8811,0.7096,0.1718,0.5203,0.1149,0.5302,-0.3825,-0.1097,0.3362,-0.0772,-0.0058,0.2725,-0.0205,0.2713,0.8,0.7059,1.224,0.6757,1.0031,0.652,0.4718,0.9901,0.6708,0.0658,-0.2415,0.1391,-0.0081,0.3566,0.5599,0.4491
1.1676,1.1159,0.4483,0.9094,0.4779,0.81,-0.2913,-0.0536,0.3342,-0.0047,0.0586,0.3881,0.1252,0.4533,1.1175,1.0126,1.5429,0.9839,1.2803,0.9633,0.7263,1.1978,0.8716,0.2395,-0.1488,0.3358,0.1859,0.5094,0.8799,0.6542
1.4675,1.5035,0.7085,1.2824,0.8142,1.0557,-0.1949,-0.0187,0.3118,0.0601,0.1028,0.4951,0.278,0.6302,1.4306,1.3164,1.8475,1.2852,1.5342,1.2661,0.9744,1.3669,1.0589,0.4028,-0.0679,0.4983,0.3449,0.6387,1.2012,0.862
1.7533,1.8191,0.9221,1.5855,1.0795,1.2312,-0.0946,0,0.2837,0.1198,0.133,0.5882,0.4239,0.7748,1.7071,1.5763,2.1041,1.5432,1.7303,1.5175,1.1753,1.4703,1.2053,0.529,-0.0159,0.6008,0.4491,0.7286,1.4956,1.058
1.995,2.0162,1.0615,1.773,1.2408,1.3101,0.0084,0.0092,0.2651,0.1785,0.1577,0.6645,0.5501,0.8654,1.9174,1.7552,2.2834,1.7251,1.8398,1.6801,1.2947,1.4891,1.2876,0.598,-0.0044,0.6279,0.4877,0.7699,1.7359,1.2271
2.1644,2.0634,1.1056,1.8144,1.2814,1.2797,0.111,0.0149,0.2665,0.239,0.1842,0.7235,0.647,0.8894,2.0378,1.8256,2.3646,1.8062,1.8439,1.7288,1.3111,1.4153,1.2922,0.601,-0.0362,0.5784,0.461,0.7617,1.8994,1.3549
2.238,1.9487,1.0431,1.7,1.2027,1.1435,0.2072,0.0206,0.2907,0.3006,0.2162,0.7666,0.7083,0.8444,2.0531,1.7729,2.3363,1.7741,1.7358,1.6538,1.2189,1.253,1.2173,0.5407,-0.1041,0.4666,0.3799,0.7118,1.9698,1.4286
2.2012,1.6816,0.8746,1.4417,1.0222,0.9207,0.2871,0.0262,0.3314,0.3581,0.2521,0.7958,0.7305,0.7374,1.9577,1.5968,2.1975,1.6309,1.5215,1.4613,1.0277,1.0164,1.0725,0.4299,-0.1927,0.318,0.2626,0.6349,1.9393,1.4386
2.0501,1.2907,0.6135,1.0705,0.7688,0.6423,0.3386,0.0282,0.3748,0.402,0.285,0.8125,0.7118,0.5816,1.7564,1.3113,1.9571,1.3921,1.2172,1.1713,0.7592,0.7273,0.8769,0.2867,-0.2818,0.1634,0.13,0.5481,1.8093,1.3798
1.7933,0.8187,0.2837,0.63,0.4757,0.3447,0.3484,0.0213,0.4024,0.4197,0.3042,0.8148,0.651,0.3933,1.4636,0.9418,1.6326,1.0839,0.8478,0.8138,0.4425,0.4105,0.6542,0.1302,-0.3523,0.0308,-0.0002,0.4657,1.5901,1.2528
1.4518,0.3157,-0.0838,0.1696,0.1746,0.0633,0.3059,0.0005,0.3959,0.3983,0.2976,0.7981,0.5479,0.1892,1.103,0.5227,1.249,0.7388,0.4434,0.4239,0.1093,0.0919,0.4295,-0.0243,-0.3905,-0.0625,-0.1175,0.3948,1.3001,1.065
1.0573,-0.1675,-0.4543,-0.2627,-0.1084,-0.1736,0.2055,-0.0368,0.3419,0.3284,0.2553,0.7546,0.4045,-0.0143,0.7056,0.094,0.8386,0.3909,0.0377,0.0382,-0.2091,-0.2037,0.2256,-0.1661,-0.3911,-0.1133,-0.2207,0.3331,0.9645,0.8312
0.6499,-0.5847,-0.7933,-0.625,-0.3542,-0.3476,0.0496,-0.089,0.235,0.2072,0.173,0.6766,0.2265,-0.2003,0.3078,-0.3018,0.4389,0.073,-0.3337,-0.3076,-0.4832,-0.4525,0.0628,-0.2888,-0.3573,-0.1317,-0.3158,0.2704,0.6137,0.5731
0.2739,-0.898,-1.0692,-0.8845,-0.5494,-0.4508,-0.1496,-0.1499,0.0797,0.0405,0.0539,0.5599,0.0266,-0.3501,-0.0505,-0.6233,0.0912,-0.1862,-0.6347,-0.5803,-0.6857,-0.6315,-0.0415,-0.3873,-0.2983,-0.1365,-0.4118,0.1937,0.2819,0.3184
-0.0269,-1.0798,-1.2549,-1.0185,-0.6844,-0.4845,-0.3709,-0.2102,-0.1102,-0.1559,-0.0909,0.4069,-0.1756,-0.4432,-0.3301,-0.8331,-0.1631,-0.363,-0.831,-0.7498,-0.7925,-0.7189,-0.0723,-0.4553,-0.2257,-0.1472,-0.5145,0.093,0.0038,0.098
-0.2152,-1.1137,-1.3297,-1.0149,-0.7512,-0.4557,-0.5861,-0.2596,-0.3141,-0.3589,-0.2443,0.2287,-0.3543,-0.4589,-0.4969,-0.9021,-0.2877,-0.441,-0.8941,-0.7921,-0.7835,-0.6961,-0.0178,-0.4838,-0.1495,-0.1769,-0.6221,-0.033,-0.1889,-0.0587
-0.2653,-0.9959,-1.282,-0.8718,-0.7425,-0.3757,-0.7637,-0.2894,-0.5087,-0.541,-0.3864,0.0443,-0.4809,-0.3793,-0.5268,-0.8136,-0.2571,-0.4119,-0.8054,-0.6916,-0.646,-0.551,0.1284,-0.4621,-0.0755,-0.2275,-0.7233,-0.1746,-0.2725,-0.1284
-0.1675,-0.735,-1.1117,-0.598,-0.6528,-0.2566,-0.8739,-0.2952,-0.6717,-0.675,-0.4986,-0.1221,-0.5295,-0.1941,-0.4107,-0.5658,-0.0618,-0.2779,-0.5609,-0.4448,-0.3778,-0.2814,0.3649,-0.3805,-0.0052,-0.289,-0.7989,-0.3119,-0.2356,-0.0988
0.0698,-0.3512,-0.8313,-0.2126,-0.4799,-0.1107,-0.8931,-0.2772,-0.7854,-0.7386,-0.5669,-0.2454,-0.4817,0.0961,-0.1561,-0.1735,0.289,-0.051,-0.1728,-0.0624,0.0107,0.1021,0.681,-0.2339,0.0639,-0.3431,-0.8265,-0.4198,-0.0817,0.0286
0.4222,0.1254,-0.4663,0.2564,-0.2272,0.051,-0.8085,-0.2403,-0.8393,-0.7189,-0.5841,-0.3051,-0.3307,0.4777,0.2127,0.334,0.7677,0.2485,0.3308,0.4306,0.4959,0.5755,1.0564,-0.0246,0.1355,-0.3689,-0.787,-0.4739,0.1709,0.2392
0.8526,0.6581,-0.0519,0.774,0.0947,0.2197,-0.6211,-0.1924,-0.8312,-0.6141,-0.5507,-0.2892,-0.0835,0.9249,0.6589,0.9161,1.3325,0.5945,0.9093,0.9976,1.043,1.1038,1.4635,0.2357,0.2125,-0.3497,-0.6705,-0.4573,0.4914,0.5072
1.3175,1.2076,0.3715,1.3013,0.4675,0.3887,-0.3462,-0.1424,-0.7671,-0.4346,-0.4742,-0.1972,0.2394,1.4015,1.1377,1.5265,1.9331,0.9582,1.5146,1.5942,1.6092,1.6441,1.8706,0.5269,0.2949,-0.2782,-0.4806,-0.3648,0.8418,0.8005
1.7726,1.7351,0.7639,1.8003,0.866,0.5534,-0.0116,-0.0987,-0.6592,-0.2012,-0.367,-0.0408,0.6062,1.866,1.6031,2.1182,2.5163,1.3109,2.0967,2.1737,2.1486,2.1514,2.2463,0.8229,0.3792,-0.1592,-0.2347,-0.2054,1.1825,1.0851
2.1778,2.2061,1.0913,2.2369,1.2608,0.7111,0.3473,-0.0671,-0.523,0.059,-0.2437,0.1586,0.9787,2.2767,2.0127,2.6482,3.0329,1.6254,2.6085,2.6923,2.6183,2.5832,2.5631,1.0956,0.4587,-0.0082,0.0382,-0.0001,1.4769,1.3296
2.5015,2.5926,1.3301,2.5853,1.6219,0.8605,0.6929,-0.0501,-0.3742,0.3169,-0.1183,0.3738,1.3177,2.5975,2.3324,3.0809,3.4416,1.8777,3.0108,3.1132,2.9825,2.9044,2.7998,1.3193,0.5251,0.1524,0.303,0.222,1.696,1.5081
2.7216,2.8753,1.4691,2.8301,1.9224,1.001,0.992,-0.0468,-0.2258,0.5467,-0.0018,0.5771,1.5883,2.8017,2.5385,3.391,3.713,2.0485,3.2751,3.4105,3.2168,3.0911,2.943,1.474,0.5703,0.2985,0.526,0.4296,1.8207,1.6025
2.8272,3.0446,1.5099,2.9674,2.1419,1.1322,1.2201,-0.0532,-0.0874,0.7288,0.0983,0.7443,1.7643,2.8756,2.6192,3.5641,3.8315,2.1248,3.3859,3.5701,3.3099,3.1315,2.9868,1.5476,0.5884,0.4102,0.6803,0.5956,1.8428,1.603
2.8168,3.1011,1.4651,3.0036,2.2688,1.2531,1.3639,-0.0639,0.0358,0.8516,0.1777,0.8586,1.8316,2.8185,2.5739,3.5974,3.7959,2.1022,3.3413,3.59,3.264,3.0268,2.932,1.536,0.5766,0.475,0.7507,0.7011,1.7646,1.5087
2.6973,3.0543,1.3544,2.9538,2.3006,1.3619,1.4214,-0.0726,0.1413,0.9114,0.2341,0.9114,1.7886,2.6421,2.4124,3.4979,3.6178,1.9859,3.1525,3.4797,3.0926,2.7901,2.7856,1.4431,0.5371,0.4907,0.7353,0.7389,1.5977,1.3266
2.4818,2.9203,1.2012,2.8376,2.2439,1.4561,1.4009,-0.0742,0.2282,0.9113,0.2657,0.903,1.6463,2.368,2.1518,3.2809,3.3195,1.7908,2.8411,3.2574,2.8182,2.4445,2.56,1.2797,0.4765,0.4644,0.645,0.7134,1.3607,1.0708
2.1872,2.7189,1.0282,2.6756,2.1119,1.5324,1.3178,-0.0651,0.2958,0.8596,0.2712,0.8414,1.4259,2.0246,1.8142,2.9677,2.9301,1.539,2.4366,2.9472,2.4688,2.0202,2.2727,1.0624,0.4062,0.4112,0.5004,0.6389,1.0757,0.7608
1.8313,2.4695,0.8541,2.4849,1.9222,1.5871,1.1915,-0.044,0.3431,0.7677,0.2495,0.74,1.1554,1.6433,1.4234,2.5816,2.4808,1.2564,1.9714,2.5759,2.0736,1.5511,1.9452,0.8124,0.3403,0.35,0.3283,0.5365,0.7654,0.4185
1.4313,2.1875,0.6912,2.2765,1.6928,1.6169,1.0426,-0.0118,0.3693,0.6492,0.2012,0.6156,0.8657,1.2543,1.0015,2.1454,2.0011,0.9679,1.477,2.168,1.6599,1.0707,1.601,0.5528,0.293,0.2992,0.1562,0.4293,0.45,0.0662
1.0022,1.8818,0.5434,2.0535,1.4395,1.6183,0.8901,0.0295,0.3753,0.5184,0.1299,0.4858,0.5862,0.8831,0.5666,1.6775,1.5143,0.6931,0.9797,1.7427,1.249,0.6081,1.263,0.3064,0.2761,0.2727,0.0078,0.3375,0.1443,-0.2763
0.5559,1.5536,0.4066,1.8118,1.1732,1.5885,0.7492,0.078,0.365,0.3889,0.0422,0.3661,0.3413,0.5475,0.131,1.1902,1.0354,0.4443,0.498,1.3111,0.8548,0.1846,0.951,0.0915,0.2957,0.2765,-0.1013,0.2742,-0.1429,-0.5937
0.1014,1.1973,0.2693,1.5416,0.8988,1.525,0.6303,0.132,0.3461,0.2729,-0.0522,0.2679,0.147,0.2566,-0.2993,0.6888,0.5703,0.2257,0.0412,0.8761,0.4833,-0.188,0.6786,-0.0804,0.3511,0.3073,-0.1665,0.243,-0.4096,-0.8756
-0.3548,0.8031,0.1153,1.2307,0.616,1.4263,0.5376,0.1898,0.3287,0.1787,-0.1435,0.1969,0.0088,0.011,-0.7232,0.1733,0.1174,0.0343,-0.3895,0.4339,0.1339,-0.5075,0.4517,-0.2075,0.4339,0.3531,-0.1947,0.2374,-0.6587,-1.1172
-0.808,0.3609,-0.0724,0.8682,0.3206,1.2912,0.4683,0.2486,0.3221,0.1088,-0.2241,0.1515,-0.0788,-0.1953,-1.1431,-0.3587,-0.3299,-0.1373,-0.799,-0.0222,-0.198,-0.7797,0.2677,-0.2977,0.53,0.3955,-0.2029,0.2421,-0.8965,-1.318
-1.2541,-0.1352,-0.3074,0.4483,0.0073,1.1192,0.4136,0.302,0.3311,0.059,-0.2912,0.1238,-0.1322,-0.3734,-1.5617,-0.9088,-0.7792,-0.2991,-1.195,-0.4982,-0.5184,-1.016,0.1162,-0.367,0.622,0.4144,-0.215,0.237,-1.1299,-1.4812
-1.6891,-0.6832,-0.5963,-0.0267,-0.3272,0.9107,0.3597,0.3393,0.3536,0.0183,-0.3485,0.1006,-0.175,-0.5366,-1.9795,-1.4743,-1.235,-0.46,-1.5848,-0.9954,-0.8325,-1.2299,-0.018,-0.4356,0.6935,0.3932,-0.2555,0.2025,-1.3642,-1.612
-2.1075,-1.2713,-0.9365,-0.5455,-0.6821,0.6676,0.2903,0.3457,0.3796,-0.0289,-0.4053,0.0674,-0.2335,-0.6978,-2.393,-2.0457,-1.6961,-0.6264,-1.9717,-1.5087,-1.1432,-1.434,-0.1517,-0.5229,0.7322,0.3243,-0.3441,0.1252,-1.6006,-1.7165
-2.5022,-1.8777,-1.3159,-1.0881,-1.0502,0.3945,0.1909,0.3055,0.3945,-0.0984,-0.4731,0.0117,-0.3304,-0.8679,-2.7935,-2.6067,-2.1538,-0.8006,-2.3531,-2.0259,-1.4505,-1.637,-0.2979,-0.6421,0.7333,0.2118,-0.4889,0.0023,-1.836,-1.8004
-2.8636,-2.4729,-1.714,-1.6276,-1.4179,0.1001,0.0526,0.2066,0.383,-0.2015,-0.5619,-0.0729,-0.4786,-1.0527,-3.1672,-3.1348,-2.5912,-0.98,-2.7192,-2.5279,-1.7509,-1.8416,-0.4628,-0.7964,0.7002,0.072,-0.6839,-0.1567,-2.0622,-1.8681
-3.1797,-3.0229,-2.1044,-2.1338,-1.7659,-0.2026,-0.1237,0.0441,0.3342,-0.3406,-0.6755,-0.1838,-0.6758,-1.2511,-3.4961,-3.603,-2.9852,-1.1581,-3.0537,-2.9907,-2.0368,-2.0431,-0.6424,-0.9767,0.6437,-0.0697,-0.9083,-0.331,-2.2673,-1.9223
-3.4362,-3.4927,-2.4578,-2.5755,-2.0706,-0.4959,-0.3259,-0.1755,0.2458,-0.5065,-0.809,-0.3095,-0.9037,-1.4535,-3.7599,-3.9825,-3.3086,-1.3244,-3.3347,-3.3866,-2.2956,-2.2284,-0.8227,-1.1625,0.5803,-0.1838,-1.1292,-0.492,-2.4368,-1.963
-3.6166,-3.8492,-2.7456,-2.9232,-2.3073,-0.7591,-0.5308,-0.4351,0.1247,-0.6786,-0.9477,-0.4309,-1.1295,-1.6412,-3.9382,-4.2451,-3.5339,-1.4657,-3.538,-3.6864,-2.5092,-2.3782,-0.9816,-1.3252,0.5283,-0.2426,-1.3083,-0.6095,-2.5556,-1.9876
-3.7042,-4.0642,-2.9428,-3.1514,-2.4532,-0.9712,-0.7079,-0.7094,-0.0136,-0.8292,-1.0703,-0.526,-1.3128,-1.7888,-4.013,-4.3663,-3.637,-1.5677,-3.6402,-3.8622,-2.6554,-2.4688,-1.0935,-1.4337,0.5048,-0.2259,-1.4086,-0.6569,-2.6095,-1.9908
-3.6835,-4.1164,-3.0309,-3.2406,-2.4913,-1.1132,-0.8254,-0.9697,-0.1491,-0.9289,-1.1533,-0.5747,-1.4141,-1.8687,-3.9708,-4.3284,-3.6013,-1.6165,-3.6229,-3.8907,-2.7111,-2.4778,-1.1349,-1.461,0.5222,-0.1242,-1.4022,-0.6173,-2.587,-1.9663
-3.5434,-3.9943,-2.9999,-3.1793,-2.4134,-1.1715,-0.8564,-1.1894,-0.2612,-0.9538,-1.1774,-0.5637,-1.4041,-1.857,-3.8055,-4.1232,-3.4202,-1.6008,-3.4764,-3.7571,-2.6569,-2.389,-1.0904,-1.3907,0.5859,0.0591,-1.2767,-0.4866,-2.4807,-1.907
-3.28,-3.6985,-2.8495,-2.9668,-2.2214,-1.1394,-0.785,-1.3485,-0.3329,-0.8909,-1.1318,-0.4902,-1.271,-1.7403,-3.5191,-3.7545,-3.0992,-1.514,-3.2027,-3.4588,-2.4829,-2.1975,-0.9569,-1.2214,0.6924,0.3075,-1.0387,-0.2753,-2.2883,-1.8071
-2.8995,-3.2437,-2.59,-2.6142,-1.9288,-1.0186,-0.6096,-1.4362,-0.3533,-0.7413,-1.0177,-0.3626,-1.0238,-1.5202,-3.1232,-3.2394,-2.6559,-1.3554,-2.8161,-3.0084,-2.1934,-1.9132,-0.7457,-0.9688,0.829,0.5936,-0.7143,-0.0076,-2.0138,-1.6636
-2.4199,-2.6588,-2.2416,-2.145,-1.5588,-0.8192,-0.3441,-1.4514,-0.3191,-0.5204,-0.8483,-0.1996,-0.691,-1.2156,-2.6385,-2.6081,-2.1187,-1.131,-2.3431,-2.434,-1.8081,-1.5606,-0.481,-0.6643,0.975,0.8818,-0.3451,0.2823,-1.6688,-1.4778
-1.8711,-1.9858,-1.8329,-1.5933,-1.1426,-0.5588,-0.016,-1.4019,-0.2352,-0.2555,-0.647,-0.0262,-0.3154,-0.8597,-2.0944,-1.9024,-1.5255,-0.854,-1.8199,-1.7782,-1.3614,-1.1767,-0.1965,-0.3502,1.1042,1.1329,0.0186,0.5551,-1.2728,-1.2566
-1.2922,-1.2753,-1.3977,-1.0014,-0.7156,-0.2619,0.3367,-1.3022,-0.1135,0.0187,-0.4435,0.1307,0.054,-0.4949,-1.5265,-1.1721,-0.9194,-0.5453,-1.2885,-1.0937,-0.8972,-0.8053,0.0699,-0.0726,1.1895,1.3105,0.3264,0.7726,-0.8534,-1.0137
-0.7273,-0.5818,-0.9716,-0.4151,-0.314,0.0431,0.6714,-1.1707,0.0282,0.2658,-0.2685,0.2469,0.3706,-0.1649,-0.9737,-0.47,-0.3453,-0.2314,-0.7924,-0.437,-0.4621,-0.4895,0.2823,0.1273,1.2072,1.386,0.5371,0.9045,-0.4438,-0.768
-0.2195,0.0436,-0.5873,0.1222,0.0306,0.3258,0.9467,-1.027,0.1687,0.4533,-0.1487,0.305,0.5985,0.0932,-0.4732,0.1546,0.1559,0.058,-0.3702,0.1391,-0.0974,-0.2639,0.4128,0.2208,1.1426,1.3447,0.6253,0.9331,-0.0788,-0.5418
0.1952,0.5596,-0.2705,0.5748,0.2947,0.5584,1.1296,-0.8881,0.2872,0.558,-0.1027,0.2976,0.7173,0.256,-0.056,0.6617,0.5515,0.2953,-0.0511,0.5932,0.1673,-0.1482,0.4474,0.1974,0.993,1.1886,0.586,0.8568,0.2102,-0.356
0.4929,0.94,-0.0369,0.9198,0.4664,0.7193,1.2011,-0.7666,0.3666,0.5694,-0.1373,0.2277,0.7248,0.3167,0.2572,1.0263,0.822,0.4603,0.1496,0.9008,0.319,-0.1439,0.388,0.0665,0.7698,0.9368,0.434,0.6901,0.401,-0.2261
0.6644,1.1761,0.1088,1.1483,0.5458,0.7967,1.1595,-0.6693,0.3971,0.4915,-0.2471,0.1081,0.6351,0.2849,0.4584,1.24,0.962,0.544,0.2318,1.0563,0.361,-0.2343,0.2525,-0.1447,0.4969,0.6225,0.1999,0.4607,0.4847,-0.1592
0.7153,1.2759,0.1717,1.2653,0.5439,0.7902,1.0202,-0.5979,0.3767,0.341,-0.4156,-0.0421,0.4743,0.1835,0.5514,1.3109,0.9799,0.5495,0.2094,1.072,0.3109,-0.3893,0.0711,-0.3973,0.2069,0.2869,-0.0762,0.2037,0.4663,-0.1523
0.6624,1.2606,0.1644,1.2852,0.4778,0.71,0.8114,-0.5512,0.3115,0.1432,-0.619,-0.2016,0.2744,0.0422,0.5498,1.259,0.8952,0.4905,0.1067,0.9725,0.1945,-0.5716,-0.1198,-0.6485,-0.0644,-0.0276,-0.3526,-0.0445,0.3632,-0.1945
0.5294,1.1583,0.103,1.2275,0.367,0.5736,0.5681,-0.5273,0.2125,-0.0732,-0.8314,-0.3512,0.0672,-0.1081,0.4719,1.1112,0.7335,0.3873,-0.0467,0.7886,0.0402,-0.7446,-0.2845,-0.8596,-0.2846,-0.2846,-0.5937,-0.2531,0.1998,-0.2697
0.3414,0.9981,0.0044,1.1118,0.2284,0.4018,0.3244,-0.5258,0.0934,-0.2816,-1.0292,-0.4776,-0.1212,-0.2415,0.3372,0.8955,0.5215,0.2625,-0.2215,0.5509,-0.1266,-0.8784,-0.3937,-1.0024,-0.4294,-0.4591,-0.7745,-0.4013,0.0026,-0.3609
0.1203,0.8048,-0.1165,0.954,0.0734,0.2141,0.1073,-0.5478,-0.033,-0.4622,-1.1951,-0.5752,-0.2735,-0.3409,0.1624,0.6363,0.2829,0.1369,-0.3937,0.2848,-0.2876,-0.9544,-0.4291,-1.0629,-0.4868,-0.5405,-0.8833,-0.4808,-0.2057,-0.4538
-0.1176,0.5949,-0.2483,0.7645,-0.0921,0.0257,-0.0676,-0.5951,-0.1556,-0.604,-1.3186,-0.6456,-0.3829,-0.4004,-0.0402,0.3517,0.0353,0.026,-0.5476,0.0084,-0.433,-0.9673,-0.3861,-1.0423,-0.458,-0.5334,-0.9218,-0.4956,-0.4093,-0.5388
-0.3623,0.3761,-0.3846,0.549,-0.267,-0.1531,-0.197,-0.667,-0.2667,-0.7049,-1.3965,-0.6962,-0.453,-0.4247,-0.2629,0.0534,-0.211,-0.0623,-0.6775,-0.2681,-0.5617,-0.9248,-0.2737,-0.9563,-0.3569,-0.4554,-0.9029,-0.46,-0.6005,-0.6124
-0.6088,0.1486,-0.523,0.3095,-0.4522,-0.3172,-0.2884,-0.7589,-0.361,-0.7703,-1.4305,-0.7372,-0.4956,-0.428,-0.5011,-0.2521,-0.4523,-0.1278,-0.7866,-0.5407,-0.6796,-0.8453,-0.1132,-0.831,-0.2072,-0.3336,-0.8471,-0.395,-0.7785,-0.6758
-0.8548,-0.0914,-0.6643,0.0476,-0.6477,-0.4639,-0.3563,-0.8615,-0.4362,-0.8102,-1.4265,-0.7786,-0.5282,-0.4304,-0.7512,-0.5606,-0.6887,-0.1772,-0.8845,-0.8084,-0.7967,-0.7541,0.0657,-0.6985,-0.0378,-0.1991,-0.7785,-0.3242,-0.9463,-0.7335
-1.0979,-0.347,-0.8095,-0.2327,-0.8511,-0.5917,-0.4179,-0.9616,-0.4919,-0.8373,-1.393,-0.8281,-0.5703,-0.4531,-1.008,-0.8673,-0.9215,-0.2206,-0.9829,-1.0707,-0.9241,-0.6775,0.2302,-0.5912,0.1215,-0.0822,-0.7214,-0.2698,-1.108,-0.791
-1.3339,-0.6163,-0.9576,-0.5233,-1.0558,-0.6983,-0.488,-1.0445,-0.529,-0.8636,-1.3407,-0.89,-0.6388,-0.5139,-1.2631,-1.1648,-1.15,-0.2685,-1.0919,-1.3245,-1.0703,-0.6384,0.3505,-0.536,0.2454,-0.007,-0.6963,-0.2492,-1.2652,-0.8523
-1.5554,-0.8904,-1.1041,-0.8116,-1.2524,-0.7806,-0.5763,-1.0969,-0.5488,-0.8988,-1.2819,-0.9646,-0.7446,-0.623,-1.5045,-1.442,-1.3699,-0.3291,-1.2163,-1.5631,-1.2379,-0.651,0.4051,-0.5497,0.3166,0.0122,-0.7168,-0.2722,-1.4156,-0.9191
-1.753,-1.1537,-1.2407,-1.081,-1.429,-0.8349,-0.6851,-1.1099,-0.5519,-0.9482,-1.2288,-1.0485,-0.89,-0.7801,-1.7179,-1.6854,-1.5735,-0.4069,-1.3546,-1.7757,-1.4228,-0.7195,0.3837,-0.6365,0.3277,-0.0276,-0.7877,-0.34,-1.5535,-0.9904
-1.9174,-1.3865,-1.3571,-1.3133,-1.5743,-0.8592,-0.8099,-1.0808,-0.538,-1.0125,-1.192,-1.135,-1.0677,-0.9749,-1.889,-1.8814,-1.751,-0.5018,-1.4996,-1.95,-1.6137,-0.8383,0.2883,-0.7881,0.2811,-0.1183,-0.9043,-0.445,-1.6709,-1.063
-2.0413,-1.57,-1.4426,-1.491,-1.6787,-0.8536,-0.9407,-1.0142,-0.5061,-1.0872,-1.1784,-1.2157,-1.2626,-1.1885,-2.0068,-2.0196,-1.8939,-0.6098,-1.6408,-2.0742,-1.7948,-0.9941,0.1311,-0.9863,0.1875,-0.2438,-1.0534,-0.5729,-1.7598,-1.1324
-2.1221,-1.6906,-1.4875,-1.6007,-1.7364,-0.8211,-1.065,-0.9214,-0.4562,-1.1643,-1.1894,-1.2818,-1.4542,-1.3978,-2.0657,-2.0952,-1.9968,-0.7237,-1.7672,-2.1407,-1.9487,-1.1696,-0.0686,-1.2073,0.0631,-0.3831,-1.2161,-0.7059,-1.8137,-1.1935
-2.1624,-1.7436,-1.485,-1.6347,-1.7464,-0.7681,-1.171,-0.819,-0.3914,-1.2346,-1.2209,-1.3257,-1.621,-1.5802,-2.067,-2.1113,-2.0592,-0.8344,-1.8699,-2.1481,-2.0607,-1.3472,-0.2879,-1.4263,-0.0739,-0.516,-1.3715,-0.8257,-1.8292,-1.2412
-2.1689,-1.7345,-1.432,-1.5941,-1.7133,-0.7033,-1.2504,-0.7255,-0.3187,-1.2897,-1.2643,-1.3431,-1.745,-1.7183,-2.0188,-2.0781,-2.0857,-0.9323,-1.9437,-2.1027,-2.1223,-1.5119,-0.5038,-1.6226,-0.2063,-0.6261,-1.5018,-0.9182,-1.806,-1.2709
-2.1515,-1.6788,-1.3306,-1.4892,-1.6466,-0.637,-1.2998,-0.6581,-0.2497,-1.3249,-1.3093,-1.3338,-1.8148,-1.803,-1.9337,-2.0119,-2.0844,-1.0089,-1.9883,-2.0177,-2.1331,-1.6535,-0.697,-1.7827,-0.3208,-0.7049,-1.5955,-0.9755,-1.7471,-1.2781
-2.1207,-1.5989,-1.1891,-1.3387,-1.5607,-0.5798,-1.3216,-0.629,-0.1984,-1.3398,-1.3463,-1.3026,-1.8284,-1.8351,-1.8271,-1.9321,-2.0658,-1.0583,-2.0072,-1.9114,-2.1014,-1.7678,-0.8536,-1.9016,-0.4097,-0.7522,-1.6506,-0.998,-1.6577,-1.2596
-2.086,-1.5203,-1.0218,-1.1684,-1.4723,-0.5418,-1.3224,-0.6427,-0.1788,-1.3386,-1.369,-1.2578,-1.7925,-1.824,-1.7144,-1.8578,-2.0401,-1.0784,-2.0081,-1.8037,-2.0423,-1.8563,-0.9675,-1.9822,-0.4711,-0.7755,-1.6737,-0.9937,-1.545,-1.2137
-2.0544,-1.4667,-0.848,-1.0067,-1.3986,-0.531,-1.3115,-0.6957,-0.2014,-1.3288,-1.375,-1.2103,-1.7219,-1.7851,-1.6093,-1.8054,-2.0169,-1.0721,-2.0011,-1.7134,-1.9746,-1.9253,-1.0402,-2.0331,-0.5089,-0.7872,-1.6784,-0.9764,-1.4179,-1.142
-2.0306,-1.4567,-0.6901,-0.8811,-1.3547,-0.5531,-1.299,-0.7772,-0.2705,-1.3191,-1.3662,-1.1719,-1.636,-1.7364,-1.523,-1.7866,-2.004,-1.0468,-1.9976,-1.6552,-1.9172,-1.9834,-1.0799,-2.0654,-0.5307,-0.801,-1.6813,-0.962,-1.2874,-1.0498
-2.017,-1.5006,-0.5703,-0.8138,-1.3512,-0.6102,-1.2945,-0.8719,-0.3825,-1.3181,-1.3472,-1.153,-1.5555,-1.6952,-1.4638,-1.8083,-2.008,-1.0139,-2.0092,-1.6384,-1.8859,-2.0399,-1.0996,-2.0899,-0.5457,-0.828,-1.6982,-0.9652,-1.1657,-0.9464
-2.0145,-1.6005,-0.5071,-0.8191,-1.3934,-0.7006,-1.3056,-0.9634,-0.5263,-1.3321,-1.3239,-1.1618,-1.4991,-1.6751,-1.4377,-1.8725,-2.034,-0.987,-2.0457,-1.6667,-1.8914,-2.1021,-1.1142,-2.1141,-0.5624,-0.8752,-1.7405,-0.9964,-1.0655,-0.8439
-2.0238,-1.7506,-0.5125,-0.9012,-1.4807,-0.819,-1.3373,-1.0374,-0.6844,-1.3638,-1.301,-1.2021,-1.4806,-1.6843,-1.448,-1.9774,-2.0858,-0.9786,-2.1134,-1.7385,-1.938,-2.1737,-1.1369,-2.1417,-0.5868,-0.9437,-1.8138,-1.0601,-0.9984,-0.7554
-2.0454,-1.9397,-0.5897,-1.0543,-1.6072,-0.9571,-1.3907,-1.0841,-0.836,-1.4122,-1.2814,-1.2731,-1.5063,-1.7247,-1.496,-2.1185,-2.1649,-0.9983,-2.214,-1.8489,-2.0235,-2.2538,-1.1769,-2.1723,-0.6215,-1.0301,-1.9173,-1.1546,-0.9731,-0.692
-2.0802,-2.153,-0.7321,-1.2644,-1.7631,-1.1048,-1.4631,-1.0992,-0.961,-1.4722,-1.2654,-1.3685,-1.5752,-1.792,-1.5804,-2.2894,-2.2704,-1.0498,-2.3436,-1.9902,-2.1403,-2.3372,-1.2372,-2.2026,-0.6657,-1.1281,-2.0452,-1.2727,-0.9937,-0.6612
-2.1288,-2.3748,-0.9245,-1.5114,-1.936,-1.2518,-1.5485,-1.0845,-1.044,-1.5367,-1.2516,-1.4781,-1.6789,-1.8771,-1.6979,-2.482,-2.3986,-1.1317,-2.4929,-2.1534,-2.2759,-2.4148,-1.3145,-2.228,-0.7156,-1.2308,-2.1884,-1.4038,-1.0597,-0.6654
-2.1902,-2.5896,-1.1454,-1.7722,-2.1126,-1.3894,-1.6379,-1.0469,-1.0775,-1.5974,-1.2382,-1.5891,-1.8045,-1.9674,-1.8426,-2.6873,-2.5432,-1.2375,-2.6487,-2.3287,-2.4156,-2.4758,-1.3996,-2.2449,-0.766,-1.3327,-2.3366,-1.5366,-1.1655,-0.7019
-2.2611,-2.7844,-1.3705,-2.0244,-2.2804,-1.5117,-1.7219,-0.9964,-1.063,-1.6478,-1.2241,-1.6889,-1.9369,-2.0505,-2.0062,-2.8952,-2.6959,-1.3579,-2.7963,-2.506,-2.5439,-2.51,-1.4802,-2.2516,-0.8119,-1.431,-2.4804,-1.6615,-1.3017,-0.7634
-2.3348,-2.9491,-1.5767,-2.2487,-2.4291,-1.6163,-1.7923,-0.9447,-1.0104,-1.6838,-1.2101,-1.7675,-2.0624,-2.1155,-2.1781,-3.0946,-2.8468,-1.4827,-2.9216,-2.6754,-2.6471,-2.5104,-1.5436,-2.25,-0.8499,-1.5259,-2.6129,-1.772,-1.4555,-0.8393
-2.4024,-3.078,-1.7453,-2.4308,-2.5512,-1.7034,-1.8436,-0.9025,-0.9354,-1.7049,-1.1988,-1.8194,-2.1706,-2.156,-2.3457,-3.2741,-2.9859,-1.6022,-3.0135,-2.8276,-2.7158,-2.4751,-1.5807,-2.2455,-0.879,-1.62,-2.7302,-1.8663,-1.6125,-0.9172
-2.4539,-3.1691,-1.8641,-2.5631,-2.6424,-1.7751,-1.8735,-0.8782,-0.8556,-1.7136,-1.1938,-1.8443,-2.2554,-2.1701,-2.4954,-3.4228,-3.1035,-1.7083,-3.0658,-2.9544,-2.7458,-2.4083,-1.5878,-2.2454,-0.901,-1.7162,-2.8312,-1.9459,-1.7576,-0.9847
-2.4809,-3.2237,-1.9286,-2.6437,-2.7012,-1.8337,-1.8829,-0.8761,-0.7869,-1.714,-1.1988,-1.846,-2.3139,-2.1598,-2.6141,-3.5312,-3.1909,-1.7946,-3.0768,-3.049,-2.7378,-2.3188,-1.5669,-2.2571,-0.9195,-1.8153,-2.9164,-2.0141,-1.8767,-1.0313
-2.4777,-3.245,-1.941,-2.6755,-2.7275,-1.8802,-1.8753,-0.8957,-0.7406,-1.7104,-1.2156,-1.8308,-2.3456,-2.1292,-2.6898,-3.5919,-3.2402,-1.8563,-3.0489,-3.1052,-2.6958,-2.2186,-1.5247,-2.2852,-0.9377,-1.9146,-2.9857,-2.0736,-1.9579,-1.0499
-2.4426,-3.2362,-1.9091,-2.6647,-2.722,-1.9138,-1.8548,-0.9322,-0.7208,-1.7054,-1.243,-1.8045,-2.3499,-2.0821,-2.7137,-3.5995,-3.2449,-1.8889,-2.987,-3.1177,-2.625,-2.1187,-1.47,-2.3287,-0.9577,-2.0063,-3.0368,-2.1236,-1.9928,-1.0371
-2.3769,-3.1995,-1.8435,-2.6178,-2.6846,-1.9314,-1.8254,-0.9773,-0.7246,-1.6984,-1.2753,-1.7705,-2.3263,-2.0206,-2.6807,-3.5507,-3.1994,-1.8891,-2.8959,-3.0814,-2.5295,-2.0267,-1.4099,-2.3805,-0.978,-2.0787,-3.0646,-2.1589,-1.9766,-0.9935
-2.2839,-3.1351,-1.7554,-2.5407,-2.6145,-1.9283,-1.7897,-1.0209,-0.743,-1.6857,-1.3033,-1.728,-2.2734,-1.9438,-2.5897,-3.4443,-3.0996,-1.8539,-2.7791,-2.9917,-2.4105,-1.9448,-1.3483,-2.4276,-0.9943,-2.1182,-3.0615,-2.1704,-1.9086,-0.9224
-2.1668,-3.0408,-1.6543,-2.437,-2.5108,-1.8994,-1.7485,-1.0542,-0.7635,-1.6614,-1.3156,-1.6729,-2.1903,-1.849,-2.4438,-3.2808,-2.943,-1.7824,-2.6374,-2.8452,-2.2665,-1.8692,-1.2841,-2.4544,-1.0001,-2.1126,-3.0191,-2.1471,-1.7913,-0.8289
-2.028,-2.9128,-1.5464,-2.3084,-2.3731,-1.8406,-1.7014,-1.0716,-0.7741,-1.6193,-1.302,-1.599,-2.0776,-1.7321,-2.2496,-3.0624,-2.7294,-1.6764,-2.4696,-2.6407,-2.0947,-1.7919,-1.213,-2.4462,-0.9893,-2.055,-2.931,-2.08,-1.6303,-0.7191
-1.8686,-2.7472,-1.4337,-2.155,-2.2031,-1.7501,-1.648,-1.0722,-0.7667,-1.5559,-1.2571,-1.5012,-1.9388,-1.591,-2.0166,-2.7941,-2.4624,-1.5415,-2.2744,-2.3813,-1.8938,-1.704,-1.13,-2.3933,-0.958,-1.9467,-2.7958,-1.9656,-1.4344,-0.5994
-1.6898,-2.5419,-1.3153,-1.9776,-2.0066,-1.6292,-1.5896,-1.0606,-0.7396,-1.4725,-1.1831,-1.3782,-1.7812,-1.427,-1.7568,-2.484,-2.1509,-1.3877,-2.0528,-2.0753,-1.6664,-1.5997,-1.0326,-2.2938,-0.9074,-1.7985,-2.6192,-1.8091,-1.2156,-0.4773
-1.4946,-2.2989,-1.1881,-1.7792,-1.7934,-1.4837,-1.5303,-1.0455,-0.6981,-1.3763,-1.0904,-1.2349,-1.6162,-1.2472,-1.4848,-2.1443,-1.8101,-1.2291,-1.8112,-1.7368,-1.4214,-1.4792,-0.9241,-2.1548,-0.8439,-1.6291,-2.414,-1.6243,-0.9895,-0.3616
-1.2899,-2.0258,-1.05,-1.5662,-1.5775,-1.3228,-1.4776,-1.0375,-0.6533,-1.2801,-0.9959,-1.0824,-1.458,-1.0637,-1.217,-1.7914,-1.4617,-1.0819,-1.5626,-1.3856,-1.1736,-1.3504,-0.8139,-1.9909,-0.778,-1.4619,-2.1987,-1.4318,-0.7745,-0.2629
-1.0863,-1.7356,-0.9011,-1.3483,-1.3751,-1.1593,-1.4408,-1.0468,-0.6189,-1.199,-0.9194,-0.9358,-1.3214,-0.8926,-0.9705,-1.445,-1.1315,-0.9615,-1.3252,-1.0442,-0.9423,-1.2269,-0.7162,-1.8214,-0.7215,-1.3197,-1.9943,-1.2546,-0.5897,-0.1915
-0.8979,-1.4455,-0.7456,-1.1373,-1.2019,-1.0071,-1.4289,-1.081,-0.6081,-1.148,-0.8793,-0.8119,-1.2194,-0.7502,-0.7609,-1.1254,-0.8454,-0.8797,-1.1192,-0.7351,-0.7471,-1.1249,-0.6459,-1.6655,-0.685,-1.2204,-1.8202,-1.1137,-0.4516,-0.1561
-0.7386,-1.1741,-0.5907,-0.9444,-1.0698,-0.879,-1.4485,-1.144,-0.6302,-1.1378,-0.8883,-0.7248,-1.1608,-0.6501,-0.6,-0.8505,-0.6242,-0.8413,-0.9617,-0.4764,-0.6033,-1.0575,-0.6142,-1.5392,-0.6745,-1.1732,-1.6917,-1.0237,-0.3711,-0.1612
-0.6194,-0.9372,-0.4455,-0.7776,-0.9841,-0.7841,-1.5012,-1.2357,-0.6892,-1.1732,-0.9509,-0.6837,-1.1484,-0.5995,-0.4928,-0.6318,-0.4793,-0.8433,-0.8619,-0.2787,-0.5188,-1.0298,-0.624,-1.4515,-0.6898,-1.1769,-1.6173,-0.9904,-0.3509,-0.2047
-0.5447,-0.7454,-0.3185,-0.6396,-0.9425,-0.7259,-1.583,-1.352,-0.7827,-1.2513,-1.0626,-0.6907,-1.179,-0.5973,-0.4368,-0.4724,-0.4091,-0.8751,-0.8176,-0.1428,-0.4912,-1.0365,-0.6683,-1.4038,-0.7246,-1.2208,-1.5982,-1.0096,-0.3843,-0.2778
-0.5104,-0.6013,-0.2151,-0.528,-0.9347,-0.7014,-1.6841,-1.4848,-0.9024,-1.3625,-1.2105,-0.7407,-1.2436,-0.6338,-0.4212,-0.3656,-0.3995,-0.9208,-0.8148,-0.0599,-0.5078,-1.061,-0.7304,-1.3898,-0.7675,-1.287,-1.6284,-1.0686,-0.4557,-0.3653
-0.5045,-0.4999,-0.1369,-0.4358,-0.9448,-0.701,-1.7904,-1.623,-1.0355,-1.4913,-1.3749,-0.8218,-1.3286,-0.6921,-0.4285,-0.2966,-0.4263,-0.9626,-0.8302,-0.0132,-0.5474,-1.0786,-0.7873,-1.3963,-0.8043,-1.3538,-1.6952,-1.1483,-0.5436,-0.4481
-0.5093,-0.4298,-0.0811,-0.3539,-0.9539,-0.7112,-1.8851,-1.7527,-1.166,-1.6183,-1.5328,-0.9174,-1.4173,-0.751,-0.4381,-0.2453,-0.4601,-0.9845,-0.8359,0.0186,-0.5847,-1.0612,-0.8137,-1.4067,-0.8207,-1.4006,-1.7812,-1.2263,-0.6239,-0.5065
-0.5059,-0.3765,-0.0415,-0.2733,-0.9439,-0.7169,-1.9518,-1.859,-1.2772,-1.7234,-1.6605,-1.0083,-1.4925,-0.7889,-0.4301,-0.191,-0.4727,-0.9751,-0.8056,0.0565,-0.5944,-0.9834,-0.7873,-1.4032,-0.8059,-1.4113,-1.8654,-1.2812,-0.675,-0.5241
-0.4786,-0.3253,-0.0098,-0.1871,-0.9004,-0.7047,-1.9763,-1.928,-1.3535,-1.788,-1.7372,-1.0756,-1.5384,-0.7879,-0.3899,-0.117,-0.4426,-0.9291,-0.7201,0.1176,-0.5565,-0.8289,-0.6934,-1.3704,-0.7539,-1.3772,-1.9268,-1.2956,-0.6821,-0.4917
-0.4181,-0.2647,0.0226,-0.0912,-0.8149,-0.6655,-1.9494,-1.9486,-1.3827,-1.7978,-1.7478,-1.1035,-1.5429,-0.7369,-0.311,-0.014,-0.3598,-0.8479,-0.5721,0.2116,-0.4598,-0.5942,-0.5277,-1.2981,-0.6656,-1.2982,-1.9462,-1.2594,-0.6399,-0.4089
-0.323,-0.1882,0.0637,0.0155,-0.6861,-0.5958,-1.8676,-1.9143,-1.3579,-1.7447,-1.6846,-1.0815,-1.4985,-0.6331,-0.1966,0.1185,-0.2264,-0.7377,-0.3671,0.3397,-0.3033,-0.2895,-0.2969,-1.1828,-0.5474,-1.1822,-1.9099,-1.1711,-0.5528,-0.2842
-0.1997,-0.0953,0.1198,0.1315,-0.5188,-0.498,-1.7335,-1.8238,-1.2786,-1.6281,-1.5482,-1.0061,-1.4039,-0.4817,-0.0573,0.2727,-0.0557,-0.6074,-0.1215,0.4954,-0.0958,0.0628,-0.0172,-1.028,-0.41,-1.0422,-1.8116,-1.0377,-0.4326,-0.1318
-0.0604,0.0089,0.1945,0.2537,-0.3229,-0.3787,-1.5558,-1.6813,-1.1517,-1.4548,-1.347,-0.8813,-1.2641,-0.2937,0.0917,0.4352,0.132,-0.4663,0.1411,0.6672,0.1468,0.4326,0.2882,-0.844,-0.2667,-0.8944,-1.6543,-0.8736,-0.2946,0.0316
0.0805,0.1153,0.2888,0.3782,-0.1119,-0.2474,-1.3481,-1.4957,-0.9908,-1.2395,-1.0976,-0.7185,-1.0904,-0.0844,0.2345,0.5907,0.3141,-0.3227,0.3951,0.8412,0.4045,0.7867,0.5931,-0.6467,-0.1313,-0.7555,-1.4514,-0.6992,-0.154,0.1912
0.2085,0.2133,0.4003,0.5004,0.0996,-0.1139,-1.1285,-1.2799,-0.8149,-1.0035,-0.8229,-0.5355,-0.9001,0.1297,0.358,0.7251,0.4702,-0.1834,0.6181,1.004,0.656,1.0941,0.8714,-0.4557,-0.017,-0.6416,-1.226,-0.5376,-0.0231,0.3361
0.3126,0.2932,0.5238,0.6156,0.2968,0.0135,-0.917,-1.0493,-0.6448,-0.7719,-0.5509,-0.3539,-0.7141,0.3321,0.4542,0.8283,0.5865,-0.0529,0.7936,1.1449,0.882,1.3299,1.1006,-0.2924,0.0645,-0.567,-1.0079,-0.4122,0.0905,0.4605
0.3864,0.3479,0.6519,0.7192,0.4673,0.1288,-0.734,-0.8208,-0.4999,-0.5707,-0.311,-0.1956,-0.5538,0.5084,0.5209,0.8957,0.6574,0.0654,0.9136,1.2567,1.0673,1.4782,1.2642,-0.1766,0.104,-0.5428,-0.8289,-0.3424,0.1839,0.5633
0.4291,0.3742,0.776,0.8077,0.6022,0.2294,-0.5964,-0.6106,-0.3937,-0.422,-0.1303,-0.0786,-0.4371,0.6479,0.5608,0.9281,0.6864,0.1697,0.9784,1.3365,1.2023,1.5342,1.3538,-0.1232,0.0966,-0.5747,-0.7157,-0.3396,0.2585,0.6469
0.4454,0.3729,0.8877,0.8793,0.6977,0.3154,-0.5142,-0.4323,-0.3315,-0.3399,-0.0283,-0.0139,-0.3744,0.7443,0.5811,0.9308,0.6844,0.2589,0.9954,1.3856,1.2841,1.5039,1.3699,-0.1389,0.0424,-0.6613,-0.6836,-0.4047,0.3189,0.7156
0.4441,0.349,0.9804,0.935,0.7553,0.3892,-0.4882,-0.2944,-0.3088,-0.3265,-0.0125,-0.0029,-0.3662,0.7971,0.5911,0.9129,0.6671,0.3331,0.9767,1.4095,1.3164,1.403,1.3215,-0.2203,-0.0528,-0.7929,-0.7321,-0.5264,0.3723,0.7745
0.4378,0.3106,1.0506,0.9785,0.7819,0.4548,-0.5086,-0.1992,-0.3124,-0.3713,-0.0757,-0.0368,-0.4025,0.8119,0.6013,0.8858,0.6516,0.394,0.9374,1.4173,1.3088,1.2543,1.225,-0.3535,-0.1772,-0.9521,-0.8446,-0.6829,0.4273,0.829
0.4397,0.2687,1.099,1.0156,0.788,0.5167,-0.5564,-0.1421,-0.3241,-0.4527,-0.1963,-0.0992,-0.4648,0.7987,0.6215,0.8617,0.6532,0.4456,0.8923,1.42,1.2748,1.0834,1.1009,-0.5164,-0.3151,-1.1163,-0.9917,-0.8458,0.4926,0.8844
0.4622,0.2351,1.1297,1.0535,0.7858,0.5787,-0.6079,-0.1131,-0.3252,-0.5428,-0.3425,-0.1688,-0.5307,0.7707,0.6589,0.8514,0.6822,0.4939,0.8539,1.4294,1.2291,0.915,0.9703,-0.6825,-0.4489,-1.2617,-1.1378,-0.9856,0.5752,0.9446
0.5134,0.2214,1.1495,1.0984,0.7866,0.643,-0.6397,-0.0998,-0.3015,-0.6136,-0.4788,-0.2247,-0.5789,0.7409,0.7166,0.8625,0.7418,0.5449,0.8302,1.4542,1.185,0.7689,0.8512,-0.8256,-0.5619,-1.3668,-1.2493,-1.0774,0.6787,1.0116
0.5949,0.2364,1.1662,1.1539,0.7981,0.7093,-0.6348,-0.0907,-0.2474,-0.6439,-0.5744,-0.2505,-0.5942,0.7201,0.7924,0.8975,0.8271,0.6024,0.8235,1.499,1.1512,0.657,0.7559,-0.9246,-0.6405,-1.4167,-1.3009,-1.1056,0.801,1.0837
0.7009,0.2845,1.1869,1.2196,0.8238,0.7748,-0.5866,-0.0787,-0.1667,-0.6236,-0.6101,-0.237,-0.5703,0.7142,0.8787,0.9529,0.9259,0.6655,0.8311,1.562,1.1312,0.583,0.6892,-0.9664,-0.6765,-1.4043,-1.2801,-1.0654,0.9341,1.1556
0.8185,0.3646,1.2164,1.2909,0.8621,0.834,-0.5,-0.062,-0.0714,-0.5553,-0.5815,-0.1841,-0.5106,0.7243,0.9641,1.0199,1.0213,0.7286,0.8461,1.6358,1.1228,0.5441,0.6498,-0.9471,-0.6673,-1.3316,-1.1883,-0.9631,1.0641,1.2186
0.9297,0.4691,1.2555,1.3591,0.9072,0.8802,-0.3895,-0.0443,0.023,-0.4521,-0.4988,-0.0988,-0.4257,0.7464,1.0345,1.0852,1.0954,0.7819,0.8603,1.7084,1.1199,0.5327,0.6322,-0.8716,-0.6162,-1.2078,-1.0385,-0.8136,1.1742,1.2629
1.0157,0.585,1.2996,1.4133,0.9503,0.9056,-0.2753,-0.0319,0.102,-0.3339,-0.3824,0.0067,-0.3311,0.7733,1.0765,1.134,1.1328,0.8143,0.8662,1.7653,1.1139,0.5402,0.6297,-0.7518,-0.5308,-1.0477,-0.8527,-0.6364,1.2475,1.2796
1.06,0.6956,1.3397,1.4419,0.9813,0.9037,-0.1779,-0.0311,0.1572,-0.2212,-0.2569,0.1185,-0.243,0.7959,1.0793,1.1523,1.124,0.8169,0.8585,1.792,1.096,0.5592,0.6362,-0.6038,-0.4218,-0.8689,-0.656,-0.4521,1.2704,1.2631
1.0521,0.7836,1.3645,1.4357,0.9912,0.8705,-0.114,-0.0455,0.1876,-0.1314,-0.1455,0.2235,-0.1753,0.8054,1.0381,1.1297,1.0675,0.7859,0.836,1.7769,1.0588,0.5849,0.648,-0.4451,-0.3016,-0.6893,-0.4732,-0.2793,1.2366,1.2133
0.9896,0.835,1.3633,1.3899,0.974,0.8061,-0.0927,-0.0745,0.1992,-0.0753,-0.0656,0.3116,-0.137,0.795,0.9548,1.0624,0.9703,0.7245,0.8012,1.7144,0.999,0.6161,0.6644,-0.2916,-0.1818,-0.5248,-0.3239,-0.1324,1.149,1.1361
0.8786,0.8418,1.33,1.3069,0.9287,0.716,-0.1146,-0.1135,0.2022,-0.0563,-0.027,0.3769,-0.1307,0.7626,0.8394,0.9545,0.8474,0.6442,0.7612,1.6068,0.9185,0.6554,0.6872,-0.1551,-0.0721,-0.3878,-0.2202,-0.0207,1.0206,1.0435
0.7331,0.8045,1.2649,1.196,0.8603,0.6106,-0.1717,-0.1558,0.2071,-0.0704,-0.0308,0.4175,-0.1522,0.7119,0.7088,0.8184,0.7196,0.5623,0.7266,1.4655,0.8252,0.7092,0.7209,-0.0416,0.0215,-0.2853,-0.1646,0.0525,0.8724,0.9513
0.5725,0.7319,1.1752,1.0726,0.779,0.5042,-0.249,-0.1937,0.2231,-0.1078,-0.0706,0.4353,-0.191,0.6526,0.5834,0.6733,0.61,0.4995,0.7099,1.3098,0.7329,0.7855,0.7711,0.0493,0.0966,-0.2186,-0.1513,0.0889,0.7293,0.8769
0.418,0.639,1.0732,0.9549,0.6992,0.4115,-0.327,-0.2211,0.2556,-0.1539,-0.1337,0.4361,-0.2318,0.5993,0.4841,0.5419,0.5393,0.4741,0.7234,1.1634,0.6587,0.8926,0.8433,0.123,0.1546,-0.1836,-0.1669,0.0953,0.6155,0.8352
0.2891,0.5436,0.9733,0.8599,0.6359,0.3451,-0.385,-0.2344,0.3072,-0.1923,-0.2029,0.4283,-0.2573,0.5688,0.4271,0.4455,0.5219,0.4981,0.7758,1.0499,0.6197,1.0353,0.94,0.1873,0.1992,-0.1715,-0.1941,0.0821,0.5487,0.8357
0.2004,0.4622,0.8888,0.7996,0.6018,0.312,-0.4051,-0.2334,0.3776,-0.207,-0.2597,0.4219,-0.2512,0.5759,0.421,0.3995,0.5625,0.5732,0.8694,0.9875,0.6292,1.2125,1.0598,0.2499,0.2354,-0.1711,-0.2147,0.0619,0.5371,0.8802
0.1593,0.4066,0.8289,0.7788,0.6043,0.3126,-0.3754,-0.2209,0.4641,-0.185,-0.2866,0.4273,-0.2018,0.63,0.4649,0.4102,0.6549,0.6908,0.9982,0.9847,0.6932,1.415,1.1956,0.3155,0.2672,-0.1708,-0.2141,0.0471,0.5783,0.9623
0.1655,0.382,0.7975,0.7943,0.6442,0.3406,-0.2925,-0.2021,0.5628,-0.1194,-0.2705,0.4532,-0.1046,0.732,0.5493,0.4734,0.7833,0.8334,1.1483,1.0389,0.8087,1.6264,1.3355,0.3842,0.2976,-0.1613,-0.1834,0.0483,0.6605,1.0691
0.2119,0.3862,0.7929,0.8365,0.7158,0.3854,-0.1625,-0.1832,0.6681,-0.0108,-0.2054,0.5048,0.0363,0.8741,0.6585,0.5761,0.9268,0.9794,1.3005,1.1376,0.9641,1.825,1.4645,0.4513,0.3266,-0.1374,-0.1222,0.0713,0.7667,1.1844
0.2873,0.4116,0.8095,0.8927,0.8086,0.4343,0.0001,-0.1692,0.7732,0.1324,-0.0942,0.5821,0.2088,1.0408,0.7747,0.7003,1.0639,1.1079,1.4345,1.2621,1.1423,1.9879,1.5672,0.508,0.352,-0.0997,-0.0381,0.1161,0.8789,1.2924
0.3788,0.4474,0.84,0.9502,0.91,0.4763,0.175,-0.1626,0.8702,0.2947,0.051,0.6799,0.3947,1.2124,0.883,0.8276,1.1787,1.2039,1.5338,1.3917,1.3238,2.0956,1.6307,0.5436,0.3691,-0.0551,0.0551,0.1764,0.9827,1.3812
0.4746,0.4829,0.8778,1.0001,1.0075,0.5036,0.3397,-0.1627,0.9499,0.4555,0.21,0.7871,0.5733,1.3688,0.9735,0.9427,1.2631,1.2607,1.5893,1.5087,1.4901,2.1355,1.6467,0.5475,0.3719,-0.015,0.1403,0.2405,1.0698,1.4448
0.5651,0.5103,0.918,1.0384,1.0903,0.5131,0.4731,-0.1656,1.0032,0.5928,0.3581,0.8893,0.7239,1.4921,1.0427,1.0356,1.3179,1.2801,1.6002,1.6001,1.6261,2.1033,1.6124,0.5115,0.3543,0.007,0.2008,0.2934,1.1385,1.4833
0.6438,0.5258,0.9579,1.0655,1.1504,0.5049,0.5584,-0.1659,1.0219,0.6868,0.4703,0.9708,0.8294,1.5693,1.0929,1.1019,1.3505,1.2694,1.5734,1.6587,1.7206,2.0036,1.5309,0.4311,0.3122,-0.0017,0.2235,0.3198,1.1924,1.5013
0.7062,0.5297,0.996,1.0843,1.1826,0.481,0.5857,-0.1588,1.0011,0.7234,0.5273,1.018,0.8778,1.5928,1.1292,1.1414,1.3712,1.238,1.5203,1.6814,1.7661,1.8479,1.4099,0.3068,0.2447,-0.049,0.2009,0.3076,1.2376,1.506
0.7502,0.5246,1.0308,1.0968,1.1838,0.4439,0.5532,-0.1409,0.9416,0.6973,0.5195,1.0228,0.8643,1.5604,1.1575,1.156,1.3895,1.1937,1.4535,1.6684,1.7584,1.6518,1.2605,0.1444,0.155,-0.1359,0.1325,0.2509,1.2799,1.5043
0.7746,0.5135,1.0594,1.1018,1.1531,0.3951,0.4671,-0.1113,0.8512,0.6134,0.4497,0.9843,0.7914,1.475,1.1819,1.1486,1.4117,1.141,1.3839,1.6213,1.6966,1.4333,1.0958,-0.0457,0.0508,-0.2556,0.0242,0.1518,1.3228,1.5018
0.7789,0.4976,1.0771,1.0942,1.0922,0.3358,0.3406,-0.0707,0.7441,0.4858,0.3325,0.91,0.669,1.3438,1.204,1.122,1.4396,1.082,1.3193,1.5428,1.5831,1.2105,0.9296,-0.2487,-0.0575,-0.3939,-0.1127,0.0204,1.3666,1.5019
0.7642,0.4763,1.0779,1.0664,1.0054,0.2677,0.1919,-0.0213,0.639,0.3357,0.1914,0.8135,0.5132,1.1778,1.2233,1.0793,1.4712,1.0184,1.264,1.4378,1.4244,1.0003,0.7752,-0.4477,-0.1581,-0.5327,-0.2633,-0.1266,1.4088,1.5058
0.7332,0.448,1.0566,1.0118,0.8999,0.1937,0.041,0.0336,0.5551,0.1867,0.0533,0.7122,0.3434,0.9909,1.2387,1.0252,1.5025,0.9535,1.2202,1.3134,1.2316,0.8178,0.6453,-0.6254,-0.2401,-0.6527,-0.4123,-0.2691,1.4452,1.5142
0.6915,0.4126,1.0115,0.9289,0.7857,0.119,-0.0935,0.09,0.5072,0.0607,-0.057,0.6233,0.1797,0.7988,1.2498,0.9671,1.5303,0.8945,1.1896,1.1806,1.0202,0.6755,0.5506,-0.7667,-0.296,-0.7381,-0.5455,-0.3882,1.4724,1.5272
0.648,0.3732,0.9454,0.824,0.6741,0.0509,-0.197,0.1422,0.5017,-0.0269,-0.1223,0.5596,0.0397,0.6178,1.2586,0.9153,1.5541,0.8519,1.1743,1.0536,0.809,0.5833,0.4995,-0.8611,-0.3225,-0.7794,-0.6529,-0.4697,1.4886,1.5455
0.6146,0.3374,0.867,0.7119,0.5766,-0.0023,-0.2616,0.1829,0.5342,-0.0698,-0.1369,0.5269,-0.0642,0.4625,1.2698,0.8824,1.577,0.8374,1.1777,0.9485,0.6177,0.5474,0.4976,-0.9042,-0.3211,-0.7757,-0.7294,-0.5073,1.4951,1.57
0.6043,0.316,0.7889,0.6125,0.5031,-0.0332,-0.2863,0.2045,0.5899,-0.0718,-0.107,0.5226,-0.1267,0.3442,1.2895,0.881,1.6051,0.8602,1.2033,0.8801,0.4645,0.5696,0.5463,-0.8982,-0.2981,-0.7346,-0.7761,-0.5042,1.4951,1.601
0.6282,0.3209,0.7251,0.5465,0.4596,-0.0373,-0.2772,0.2,0.6468,-0.0453,-0.0496,0.5368,-0.1499,0.2692,1.3235,0.9198,1.6453,0.9235,1.2534,0.8587,0.3624,0.6463,0.6424,-0.852,-0.2627,-0.6712,-0.7996,-0.4719,1.4926,1.6376
0.6927,0.3613,0.6883,0.5298,0.4475,-0.0147,-0.245,0.1657,0.6811,-0.0084,0.0123,0.5539,-0.1425,0.2379,1.375,1.0011,1.7022,1.023,1.3271,0.8869,0.317,0.7689,0.7772,-0.7789,-0.2263,-0.6047,-0.811,-0.4285,1.4904,1.6769
0.7969,0.4414,0.6865,0.5691,0.4632,0.0307,-0.2029,0.1023,0.6733,0.02,0.0547,0.5575,-0.1175,0.2452,1.4429,1.1191,1.7764,1.1466,1.4202,0.9585,0.3259,0.9239,0.9369,-0.6945,-0.1999,-0.5552,-0.8236,-0.394,1.4893,1.7142
0.9326,0.5585,0.7219,0.6605,0.5003,0.0918,-0.1626,0.0164,0.6128,0.0246,0.0587,0.5342,-0.089,0.2821,1.522,1.2607,1.8637,1.2773,1.525,1.06,0.3796,1.0956,1.1044,-0.6132,-0.1921,-0.5387,-0.8492,-0.3865,1.4879,1.7439
1.0845,0.704,0.7913,0.7911,0.5509,0.1613,-0.1322,-0.0802,0.5013,-0.0021,0.0152,0.478,-0.0681,0.3385,1.6035,1.4079,1.9556,1.3965,1.6325,1.1739,0.4639,1.268,1.2614,-0.5456,-0.2077,-0.5645,-0.8948,-0.4168,1.4828,1.7605
1.2337,0.8641,0.8865,0.9425,0.6085,0.2335,-0.114,-0.172,0.3528,-0.0582,-0.0727,0.3925,-0.0605,0.4056,1.677,1.5422,2.0417,1.489,1.7339,1.2831,0.5643,1.4279,1.392,-0.4961,-0.2461,-0.6321,-0.9605,-0.486,1.4708,1.7604
1.3605,1.0237,0.997,1.0956,0.6698,0.3061,-0.1044,-0.2424,0.1917,-0.1317,-0.1896,0.2909,-0.0643,0.4786,1.7334,1.6486,2.1119,1.546,1.8233,1.3752,0.669,1.5664,1.4861,-0.463,-0.3013,-0.7318,-1.0383,-0.5849,1.4493,1.7427
1.4487,1.1686,1.1121,1.2352,0.7355,0.3802,-0.0952,-0.2767,0.0473,-0.204,-0.311,0.1931,-0.0713,0.5576,1.767,1.7201,2.1598,1.5677,1.8985,1.4461,0.7725,1.6805,1.5409,-0.4397,-0.3633,-0.8464,-1.1142,-0.6954,1.4182,1.7103
1.4889,1.29,1.2222,1.354,0.8107,0.46,-0.076,-0.2652,-0.0523,-0.2541,-0.4098,0.1213,-0.0688,0.6476,1.7776,1.7595,2.1845,1.5625,1.9618,1.5008,0.8765,1.7725,1.5621,-0.4169,-0.4198,-0.9555,-1.172,-0.7955,1.3803,1.669
1.4815,1.3863,1.3213,1.4544,0.9036,0.5519,-0.0368,-0.2055,-0.0864,-0.2637,-0.462,0.0939,-0.0431,0.7569,1.7712,1.7802,2.1921,1.5455,2.0206,1.5529,0.9901,1.8492,1.5619,-0.3856,-0.4591,-1.0398,-1.1978,-0.8642,1.3415,1.6274
1.4372,1.4651,1.4079,1.548,1.0237,0.6626,0.0296,-0.1028,-0.0463,-0.2222,-0.4536,0.1216,0.0167,0.8948,1.7605,1.8041,2.1963,1.5347,2.0863,1.6222,1.127,1.9206,1.5568,-0.3398,-0.4726,-1.0863,-1.184,-0.8867,1.3106,1.5951
1.376,1.5417,1.4864,1.6522,1.1798,0.798,0.1264,0.0309,0.0627,-0.1286,-0.3838,0.2039,0.1161,1.0688,1.7619,1.8576,2.2163,1.5474,2.1724,1.7303,1.3027,1.9974,1.5643,-0.2775,-0.4569,-1.0904,-1.1316,-0.858,1.298,1.5812
1.3227,1.6356,1.5653,1.7855,1.3771,0.9614,0.2516,0.1788,0.2224,0.0078,-0.2651,0.329,0.2541,1.2827,1.7926,1.9651,2.2729,1.5965,2.2916,1.8954,1.5295,2.0885,1.5984,-0.2014,-0.414,-1.057,-1.0501,-0.7841,1.3138,1.5921
1.3012,1.7652,1.6554,1.9612,1.6145,1.1518,0.3991,0.3226,0.4058,0.1693,-0.1205,0.4763,0.4229,1.5333,1.8654,2.1423,2.3829,1.6877,2.4514,2.1269,1.8124,2.1981,1.6667,-0.118,-0.3515,-0.9989,-0.9553,-0.6808,1.3653,1.63
1.3282,1.9411,1.7655,2.1823,1.8834,1.3629,0.5592,0.4442,0.5823,0.3341,0.0218,0.6201,0.6092,1.8102,1.9848,2.3905,2.5531,1.8177,2.6507,2.4215,2.1451,2.3235,1.768,-0.036,-0.2801,-0.9329,-0.8657,-0.5698,1.454,1.6915
1.4079,2.1619,1.8985,2.4389,2.167,1.5829,0.7201,0.5282,0.7231,0.4807,0.1359,0.7355,0.7972,2.0957,2.1437,2.6941,2.7766,1.9741,2.877,2.7616,2.5091,2.4538,1.8916,0.0356,-0.2112,-0.8755,-0.7976,-0.4732,1.5748,1.7673
1.5308,2.4128,2.0498,2.7098,2.4424,1.796,0.8708,0.5638,0.8073,0.5927,0.2038,0.8043,0.9718,2.3674,2.3236,3.0216,3.0315,2.1378,3.1074,3.1173,2.8753,2.5722,2.02,0.0904,-0.1532,-0.8377,-0.761,-0.4081,1.7156,1.8436
1.6753,2.6676,2.207,2.9662,2.6849,1.985,1.0025,0.5466,0.8255,0.6625,0.22,0.8197,1.1214,2.6016,2.4976,3.3318,3.2848,2.2862,3.3121,3.4508,3.2085,2.6585,2.1327,0.126,-0.1094,-0.8217,-0.7562,-0.3813,1.8589,1.9046
1.8133,2.8946,2.3532,3.1787,2.872,2.135,1.111,0.4797,0.7819,0.6928,0.1924,0.788,1.2402,2.778,2.6355,3.5813,3.4979,2.3977,3.4607,3.724,3.4736,2.6948,2.211,0.1451,-0.0772,-0.8201,-0.7737,-0.3879,1.9853,1.9356
1.9173,3.0635,2.4701,3.323,2.9881,2.2364,1.1965,0.3735,0.6925,0.695,0.1396,0.7271,1.3286,2.8827,2.7105,3.7343,3.6354,2.4572,3.5287,3.9053,3.6425,2.6698,2.2425,0.1549,-0.0484,-0.8175,-0.7957,-0.412,2.0766,1.9261
1.9668,3.1519,2.5429,3.3853,3.0266,2.2864,1.2618,0.2442,0.5812,0.6854,0.0855,0.6615,1.3908,2.9104,2.705,3.7693,3.672,2.4585,3.5031,3.9754,3.6989,2.5821,2.2238,0.165,-0.0124,-0.795,-0.8015,-0.4311,2.12,1.8725
1.9523,3.1503,2.5633,3.3639,2.9903,2.289,1.3103,0.1101,0.4736,0.6793,0.0516,0.6156,1.4326,2.8641,2.6139,3.683,3.5977,2.4057,3.3849,3.9304,3.6406,2.4405,2.1605,0.184,0.0411,-0.7355,-0.7724,-0.4226,2.1096,1.7783
1.8761,3.063,2.5318,3.2686,2.8893,2.2524,1.3426,-0.0124,0.3906,0.6862,0.0513,0.6063,1.4576,2.7529,2.4456,3.4895,3.4193,2.3108,3.1883,3.7804,3.4783,2.2617,2.0645,0.217,0.1181,-0.6291,-0.6982,-0.3705,2.0473,1.6531
1.7494,2.9059,2.4568,3.1165,2.737,2.1863,1.3546,-0.1118,0.3437,0.7061,0.0853,0.6383,1.465,2.5892,2.2187,3.2153,3.1576,2.1884,2.9363,3.5465,3.2321,2.0652,1.9508,0.2632,0.2191,-0.4767,-0.5805,-0.2708,1.9416,1.5094
1.5879,2.7011,2.3514,2.9274,2.5466,2.099,1.338,-0.1834,0.3325,0.729,0.1414,0.7024,1.4491,2.3862,1.9574,2.8921,2.8414,2.0506,2.6553,3.2546,2.9269,1.8686,1.8328,0.3156,0.3373,-0.291,-0.4335,-0.1337,1.8042,1.3594
1.4065,2.4709,2.2293,2.7186,2.3279,1.9953,1.2812,-0.2292,0.3457,0.7372,0.1965,0.777,1.4002,2.1554,1.6863,2.5491,2.5013,1.9015,2.3691,2.9298,2.587,1.6837,1.7197,0.362,0.4609,-0.0943,-0.2814,0.018,1.6482,1.2125
1.2162,2.2315,2.1004,2.5006,2.0859,1.8763,1.1727,-0.2564,0.3649,0.7093,0.2224,0.8334,1.3067,1.9051,1.4248,2.2072,2.1628,1.7355,2.0943,2.5919,2.2323,1.5139,1.6152,0.3878,0.5748,0.0852,-0.1538,0.1539,1.4844,1.0741
1.0225,1.9899,1.9682,2.2758,1.8205,1.7395,1.0033,-0.2748,0.3694,0.6257,0.1917,0.8423,1.1586,1.6404,1.1849,1.8761,1.842,1.5383,1.8384,2.2524,1.8758,1.3556,1.518,0.3787,0.6642,0.22,-0.0786,0.2425,1.3209,0.9452
0.8261,1.7445,1.8301,2.04,1.5287,1.5808,0.7697,-0.2942,0.3417,0.4728,0.0844,0.781,0.9498,1.3632,0.9701,1.5547,1.5443,1.2917,1.6005,1.9146,1.5232,1.1995,1.4234,0.324,0.718,0.2892,-0.0764,0.2588,1.1617,0.8239
0.6248,1.4882,1.6798,1.7858,1.2074,1.3969,0.4746,-0.3225,0.2713,0.247,-0.1077,0.6384,0.6805,1.0734,0.7769,1.2354,1.2665,0.9801,1.3735,1.5761,1.1743,1.0354,1.3253,0.2198,0.7314,0.2829,-0.1559,0.1902,1.0076,0.7063
0.416,1.2144,1.5121,1.5075,0.8558,1.1868,0.1276,-0.3642,0.1568,-0.0449,-0.3793,0.4177,0.3579,0.7705,0.5976,0.9086,1.0001,0.5979,1.1482,1.232,0.8253,0.8551,1.2188,0.0695,0.7067,0.2049,-0.3116,0.0391,0.8571,0.5879
0.1984,0.9212,1.3267,1.2049,0.4778,0.9543,-0.2563,-0.4198,0.0054,-0.3866,-0.7121,0.1353,-0.0043,0.4552,0.4236,0.5683,0.7363,0.1535,0.9174,0.8784,0.472,0.6557,1.1015,-0.1162,0.6529,0.0716,-0.5257,-0.177,0.7076,0.4654
-0.0263,0.6138,1.1295,0.8854,0.0828,0.7078,-0.6587,-0.4865,-0.1694,-0.7555,-1.0789,-0.1822,-0.3873,0.1309,0.248,0.2146,0.4693,-0.3295,0.6779,0.5158,0.1128,0.4405,0.975,-0.321,0.5836,-0.0918,-0.7715,-0.4298,0.5572,0.3373
