FP1,F3,F7,FC3,C3,C5,P3,P7,PO7,PO3,O1,Oz,Pz,CPz,FP2,Fz,F4,F8,FC4,FCz,Cz,C4,C6,P4,P8,PO8,PO4,O2,(corr) HEOG,(corr) VEOG
-0.2084,-0.6184,-0.95,-0.3589,-0.2743,-0.0125,0.2323,0.2089,0.2817,0.3689,-0.0163,-0.0713,-0.1688,-0.7294,0.3569,-1.2419,-1.5124,-0.8607,-1.2032,-1.0151,-0.6458,-0.82,-0.922,-0.3284,0.1155,-0.005,-0.1756,-0.1081,-0.0882,-0.4528
-0.1582,-0.6953,-0.8678,-0.3611,-0.2021,0.0017,0.3756,0.2284,0.3334,0.4071,0.0645,-0.0791,-0.0662,-0.558,0.0944,-1.2815,-1.4868,-0.7728,-1.2467,-0.9785,-0.5953,-0.8234,-0.9116,-0.2766,0.042,-0.0719,-0.1566,-0.0912,-0.043,-0.4087
-0.1291,-0.7653,-0.7878,-0.3649,-0.1471,0.0137,0.5007,0.2579,0.3904,0.4349,0.139,-0.0942,0.0123,-0.4205,-0.1414,-1.3203,-1.4674,-0.6961,-1.2947,-0.9541,-0.5703,-0.8376,-0.907,-0.239,-0.0342,-0.146,-0.1546,-0.0901,0.0116,-0.3739
-0.1364,-0.8209,-0.712,-0.3727,-0.1258,0.0185,0.5879,0.3003,0.4517,0.4413,0.1994,-0.1227,0.0448,-0.3445,-0.3323,-1.3561,-1.4552,-0.637,-1.3485,-0.9507,-0.5893,-0.8698,-0.9121,-0.2269,-0.1155,-0.2309,-0.1831,-0.1164,0.0782,-0.3486
-0.1845,-0.8607,-0.6439,-0.3897,-0.1526,0.0082,0.6191,0.3512,0.5101,0.4145,0.2369,-0.1701,0.015,-0.3478,-0.474,-1.3885,-1.4503,-0.601,-1.4089,-0.9737,-0.662,-0.9237,-0.9296,-0.2485,-0.2049,-0.329,-0.2515,-0.1775,0.1579,-0.3249
-0.2655,-0.8888,-0.5876,-0.4229,-0.2371,-0.0269,0.5799,0.3983,0.5523,0.3435,0.2419,-0.2402,-0.0859,-0.4351,-0.5767,-1.418,-1.4508,-0.5909,-1.4744,-1.0234,-0.7867,-0.9985,-0.9609,-0.3074,-0.3044,-0.4396,-0.3628,-0.2752,0.2493,-0.2874
-0.362,-0.9121,-0.5469,-0.4785,-0.3822,-0.0953,0.4623,0.4245,0.5617,0.2207,0.2064,-0.3334,-0.2565,-0.5966,-0.6594,-1.4445,-1.4514,-0.6058,-1.54,-1.0937,-0.9499,-1.0882,-1.004,-0.4022,-0.4137,-0.5579,-0.5127,-0.4041,0.3471,-0.2185
-0.4509,-0.9364,-0.5238,-0.5587,-0.5817,-0.2012,0.2673,0.4115,0.5224,0.0448,0.126,-0.4459,-0.4852,-0.8096,-0.7414,-1.4647,-1.4437,-0.64,-1.5974,-1.1727,-1.1282,-1.1821,-1.0536,-0.5256,-0.5288,-0.6747,-0.6895,-0.5524,0.4418,-0.1041
-0.5098,-0.9626,-0.5172,-0.6586,-0.8196,-0.3412,0.0061,0.3459,0.4245,-0.1774,0.0021,-0.5691,-0.751,-1.0424,-0.8337,-1.4718,-1.4167,-0.6828,-1.6349,-1.2432,-1.2922,-1.2661,-1.1011,-0.6656,-0.6413,-0.7774,-0.8757,-0.7035,0.5204,0.0594
-0.5223,-0.9844,-0.5221,-0.7658,-1.0707,-0.5025,-0.2994,0.2233,0.2679,-0.4298,-0.1564,-0.6903,-1.0262,-1.2594,-0.9341,-1.4551,-1.3595,-0.7194,-1.6393,-1.2854,-1.412,-1.3255,-1.1352,-0.8068,-0.7398,-0.8524,-1.0512,-0.8385,0.5687,0.2627
-0.4828,-0.9886,-0.5291,-0.8611,-1.3032,-0.6644,-0.6193,0.0505,0.0638,-0.6887,-0.3333,-0.7952,-1.2804,-1.4266,-1.0267,-1.4023,-1.2638,-0.733,-1.598,-1.2801,-1.4625,-1.3464,-1.1442,-0.9328,-0.8122,-0.8888,-1.1966,-0.9403,0.5753,0.4832
-0.3974,-0.9597,-0.5266,-0.9233,-1.4843,-0.8013,-0.9198,-0.1547,-0.1663,-0.9262,-0.5074,-0.8702,-1.4854,-1.5181,-1.088,-1.3027,-1.1272,-0.709,-1.5024,-1.2131,-1.4285,-1.3196,-1.118,-1.0288,-0.8479,-0.8809,-1.297,-0.9966,0.5362,0.6897
-0.2826,-0.8852,-0.5029,-0.9348,-1.5865,-0.889,-1.1688,-0.3671,-0.3946,-1.116,-0.656,-0.9059,-1.6195,-1.5197,-1.0954,-1.1516,-0.9556,-0.6386,-1.3509,-1.079,-1.3082,-1.242,-1.0513,-1.0848,-0.8415,-0.8303,-1.3446,-1.0031,0.4576,0.8496
-0.1605,-0.7616,-0.4509,-0.8877,-1.594,-0.9108,-1.3415,-0.5596,-0.593,-1.2381,-0.7599,-0.8989,-1.6721,-1.4322,-1.0364,-0.9545,-0.7637,-0.5226,-1.152,-0.8849,-1.1145,-1.1193,-0.9452,-1.0974,-0.7938,-0.7459,-1.34,-0.9638,0.3563,0.9374
-0.0537,-0.5978,-0.3707,-0.7874,-1.5065,-0.8626,-1.425,-0.7087,-0.7379,-1.2828,-0.8067,-0.8528,-1.644,-1.2704,-0.9151,-0.7278,-0.5736,-0.3723,-0.924,-0.6505,-0.8736,-0.9653,-0.8082,-1.0703,-0.7125,-0.642,-1.2914,-0.8904,0.2565,0.9418
0.0188,-0.4137,-0.2705,-0.6522,-1.3399,-0.7537,-1.4192,-0.7983,-0.815,-1.2516,-0.7935,-0.7769,-1.5474,-1.0607,-0.753,-0.4974,-0.4103,-0.207,-0.6936,-0.4065,-0.62,-0.7998,-0.6552,-1.0132,-0.6105,-0.535,-1.2116,-0.7987,0.1834,0.869
0.0454,-0.2355,-0.1654,-0.5094,-1.1224,-0.6051,-1.3359,-0.8222,-0.8203,-1.1556,-0.7263,-0.6842,-1.4017,-0.8357,-0.5845,-0.294,-0.2963,-0.0496,-0.4902,-0.1888,-0.3904,-0.645,-0.5043,-0.9385,-0.503,-0.4396,-1.1152,-0.7052,0.1571,0.7413
0.0222,-0.0896,-0.0733,-0.3882,-0.8879,-0.4434,-1.1945,-0.783,-0.7599,-1.0124,-0.6182,-0.5877,-1.2294,-0.6271,-0.4472,-0.1459,-0.2454,0.079,-0.3405,-0.0308,-0.2162,-0.5201,-0.3735,-0.8585,-0.4048,-0.3658,-1.0149,-0.6232,0.1869,0.5902
-0.0474,0.0042,-0.0105,-0.3127,-0.6693,-0.2943,-1.0181,-0.6909,-0.6473,-0.8419,-0.4867,-0.4987,-1.0512,-0.4606,-0.3706,-0.0733,-0.2594,0.1648,-0.262,0.0428,-0.118,-0.4382,-0.2773,-0.7829,-0.3271,-0.3174,-0.9192,-0.5604,0.2695,0.4479
-0.1551,0.0363,0.0116,-0.2964,-0.4911,-0.1769,-0.8284,-0.5604,-0.5009,-0.6635,-0.3499,-0.4242,-0.883,-0.3513,-0.3675,-0.0842,-0.3283,0.2018,-0.2598,0.0217,-0.1017,-0.4035,-0.2242,-0.7168,-0.2758,-0.292,-0.8319,-0.5179,0.3895,0.3378
-0.2909,0.0078,-0.0112,-0.3402,-0.3669,-0.1012,-0.6434,-0.4077,-0.3397,-0.4935,-0.2245,-0.3677,-0.7344,-0.3023,-0.4308,-0.1737,-0.4335,0.1913,-0.3263,-0.0888,-0.1593,-0.412,-0.2154,-0.6614,-0.2503,-0.2825,-0.7528,-0.4916,0.5237,0.2691
-0.4453,-0.0715,-0.0759,-0.4339,-0.2986,-0.0681,-0.4762,-0.2493,-0.182,-0.3443,-0.1233,-0.329,-0.609,-0.3063,-0.537,-0.3261,-0.5543,0.1393,-0.4432,-0.27,-0.2714,-0.4527,-0.2456,-0.6142,-0.245,-0.2793,-0.6786,-0.4734,0.6466,0.2353
-0.61,-0.1874,-0.1738,-0.5597,-0.2782,-0.0715,-0.3346,-0.1001,-0.0423,-0.2243,-0.0543,-0.3054,-0.5058,-0.3484,-0.654,-0.5187,-0.6724,0.0537,-0.5862,-0.4938,-0.4129,-0.5112,-0.3033,-0.5712,-0.2495,-0.2727,-0.605,-0.4542,0.7364,0.219
-0.7773,-0.3246,-0.2921,-0.6974,-0.2922,-0.1021,-0.2224,0.0277,0.069,-0.1376,-0.0201,-0.293,-0.4213,-0.4101,-0.7506,-0.726,-0.7762,-0.0569,-0.7294,-0.7286,-0.558,-0.5717,-0.3734,-0.5273,-0.252,-0.2546,-0.5279,-0.4262,0.7792,0.1981
-0.9379,-0.4694,-0.4163,-0.8278,-0.3241,-0.1495,-0.1394,0.1254,0.1465,-0.0841,-0.0175,-0.2869,-0.3503,-0.4727,-0.8049,-0.9229,-0.8601,-0.1832,-0.8494,-0.944,-0.6841,-0.6197,-0.4391,-0.4777,-0.2411,-0.2198,-0.4441,-0.384,0.7718,0.1542
-1.08,-0.6102,-0.5316,-0.9347,-0.3574,-0.2039,-0.0823,0.1891,0.1903,-0.0597,-0.0385,-0.2813,-0.2867,-0.5196,-0.8078,-1.0867,-0.9223,-0.315,-0.9273,-1.1144,-0.7744,-0.6429,-0.4839,-0.4179,-0.2077,-0.1665,-0.3516,-0.3254,0.7204,0.0782
-1.1889,-0.736,-0.6233,-1.0057,-0.3768,-0.2557,-0.0441,0.2204,0.2048,-0.0561,-0.0714,-0.2698,-0.2236,-0.5373,-0.7626,-1.1983,-0.9605,-0.4397,-0.9496,-1.2211,-0.8181,-0.6313,-0.4936,-0.3428,-0.1471,-0.0956,-0.249,-0.2508,0.6385,-0.0282
-1.2506,-0.8357,-0.6784,-1.0319,-0.3699,-0.2955,-0.0151,0.2259,0.1988,-0.0615,-0.1025,-0.2452,-0.1532,-0.5165,-0.6803,-1.2429,-0.9692,-0.5432,-0.908,-1.253,-0.8093,-0.5776,-0.4576,-0.2478,-0.0585,-0.0096,-0.1351,-0.1619,0.5423,-0.1541
-1.2556,-0.8977,-0.6869,-1.0079,-0.3282,-0.3146,0.0158,0.2159,0.1826,-0.0631,-0.1186,-0.2004,-0.0679,-0.4517,-0.5748,-1.2109,-0.9393,-0.611,-0.7999,-1.207,-0.747,-0.4778,-0.37,-0.1283,0.0546,0.0878,-0.0089,-0.0611,0.4466,-0.284
-1.2027,-0.9118,-0.6444,-0.9326,-0.2489,-0.3066,0.0584,0.2012,0.1661,-0.0489,-0.1102,-0.1305,0.0376,-0.3429,-0.4581,-1.0999,-0.8614,-0.6309,-0.6286,-1.0882,-0.6343,-0.3319,-0.2311,0.0178,0.1855,0.1926,0.1299,0.0493,0.3611,-0.4022
-1.1002,-0.8718,-0.5534,-0.8101,-0.136,-0.2693,0.1185,0.1903,0.1563,-0.0112,-0.0736,-0.0338,0.1642,-0.1962,-0.3384,-0.9161,-0.7297,-0.5966,-0.4047,-0.9091,-0.4793,-0.1455,-0.0483,0.1889,0.3255,0.3006,0.2801,0.1669,0.2884,-0.4962
-0.9634,-0.7781,-0.4235,-0.6501,-0.0004,-0.2064,0.1954,0.1863,0.1553,0.0518,-0.0123,0.0861,0.3071,-0.0238,-0.2197,-0.6744,-0.5468,-0.5099,-0.1458,-0.6883,-0.2948,0.0698,0.1646,0.3779,0.4643,0.4073,0.4378,0.2894,0.2238,-0.5584
-0.8103,-0.6388,-0.2698,-0.4666,0.1425,-0.1271,0.2816,0.1863,0.1598,0.1347,0.0632,0.2208,0.4553,0.1572,-0.1035,-0.3969,-0.325,-0.3818,0.1252,-0.4476,-0.0971,0.297,0.3885,0.5725,0.5917,0.5079,0.5963,0.4132,0.1572,-0.5863
-0.6567,-0.4682,-0.1096,-0.2758,0.2756,-0.0442,0.3639,0.1825,0.1621,0.2264,0.1375,0.3572,0.5943,0.3283,0.0098,-0.1086,-0.0835,-0.2307,0.3842,-0.2082,0.0969,0.5164,0.6022,0.7567,0.6981,0.5972,0.7469,0.5335,0.0768,-0.5814
-0.5133,-0.2826,0.0414,-0.0925,0.3844,0.029,0.4276,0.1645,0.1525,0.3124,0.1939,0.4808,0.7095,0.4735,0.1191,0.1677,0.1565,-0.0779,0.6107,0.014,0.2732,0.7097,0.7858,0.9139,0.7757,0.6699,0.8798,0.6446,-0.0278,-0.5479
-0.3841,-0.0954,0.1723,0.0739,0.4608,0.0828,0.4599,0.1236,0.1221,0.3786,0.2193,0.5783,0.7905,0.5839,0.2232,0.4167,0.3788,0.0582,0.7928,0.2108,0.4239,0.8635,0.9247,1.0303,0.8198,0.7214,0.9868,0.7402,-0.1615,-0.4918
-0.2675,0.0862,0.2789,0.2209,0.5048,0.1133,0.4544,0.0562,0.066,0.4151,0.2072,0.6414,0.834,0.6593,0.3212,0.6333,0.5774,0.1669,0.9298,0.384,0.549,0.9724,1.0121,1.0979,0.8291,0.7489,1.0627,0.8151,-0.3229,-0.4198
-0.1569,0.2632,0.3631,0.3535,0.5247,0.1235,0.4133,-0.0343,-0.0145,0.4189,0.1609,0.6687,0.845,0.7089,0.4142,0.8235,0.7577,0.2479,1.0327,0.543,0.6555,1.04,1.0498,1.1155,0.8061,0.7522,1.1067,0.8662,-0.5038,-0.339
-0.0426,0.4426,0.4322,0.4825,0.535,0.1229,0.3471,-0.1367,-0.1113,0.3947,0.0927,0.6662,0.8359,0.748,0.5065,1.0012,0.9342,0.3111,1.1206,0.7026,0.7554,1.0775,1.0479,1.089,0.7567,0.7339,1.1223,0.8935,-0.6906,-0.2565
0.0864,0.634,0.4962,0.6206,0.5534,0.1254,0.2733,-0.2339,-0.2103,0.3545,0.022,0.646,0.823,0.7942,0.6062,1.1836,1.1246,0.3725,1.2162,0.8779,0.862,1.1007,1.0219,1.0292,0.6889,0.6994,1.1167,0.8997,-0.8665,-0.1801
0.2414,0.8447,0.5661,0.7792,0.5971,0.1465,0.212,-0.307,-0.2943,0.3146,-0.0296,0.6232,0.8228,0.863,0.7242,1.3856,1.343,0.45,1.3394,1.0809,0.9859,1.1271,0.9904,0.9503,0.6119,0.6559,1.0988,0.89,-1.0147,-0.1176
0.4326,1.0769,0.6519,0.9655,0.6798,0.2004,0.1823,-0.3385,-0.3462,0.2922,-0.0422,0.6124,0.8482,0.9636,0.8711,1.6157,1.5949,0.5575,1.5023,1.3167,1.133,1.1716,0.9712,0.8674,0.5344,0.6105,1.0771,0.8707,-1.1211,-0.0757
0.6673,1.3263,0.7613,1.1804,0.8092,0.2975,0.1978,-0.3169,-0.3529,0.3019,-0.0029,0.6243,0.9056,1.0976,1.0527,1.8731,1.8745,0.701,1.7059,1.5823,1.3024,1.2441,0.9781,0.7947,0.4631,0.5689,1.0583,0.8471,-1.1767,-0.0575
0.9474,1.5832,0.8983,1.4188,0.9856,0.4416,0.2642,-0.2387,-0.3079,0.3528,0.0921,0.6627,0.9942,1.2581,1.2663,2.1483,2.1654,0.8767,1.9392,1.8664,1.4874,1.3466,1.0187,0.7435,0.4019,0.5343,1.0457,0.8228,-1.1793,-0.0617
1.2671,1.8347,1.0624,1.6707,1.202,0.6296,0.3786,-0.1092,-0.2133,0.4464,0.2362,0.7244,1.107,1.4327,1.4984,2.4248,2.4436,1.0707,2.1815,2.1511,1.677,1.4739,1.093,0.7212,0.3523,0.5063,1.0396,0.7982,-1.1341,-0.0822
1.6108,2.0683,1.2486,1.9229,1.4452,0.8512,0.5311,0.0587,-0.0786,0.577,0.4135,0.7996,1.2333,1.6061,1.7267,2.6828,2.6836,1.2621,2.4072,2.4157,1.8585,1.614,1.1932,0.7309,0.3132,0.4822,1.0373,0.7709,-1.0521,-0.11
1.953,2.2737,1.4468,2.1614,1.6981,1.0906,0.7064,0.2476,0.0813,0.7326,0.6026,0.8745,1.3614,1.7643,1.9241,2.9038,2.8642,1.428,2.5911,2.6399,2.0202,1.7519,1.3063,0.771,0.2827,0.4579,1.0352,0.737,-0.948,-0.1361
2.2607,2.4442,1.6426,2.3726,1.9418,1.3287,0.8873,0.4381,0.2486,0.8976,0.7795,0.9346,1.4817,1.8969,2.065,3.0732,2.973,1.5486,2.7145,2.8077,2.1537,1.873,1.4172,0.8368,0.2595,0.4298,1.0301,0.692,-0.8376,-0.154
2.4978,2.5761,1.8184,2.5443,2.1585,1.5457,1.0572,0.6119,0.4062,1.0547,0.9229,0.968,1.5875,1.999,2.1314,3.1829,3.0095,1.6122,2.7691,2.9094,2.2542,1.9668,1.5126,0.9219,0.2444,0.3975,1.0209,0.6336,-0.7345,-0.1622
2.6324,2.6678,1.9551,2.6672,2.3331,1.7239,1.2022,0.7541,0.5396,1.1879,1.0167,0.9683,1.6763,2.0708,2.1169,3.2313,2.9848,1.6177,2.758,2.943,2.3206,2.0297,1.5848,1.0201,0.2411,0.3641,1.0095,0.5632,-0.6488,-0.164
2.6443,2.7183,2.0339,2.7345,2.4553,1.85,1.3122,0.8549,0.639,1.2847,1.0532,0.9355,1.7484,2.1165,2.0288,3.2223,2.918,1.5745,2.6947,2.9139,2.3549,2.0649,1.6332,1.1261,0.2554,0.3374,1.0003,0.4861,-0.5852,-0.1664
2.5303,2.7266,2.0405,2.743,2.5202,1.9168,1.3826,0.91,0.7,1.3378,1.0339,0.8766,1.8061,2.1426,1.8868,3.1642,2.8323,1.5005,2.5999,2.8335,2.3609,2.0816,1.664,1.2369,0.2943,0.3277,0.9999,0.412,-0.544,-0.1788
2.3067,2.6917,1.9681,2.6939,2.529,1.9243,1.4138,0.921,0.7235,1.3461,0.969,0.8038,1.8524,2.1563,1.7198,3.0679,2.749,1.4177,2.4963,2.7175,2.3433,2.0915,1.6878,1.351,0.3639,0.3463,1.0151,0.3525,-0.5222,-0.2103
2.0062,2.6143,1.8207,2.5927,2.4887,1.8793,1.4109,0.8941,0.7145,1.3148,0.875,0.7316,1.8896,2.1638,1.5604,2.9456,2.6838,1.3474,2.4044,2.5832,2.3074,2.1058,1.7163,1.4678,0.4667,0.4017,1.0514,0.3194,-0.5158,-0.2682
1.6716,2.4986,1.6139,2.4502,2.4105,1.7946,1.3825,0.8387,0.6807,1.2534,0.7708,0.674,1.9184,2.1691,1.4376,2.8099,2.6434,1.3058,2.3378,2.4474,2.258,2.1321,1.7586,1.5861,0.6006,0.4974,1.1115,0.3218,-0.5214,-0.3564
1.3465,2.3531,1.3735,2.2808,2.3085,1.6866,1.3388,0.7647,0.6305,1.1744,0.6739,0.6409,1.938,2.1733,1.3706,2.6726,2.6252,1.3,2.3014,2.3236,2.1993,2.1729,1.8189,1.7034,0.7582,0.6294,1.1942,0.3634,-0.5379,-0.4735
1.0679,2.1905,1.131,2.1018,2.1977,1.5727,1.29,0.6813,0.5709,1.0899,0.5965,0.6364,1.9462,2.1754,1.3638,2.5436,2.6188,1.3277,2.2917,2.2207,2.135,2.2256,1.8957,1.8158,0.9277,0.787,1.2943,0.4417,-0.5658,-0.6118
0.8597,2.0274,0.9182,1.9314,2.092,1.4687,1.2445,0.595,0.5071,1.0102,0.5443,0.6584,1.9412,2.1731,1.4067,2.4314,2.6101,1.3792,2.2991,2.1428,2.0693,2.2844,1.9834,1.9192,1.095,0.954,1.4037,0.5481,-0.6066,-0.7587
0.7307,1.8816,0.7613,1.7866,2.0036,1.3872,1.2086,0.51,0.4414,0.9427,0.5156,0.6994,1.9232,2.1658,1.4774,2.3425,2.5866,1.4412,2.313,2.0907,2.0077,2.343,2.075,2.0106,1.246,1.1122,1.5131,0.6685,-0.6614,-0.8981
0.6751,1.7711,0.6769,1.6826,1.9422,1.3372,1.1862,0.4284,0.3746,0.8918,0.504,0.7488,1.8956,2.1554,1.5491,2.2833,2.5429,1.5031,2.3265,2.0645,1.9582,2.3981,2.1652,2.0897,1.3697,1.244,1.6134,0.7867,-0.7293,-1.0138
0.677,1.712,0.6703,1.6319,1.9154,1.3242,1.1797,0.351,0.3063,0.8594,0.5003,0.7958,1.8658,2.1484,1.5992,2.261,2.4855,1.5609,2.3413,2.0667,1.9321,2.4514,2.2535,2.1591,1.4593,1.3364,1.6972,0.8865,-0.8068,-1.0934
0.718,1.718,0.737,1.6455,1.9302,1.3514,1.1902,0.2788,0.2363,0.8462,0.4956,0.8311,1.845,2.1558,1.6164,2.2856,2.4342,1.6212,2.3696,2.1054,1.9445,2.5112,2.3451,2.2245,1.5134,1.3822,1.7598,0.9547,-0.8889,-1.1304
0.7855,1.8005,0.8665,1.7338,1.9938,1.4221,1.2188,0.2134,0.1654,0.8526,0.4841,0.8495,1.8462,2.1924,1.605,2.3711,2.4204,1.7,2.4338,2.1954,2.0133,2.5919,2.4509,2.2932,1.5357,1.3815,1.7996,0.984,-0.9708,-1.1249
0.8782,1.9693,1.0465,1.907,2.1148,1.5405,1.2671,0.1573,0.0965,0.8793,0.464,0.8504,1.8827,2.2747,1.5854,2.5347,2.4824,1.82,2.5631,2.3575,2.1581,2.7115,2.5845,2.3725,1.5343,1.3412,1.818,0.9742,-1.0503,-1.0835
1.0086,2.2322,1.267,2.1747,2.3028,1.7126,1.3373,0.1139,0.0337,0.9272,0.4377,0.8381,1.9653,2.4181,1.589,2.7944,2.6569,2.0044,2.7867,2.6139,2.3961,2.8884,2.7596,2.4689,1.5201,1.2744,1.8195,0.9319,-1.1288,-1.0169
1.1983,2.5944,1.5216,2.5438,2.5669,1.9449,1.4314,0.0864,-0.0182,0.9963,0.4108,0.8197,2.1001,2.6338,1.65,3.1649,2.9707,2.2693,3.1264,2.983,2.7388,3.1369,2.9859,2.5861,1.5053,1.1981,1.8114,0.8698,-1.2109,-0.9377
1.4698,3.056,1.8077,3.0144,2.9118,2.2421,1.5502,0.0767,-0.0549,1.0856,0.3902,0.8042,2.2865,2.925,1.7963,3.6514,3.4327,2.6179,3.5902,3.4719,3.1868,3.4632,3.2665,2.7249,1.5012,1.1306,1.8021,0.8035,-1.3025,-0.858
1.8353,3.6091,2.1233,3.5766,3.3336,2.6038,1.6918,0.0851,-0.0744,1.1916,0.3823,0.7996,2.5166,3.2845,2.0409,4.2453,4.029,3.0369,4.1667,4.0707,3.7265,3.8622,3.5957,2.8818,1.5166,1.0881,1.8007,0.749,-1.4072,-0.7881
2.2886,4.2348,2.4647,4.2071,3.8169,3.0209,1.8505,0.11,-0.0769,1.3087,0.3914,0.8112,2.7755,3.694,2.3769,4.9199,4.7225,3.4966,4.8243,4.7501,4.3287,4.3156,3.9587,3.0497,1.5555,1.0821,1.8141,0.719,-1.525,-0.7357
2.8008,4.9021,2.8234,4.8694,4.3331,3.474,2.0171,0.1484,-0.0649,1.429,0.4194,0.8411,3.043,4.1248,2.7766,5.6317,5.4563,3.9553,5.5129,5.4623,4.9502,4.7929,4.3326,3.2182,1.6165,1.1168,1.8464,0.7215,-1.6507,-0.7054
3.3237,5.5683,3.185,5.516,4.8423,3.9336,2.1798,0.1969,-0.0422,1.5439,0.4659,0.8874,3.2969,4.5421,3.1954,6.324,6.1617,4.3667,6.171,6.1468,5.5386,5.2546,4.689,3.3749,1.6927,1.1889,1.8973,0.7579,-1.7747,-0.6987
3.7999,6.1835,3.5294,6.095,5.2991,4.3637,2.3263,0.2523,-0.0123,1.6457,0.5294,0.946,3.5161,4.9096,3.5802,6.9349,6.7687,4.6883,6.7353,6.7403,6.0399,5.6584,4.9981,3.5074,1.7731,1.2882,1.9628,0.8244,-1.8847,-0.7134
4.1755,6.6969,3.8338,6.5575,5.6597,4.7273,2.4456,0.312,0.0223,1.729,0.6075,1.0114,3.6844,5.1957,3.8794,7.4081,7.2183,4.8898,7.1513,7.1871,6.408,5.9657,5.2335,3.6056,1.8448,1.401,2.0364,0.9129,-1.9682,-0.7441
4.4128,7.0648,4.0757,6.8665,5.891,4.9934,2.5312,0.3742,0.0609,1.7918,0.6982,1.0785,3.7926,5.3793,4.0535,7.7027,7.4725,4.9588,7.3832,7.4496,6.6126,6.1494,5.3766,3.6638,1.8965,1.5131,2.1113,1.0138,-2.0144,-0.7827
4.4974,7.2576,4.2374,7.0035,5.9771,5.1433,2.5817,0.4372,0.1041,1.8359,0.7995,1.1436,3.8403,5.453,4.0832,7.801,7.5207,4.9031,7.4203,7.5159,6.6455,6.1985,5.4194,3.6816,1.9209,1.6132,2.1819,1.1179,-2.017,-0.8203
4.4398,7.2664,4.3088,6.972,5.9231,5.1745,2.6013,0.4993,0.1531,1.8659,0.9091,1.2044,3.8347,5.4248,3.9727,7.7111,7.3798,4.7486,7.2779,7.4012,6.5224,6.1197,5.3648,3.6636,1.916,1.6947,2.2452,1.2181,-1.975,-0.8489
4.2707,7.1044,4.2896,6.7961,5.7541,5.1007,2.598,0.5586,0.2086,1.8878,1.0234,1.2597,3.7887,5.3151,3.7487,7.4647,7.0895,4.5331,6.9929,7.1438,6.2794,5.9352,5.2255,3.6181,1.8845,1.7558,2.2994,1.3085,-1.8946,-0.8634
4.0332,6.8043,4.1892,6.5149,5.5088,4.9476,2.581,0.6126,0.27,1.9063,1.1372,1.3081,3.7167,5.152,3.4559,7.1096,6.7026,4.2973,6.6154,6.7962,5.9653,5.6768,5.0193,3.5539,1.8321,1.7975,2.3433,1.3843,-1.7882,-0.8633
3.7723,6.4117,4.0246,6.1727,5.2302,4.7457,2.557,0.6588,0.3346,1.9238,1.243,1.3473,3.631,4.9637,3.1478,6.6988,6.2739,4.0757,6.1971,6.4126,5.6298,5.3779,4.765,3.4773,1.7643,1.8208,2.3739,1.4401,-1.6732,-0.8523
3.5258,5.9759,3.8166,5.8097,4.955,4.5223,2.5285,0.6949,0.3983,1.9382,1.3322,1.3733,3.5379,4.7715,2.8772,6.2792,5.8488,3.8889,5.7808,6.0375,5.3127,5.0658,4.4773,3.3901,1.6842,1.8247,2.3855,1.4692,-1.5688,-0.8376
3.3173,5.5391,3.5851,5.4532,4.7058,4.2944,2.4922,0.7191,0.4553,1.9436,1.3961,1.3816,3.436,4.585,2.6852,5.8828,5.4561,3.7397,5.3921,5.6963,5.0348,4.7564,4.1648,3.2886,1.5909,1.8049,2.3697,1.4642,-1.492,-0.8274
3.1527,5.13,3.3444,5.1138,4.4865,4.0659,2.441,0.7302,0.5002,1.9317,1.4283,1.3683,3.3178,4.4005,2.593,5.5218,5.1047,3.6137,5.0366,5.3924,4.795,4.4522,3.829,3.1654,1.481,1.7557,2.3175,1.4196,-1.4533,-0.8284
3.0216,4.7586,3.1012,4.7858,4.2844,3.8283,2.3659,0.7277,0.5287,1.8943,1.4267,1.3322,3.1728,4.205,2.5977,5.1894,4.7847,3.4837,4.7021,5.1103,4.5736,4.1453,3.4673,3.0127,1.3507,1.6726,2.2224,1.3338,-1.4538,-0.8433
2.9023,4.418,2.8535,4.4523,4.0757,3.5652,2.26,0.7121,0.5385,1.8265,1.3942,1.2765,2.9927,3.9825,2.6725,4.8642,4.4741,3.3176,4.3652,4.8227,4.341,3.8229,3.077,2.8261,1.1985,1.5553,2.0836,1.212,-1.4837,-0.8699
2.7688,4.0886,2.5946,4.0925,3.8347,3.2596,2.121,0.6848,0.5304,1.7282,1.3388,1.2087,2.7756,3.7211,2.7733,4.5198,4.1464,3.0867,4.0016,4.5015,4.0684,3.475,2.6606,2.6081,1.0281,1.41,1.9083,1.0664,-1.5248,-0.9011
2.5987,3.7457,2.3165,3.6899,3.5422,2.9006,1.9522,0.6478,0.5073,1.605,1.2714,1.1391,2.5279,3.4182,2.8483,4.1332,3.7803,2.7736,3.5947,4.127,3.7381,3.1006,2.2293,2.3692,0.8485,1.2494,1.7109,0.9143,-1.5537,-0.9263
2.379,3.3679,2.0153,3.2383,3.1917,2.4881,1.7612,0.6034,0.4731,1.4654,1.2027,1.0778,2.2632,3.0823,2.8494,3.6919,3.3652,2.3779,3.1421,3.6938,3.3488,2.71,1.8037,2.1256,0.6727,1.0896,1.5104,0.774,-1.5483,-0.9342
2.1084,2.9428,1.6939,2.7432,2.7906,2.0342,1.5575,0.5529,0.4305,1.3181,1.1397,1.0301,1.9978,2.7297,2.7418,3.1971,2.9041,1.9176,2.6559,3.2119,2.9155,2.3229,1.4108,1.8952,0.5144,0.9461,1.3253,0.6594,-1.4934,-0.9149
1.7961,2.4707,1.363,2.2205,2.3571,1.5614,1.3482,0.4965,0.3799,1.1678,1.0826,0.9942,1.7448,2.3787,2.5113,2.662,2.4108,1.4257,2.1591,2.7027,2.4637,1.9622,1.077,1.6919,0.3836,0.8284,1.1674,0.5751,-1.3846,-0.863
1.4571,1.9637,1.0382,1.6916,1.9149,1.0979,1.1356,0.4327,0.3182,1.0131,1.0248,0.9596,1.5091,2.0425,2.1652,2.1063,1.9042,0.9436,1.6768,2.1911,2.0206,1.646,0.821,1.5199,0.2836,0.7367,1.0375,0.5141,-1.2289,-0.7792
1.1062,1.4428,0.7366,1.178,1.4863,0.672,0.9165,0.3593,0.2395,0.8461,0.9531,0.908,1.2848,1.7246,1.7305,1.5495,1.4021,0.5125,1.2284,1.6981,1.6067,1.3806,0.6469,1.3722,0.2086,0.6607,0.9238,0.4578,-1.0423,-0.671
0.7536,0.9321,0.4723,0.6965,1.0878,0.3077,0.6832,0.274,0.1376,0.6548,0.8519,0.8179,1.0565,1.418,1.2464,1.0058,0.9159,0.1652,0.8219,1.2349,1.2309,1.1574,0.5425,1.2311,0.1448,0.5814,0.8039,0.3804,-0.8445,-0.5514
0.4029,0.4542,0.2528,0.257,0.7281,0.0203,0.4274,0.1766,0.008,0.4272,0.7069,0.6693,0.8047,1.1082,0.757,0.4815,0.4495,-0.0797,0.4523,0.8022,0.8896,0.9555,0.4818,1.0737,0.0736,0.4763,0.6511,0.2552,-0.6544,-0.4367
0.0527,0.0264,0.0776,-0.1368,0.4094,-0.1844,0.1449,0.0696,-0.1494,0.157,0.5095,0.4495,0.5132,0.7808,0.3022,-0.0232,0.0008,-0.2193,0.1058,0.3928,0.5717,0.7485,0.4321,0.8786,-0.023,0.3255,0.4415,0.0619,-0.486,-0.3427
-0.2997,-0.3412,-0.0606,-0.4846,0.1299,-0.3098,-0.1611,-0.0417,-0.3289,-0.1534,0.2598,0.1579,0.1765,0.4286,-0.088,-0.5101,-0.4336,-0.2644,-0.2336,-0.0015,0.266,0.5138,0.3629,0.6334,-0.1571,0.1175,0.1626,-0.2076,-0.3472,-0.2823
-0.6538,-0.6441,-0.1727,-0.7857,-0.1116,-0.3661,-0.4777,-0.1493,-0.5189,-0.49,-0.0317,-0.1924,-0.1956,0.0578,-0.3976,-0.9776,-0.8537,-0.2355,-0.5762,-0.3836,-0.0319,0.2412,0.2538,0.3397,-0.3307,-0.1462,-0.1825,-0.5453,-0.2403,-0.2628
-1.0028,-0.8814,-0.2683,-1.0357,-0.3132,-0.367,-0.7829,-0.2435,-0.7033,-0.8287,-0.3454,-0.5756,-0.5769,-0.3096,-0.624,-1.4162,-1.2526,-0.1576,-0.9214,-0.7455,-0.3149,-0.0626,0.0996,0.0138,-0.5344,-0.4508,-0.5731,-0.928,-0.1639,-0.2858
-1.3327,-1.0534,-0.353,-1.2256,-0.4686,-0.3261,-1.0493,-0.3152,-0.8642,-1.1383,-0.6546,-0.9569,-0.9293,-0.6388,-0.7761,-1.8071,-1.615,-0.0553,-1.2556,-1.0677,-0.5637,-0.3738,-0.0902,-0.3152,-0.749,-0.7701,-0.9743,-1.3205,-0.114,-0.3476
-1.6242,-1.1594,-0.426,-1.343,-0.5686,-0.2546,-1.2485,-0.3567,-0.9844,-1.3865,-0.9297,-1.2983,-1.2099,-0.8896,-0.8688,-2.1247,-1.9194,0.0501,-1.5551,-1.3224,-0.7514,-0.6566,-0.294,-0.6112,-0.9492,-1.0713,-1.3433,-1.6821,-0.085,-0.44
-1.8566,-1.1976,-0.4818,-1.3755,-0.6033,-0.1601,-1.3573,-0.3633,-1.0507,-1.5456,-1.1423,-1.565,-1.3804,-1.025,-0.9191,-2.3416,-2.1427,0.1424,-1.7914,-1.4801,-0.8501,-0.8722,-0.4843,-0.8389,-1.1095,-1.3215,-1.6381,-1.9739,-0.0701,-0.5525
-2.0121,-1.1652,-0.5115,-1.3151,-0.5658,-0.0469,-1.3619,-0.3346,-1.0562,-1.5977,-1.2697,-1.7304,-1.4154,-1.0202,-0.9418,-2.4346,-2.2646,0.2113,-1.9376,-1.5173,-0.8393,-0.9871,-0.6342,-0.9704,-1.2085,-1.4931,-1.8251,-2.1651,-0.0615,-0.6728
-2.0784,-1.0599,-0.5053,-1.1613,-0.4549,0.0834,-1.2613,-0.2738,-1.0007,-1.5378,-1.2978,-1.7805,-1.3072,-0.8688,-0.9474,-2.3907,-2.272,0.2524,-1.9747,-1.423,-0.7105,-0.9812,-0.7227,-0.9906,-1.2335,-1.5685,-1.885,-2.2384,-0.0511,-0.7881
-2.0497,-0.8817,-0.4549,-0.9222,-0.2762,0.2303,-1.0669,-0.1878,-0.8908,-1.3742,-1.2231,-1.7145,-1.0674,-0.5838,-0.9404,-2.2099,-2.1611,0.2663,-1.8946,-1.2012,-0.4706,-0.8517,-0.7381,-0.8993,-1.1816,-1.5421,-1.8156,-2.1913,-0.0322,-0.8866
-1.9257,-0.634,-0.3539,-0.6138,-0.0414,0.3939,-0.8005,-0.0857,-0.7386,-1.1257,-1.0531,-1.5441,-0.724,-0.1946,-0.9192,-1.9058,-1.9379,0.2581,-1.7014,-0.8703,-0.1391,-0.6124,-0.6795,-0.7102,-1.0603,-1.4209,-1.6303,-2.0361,-0.0008,-0.9587
-1.7112,-0.3244,-0.1994,-0.2575,0.2333,0.5733,-0.4906,0.0224,-0.559,-0.8182,-0.8046,-1.2902,-0.3152,0.259,-0.8759,-1.5024,-1.6173,0.2361,-1.4102,-0.4586,0.2552,-0.2907,-0.5554,-0.4472,-0.8853,-1.2218,-1.3545,-1.7957,0.0428,-0.9984
-1.4145,0.0349,0.0073,0.1238,0.5298,0.7666,-0.167,0.1268,-0.3683,-0.4798,-0.5017,-0.9794,0.117,0.7341,-0.7984,-1.0311,-1.2209,0.2102,-1.044,0.0006,0.6803,0.0784,-0.3813,-0.14,-0.6767,-0.9682,-1.0198,-1.4995,0.0928,-1.0053
-1.0481,0.4278,0.2595,0.5079,0.8306,0.97,0.1435,0.2188,-0.1815,-0.1364,-0.1715,-0.6394,0.5337,1.191,-0.6721,-0.5253,-0.7754,0.1903,-0.6308,0.4745,1.1051,0.459,-0.1762,0.1816,-0.456,-0.6859,-0.6588,-1.1775,0.139,-0.9842
-0.6288,0.8357,0.5443,0.8765,1.1205,1.178,0.4205,0.2915,-0.0116,0.191,0.1587,-0.2959,0.9041,1.5978,-0.4844,-0.0168,-0.3095,0.1853,-0.1998,0.9344,1.5028,0.8195,0.0406,0.4913,-0.242,-0.3986,-0.2996,-0.8557,0.1679,-0.9445
-0.178,1.2391,0.8439,1.216,1.3879,1.3836,0.6519,0.3404,0.1319,0.4875,0.4652,0.0303,1.2075,1.9321,-0.2297,0.4675,0.1489,0.2016,0.2213,1.3577,1.8526,1.1363,0.2527,0.7693,-0.0479,-0.1254,0.0365,-0.5533,0.1662,-0.8971
0.2794,1.6199,1.1377,1.5183,1.6248,1.5791,0.834,0.3634,0.2429,0.7441,0.7301,0.324,1.4343,2.1814,0.0869,0.9079,0.5759,0.2422,0.6097,1.7289,2.1395,1.3952,0.4479,1.0031,0.1189,0.1211,0.336,-0.2815,0.1244,-0.8514
0.7171,1.9631,1.4055,1.7796,1.8266,1.7566,0.9694,0.3612,0.3192,0.9565,0.9428,0.5754,1.5846,2.3411,0.4464,1.2915,0.9538,0.3056,0.9484,2.0384,2.3542,1.591,0.6185,1.1872,0.2577,0.3344,0.5927,-0.0447,0.0398,-0.8128
1.1112,2.2581,1.631,2,1.9907,1.9086,1.0649,0.3374,0.3625,1.1234,1.0995,0.7794,1.6649,2.4134,0.8179,1.6116,1.2723,0.3859,1.2276,2.2813,2.4916,1.7252,0.7611,1.3212,0.3717,0.5126,0.805,0.1571,-0.082,-0.7801
1.4428,2.4983,1.8029,2.1805,2.1152,2.0287,1.1285,0.2973,0.3773,1.2451,1.2029,0.9342,1.6862,2.4042,1.162,1.8656,1.5279,0.4732,1.443,2.4551,2.5506,1.8035,0.8749,1.4088,0.4667,0.6566,0.9738,0.3261,-0.2281,-0.7463
1.701,2.6801,1.9153,2.3212,2.1972,2.1108,1.1668,0.2476,0.3701,1.323,1.2595,1.0403,1.6604,2.3224,1.4389,2.0521,1.7221,0.5547,1.5941,2.5581,2.532,1.8328,0.9603,1.4554,0.5478,0.7681,1.101,0.4641,-0.3804,-0.7006
1.8828,2.8011,1.9664,2.4193,2.2321,2.1491,1.1833,0.1946,0.3479,1.3586,1.2783,1.0997,1.5984,2.1774,1.6156,2.1688,1.8579,0.6172,1.682,2.5876,2.4384,1.8194,1.018,1.4671,0.6185,0.848,1.1879,0.5714,-0.5199,-0.6323
1.9912,2.8579,1.9574,2.4679,2.213,2.1381,1.1786,0.1441,0.3167,1.354,1.2679,1.1157,1.5087,1.979,1.6732,2.211,1.9369,0.6492,1.7066,2.5391,2.2728,1.7672,1.0476,1.4493,0.6788,0.8957,1.2347,0.6463,-0.6301,-0.5352
2.0318,2.8454,1.892,2.4572,2.1317,2.0733,1.1506,0.0999,0.2809,1.312,1.2352,1.0922,1.3963,1.7363,1.6095,2.1714,1.9562,0.6432,1.6657,2.4069,2.0384,1.6771,1.0473,1.4056,0.7252,0.9088,1.2413,0.6853,-0.6997,-0.411
2.0092,2.7568,1.776,2.3761,1.9817,1.9521,1.0958,0.0644,0.2428,1.2363,1.1844,1.0334,1.2633,1.4581,1.4387,2.0412,1.9079,0.5954,1.5546,2.185,1.7389,1.5469,1.0132,1.3372,0.7512,0.883,1.2067,0.6832,-0.7232,-0.2702
1.9241,2.5849,1.6172,2.2153,1.7598,1.7752,1.0105,0.0384,0.2028,1.1312,1.1167,0.943,1.1094,1.1521,1.1865,1.8121,1.7797,0.5051,1.3669,1.8692,1.3782,1.3723,0.9394,1.2429,0.7484,0.8135,1.1299,0.6342,-0.6998,-0.1302
1.7722,2.3242,1.4242,1.9704,1.469,1.5469,0.8922,0.0206,0.1598,1.0012,1.0304,0.8234,0.9326,0.8248,0.8825,1.4789,1.5574,0.3731,1.0965,1.459,0.9613,1.1486,0.8184,1.1199,0.7078,0.6957,1.01,0.5326,-0.6311,-0.0112
1.5455,1.9726,1.2054,1.6434,1.1192,1.2751,0.7397,0.0085,0.1115,0.8502,0.9219,0.6758,0.7309,0.4815,0.5535,1.0411,1.2291,0.1998,0.7399,0.9589,0.4947,0.872,0.643,0.9644,0.6221,0.5279,0.8468,0.3743,-0.5192,0.0694
1.2349,1.5332,0.9675,1.2435,0.7263,0.97,0.5532,-0.0022,0.0548,0.6807,0.7868,0.5002,0.5031,0.1263,0.2176,0.5054,0.7892,-0.0142,0.2986,0.3798,-0.0132,0.5426,0.4081,0.7736,0.4874,0.3122,0.6414,0.1585,-0.3664,0.1019
0.8351,1.0151,0.7156,0.7865,0.3101,0.6429,0.3349,-0.0164,-0.0128,0.4941,0.6213,0.2967,0.2497,-0.2374,-0.1182,-0.1138,0.2429,-0.2666,-0.219,-0.2612,-0.552,0.1653,0.1134,0.5467,0.3048,0.0559,0.3966,-0.1109,-0.1761,0.0867
0.3493,0.4344,0.4534,0.2927,-0.1093,0.3043,0.0885,-0.0389,-0.0933,0.2908,0.4242,0.0663,-0.0265,-0.6063,-0.4566,-0.7937,-0.3921,-0.5515,-0.7963,-0.9407,-1.1089,-0.2496,-0.2352,0.2859,0.0809,-0.2282,0.1179,-0.4252,0.0449,0.0346
-0.2085,-0.1866,0.1846,-0.2155,-0.5147,-0.0369,-0.1808,-0.0736,-0.1865,0.0712,0.198,-0.1872,-0.3202,-0.9767,-0.8049,-1.5051,-1.0856,-0.8577,-1.4097,-1.6314,-1.6691,-0.6869,-0.6239,-0.0033,-0.172,-0.5231,-0.1868,-0.77,0.2839,-0.0365
-0.8119,-0.8206,-0.0867,-0.7159,-0.8951,-0.3746,-0.4664,-0.1226,-0.2905,-0.1633,-0.0501,-0.4561,-0.6247,-1.3452,-1.1692,-2.214,-1.7985,-1.169,-2.03,-2.3038,-2.2176,-1.1283,-1.033,-0.3119,-0.4379,-0.8092,-0.5075,-1.1273,0.5223,-0.1058
-1.4255,-1.4378,-0.3554,-1.1893,-1.2464,-0.7044,-0.7607,-0.1853,-0.4005,-0.4099,-0.3086,-0.729,-0.9321,-1.7082,-1.5487,-2.8855,-2.4877,-1.4656,-2.6259,-2.9292,-2.7394,-1.5551,-1.4387,-0.6287,-0.6986,-1.0667,-0.8319,-1.4761,0.7369,-0.1547
-2.0095,-2.0086,-0.6161,-1.6205,-1.5708,-1.0234,-1.0554,-0.259,-0.5102,-0.6629,-0.5628,-0.9909,-1.2348,-2.0621,-1.9317,-3.4867,-3.1129,-1.7274,-3.1676,-3.4822,-3.2209,-1.9498,-1.8171,-0.9409,-0.9366,-1.2779,-1.147,-1.7953,0.9036,-0.1704
-2.5254,-2.5061,-0.8633,-1.9988,-1.8735,-1.3285,-1.3413,-0.3389,-0.6121,-0.9146,-0.7968,-1.2251,-1.5252,-2.4023,-2.2972,-3.9904,-3.6416,-1.9375,-3.6296,-3.9426,-3.6498,-2.2978,-2.1471,-1.2353,-1.1367,-1.4287,-1.439,-2.0653,1.0017,-0.148
-2.9419,-2.9088,-1.0915,-2.317,-2.159,-1.6154,-1.6092,-0.419,-0.6989,-1.1552,-0.996,-1.4158,-1.7964,-2.722,-2.6177,-4.3771,-4.0527,-2.085,-3.9935,-4.2959,-4.0149,-2.5883,-2.4137,-1.4992,-1.2884,-1.5109,-1.6952,-2.27,1.0186,-0.0902
-3.2376,-3.2019,-1.2946,-2.5703,-2.4275,-1.8774,-1.8497,-0.4928,-0.7649,-1.3732,-1.1489,-1.5503,-2.0416,-3.0116,-2.8651,-4.6357,-4.337,-2.1672,-4.2489,-4.5342,-4.3051,-2.814,-2.6092,-1.7215,-1.3859,-1.5222,-1.9043,-2.3991,0.952,-0.0055
-3.4037,-3.3773,-1.4655,-2.7547,-2.673,-2.1056,-2.0539,-0.5548,-0.8068,-1.5576,-1.2489,-1.6215,-2.2534,-3.2583,-3.0161,-4.7634,-4.4952,-2.189,-4.3929,-4.6548,-4.5099,-2.9709,-2.7333,-1.8937,-1.4292,-1.4677,-2.0581,-2.4486,0.8099,0.0937
-3.4418,-3.4339,-1.596,-2.8652,-2.8827,-2.2897,-2.214,-0.601,-0.8248,-1.6985,-1.2949,-1.6291,-2.4244,-3.447,-3.0556,-4.7643,-4.5339,-2.1611,-4.429,-4.6591,-4.6195,-3.0575,-2.7911,-2.0105,-1.423,-1.3582,-2.1515,-2.4221,0.6085,0.1935
-3.362,-3.3764,-1.6772,-2.8961,-3.0393,-2.4192,-2.3245,-0.63,-0.8221,-1.7892,-1.2914,-1.58,-2.5474,-3.5623,-2.9781,-4.647,-4.4615,-2.0963,-4.3644,-4.552,-4.6265,-3.0744,-2.7911,-2.0702,-1.376,-1.21,-2.1838,-2.33,0.3689,0.2811
-3.1781,-3.2142,-1.7016,-2.8427,-3.1248,-2.486,-2.3832,-0.643,-0.805,-1.8276,-1.2476,-1.4874,-2.6171,-3.5919,-2.7876,-4.4234,-4.2865,-2.0074,-4.2086,-4.3409,-4.5277,-3.0239,-2.7421,-2.0753,-1.2995,-1.0423,-2.1589,-2.1879,0.1132,0.3467
-2.9049,-2.9617,-1.6646,-2.7033,-3.1251,-2.4859,-2.3916,-0.6438,-0.7816,-1.8165,-1.1766,-1.3686,-2.6311,-3.5294,-2.4963,-4.108,-4.0172,-1.9043,-3.972,-4.0363,-4.3258,-2.9102,-2.6526,-2.0321,-1.206,-0.8751,-2.0847,-2.0153,-0.1383,0.3851
-2.5558,-2.6372,-1.567,-2.4828,-3.0334,-2.4206,-2.3548,-0.6375,-0.76,-1.7637,-1.0928,-1.2419,-2.5916,-3.3765,-2.122,-3.7174,-3.6638,-1.7937,-3.6663,-3.6521,-4.0303,-2.7401,-2.5301,-1.9505,-1.1081,-0.7272,-1.9734,-1.8322,-0.3697,0.3957
-2.1441,-2.2626,-1.4147,-2.1935,-2.8531,-2.2978,-2.2806,-0.6295,-0.7467,-1.6803,-1.0097,-1.1239,-2.5047,-3.1436,-1.6872,-3.2713,-3.2411,-1.6796,-3.3051,-3.2064,-3.6574,-2.523,-2.3817,-1.8425,-1.017,-0.6136,-1.8393,-1.657,-0.5703,0.382
-1.6854,-1.8622,-1.2181,-1.8555,-2.597,-2.13,-2.1777,-0.6241,-0.7451,-1.5782,-0.9376,-1.0259,-2.3798,-2.8484,-1.2171,-2.7915,-2.7701,-1.564,-2.9048,-2.7216,-3.229,-2.2709,-2.2154,-1.7207,-0.942,-0.5434,-1.6967,-1.5037,-0.7348,0.3501
-1.1995,-1.4604,-0.9909,-1.4941,-2.2859,-1.933,-2.0538,-0.6233,-0.7547,-1.468,-0.8816,-0.9529,-2.2281,-2.5133,-0.7389,-2.3024,-2.2776,-1.4486,-2.4844,-2.2229,-2.7705,-1.998,-2.0401,-1.596,-0.8895,-0.5188,-1.5579,-1.3803,-0.8622,0.3071
-0.712,-1.0799,-0.7486,-1.1362,-1.9452,-1.7225,-1.9149,-0.6262,-0.7709,-1.3565,-0.8414,-0.9023,-2.0598,-2.1623,-0.2797,-1.8289,-1.7944,-1.3362,-2.0646,-1.7367,-2.3084,-1.7195,-1.8655,-1.4759,-0.8617,-0.5335,-1.4306,-1.2877,-0.954,0.2594
-0.2518,-0.7397,-0.507,-0.8062,-1.6002,-1.512,-1.7636,-0.6288,-0.7863,-1.2456,-0.8114,-0.865,-1.8821,-1.8173,0.1367,-1.395,-1.3511,-1.2312,-1.6667,-1.2879,-1.8673,-1.4505,-1.701,-1.3633,-0.8565,-0.574,-1.316,-1.2194,-1.0132,0.2107
0.1524,-0.4536,-0.2819,-0.5223,-1.2726,-1.31,-1.6,-0.6252,-0.7922,-1.1325,-0.7826,-0.8275,-1.6984,-1.4951,0.4927,-1.0209,-0.9737,-1.1393,-1.3096,-0.8972,-1.4675,-1.2036,-1.5531,-1.2556,-0.8666,-0.6206,-1.209,-1.1635,-1.0432,0.1605
0.4773,-0.2288,-0.088,-0.2945,-0.978,-1.1198,-1.4219,-0.6082,-0.7803,-1.0107,-0.7449,-0.775,-1.5072,-1.2053,0.7805,-0.7205,-0.6792,-1.0653,-1.0074,-0.5777,-1.1225,-0.9867,-1.4244,-1.1452,-0.88,-0.651,-1.0994,-1.1048,-1.0475,0.1035
0.7083,-0.0659,0.0617,-0.1239,-0.7245,-0.9405,-1.2271,-0.5718,-0.7452,-0.8735,-0.6896,-0.6947,-1.3041,-0.949,1.001,-0.4996,-0.4729,-1.0126,-0.7672,-0.3342,-0.8374,-0.8013,-1.3121,-1.0213,-0.8823,-0.6442,-0.9744,-1.0284,-1.0297,0.0313
0.8423,0.0397,0.1568,-0.005,-0.5137,-0.7695,-1.0148,-0.513,-0.6857,-0.7167,-0.6123,-0.5797,-1.0836,-0.7207,1.1622,-0.3555,-0.3481,-0.9816,-0.5888,-0.1624,-0.6097,-0.6428,-1.2091,-0.8729,-0.8586,-0.5842,-0.8228,-0.9238,-0.9926,-0.0649
0.8861,0.0956,0.1905,0.0716,-0.3424,-0.6055,-0.788,-0.4333,-0.6057,-0.5416,-0.5136,-0.4313,-0.8427,-0.5104,1.2748,-0.2786,-0.2888,-0.971,-0.4651,-0.0514,-0.4308,-0.5021,-1.1065,-0.6921,-0.7978,-0.4645,-0.639,-0.7877,-0.9379,-0.1912
0.8543,0.1096,0.1615,0.1152,-0.2052,-0.4504,-0.5537,-0.338,-0.513,-0.3554,-0.3996,-0.2597,-0.5835,-0.3082,1.3483,-0.2556,-0.2749,-0.9789,-0.3854,0.0126,-0.2895,-0.3685,-0.9966,-0.4774,-0.6946,-0.2892,-0.4258,-0.6261,-0.8659,-0.3488
0.7651,0.0871,0.0743,0.1322,-0.0969,-0.3103,-0.3228,-0.2355,-0.4174,-0.1704,-0.2794,-0.0819,-0.3143,-0.1079,1.3881,-0.2729,-0.2881,-1.004,-0.3392,0.043,-0.1755,-0.2346,-0.8758,-0.236,-0.552,-0.0735,-0.1953,-0.4531,-0.7751,-0.5331
0.6361,0.0304,-0.0601,0.1248,-0.0139,-0.1942,-0.1079,-0.1339,-0.3273,-0.0014,-0.1631,0.081,-0.0497,0.0901,1.3952,-0.3204,-0.3169,-1.0461,-0.319,0.0487,-0.083,-0.0984,-0.7471,0.0169,-0.3809,0.1591,0.0328,-0.2886,-0.6635,-0.7348
0.4824,-0.0602,-0.2249,0.0913,0.0452,-0.1117,0.0788,-0.0389,-0.2472,0.1383,-0.0581,0.2092,0.1921,0.2781,1.3672,-0.3922,-0.3585,-1.1065,-0.3225,0.033,-0.0119,0.0346,-0.6192,0.26,-0.198,0.3808,0.2347,-0.1541,-0.5297,-0.9419
0.3156,-0.1839,-0.3994,0.0287,0.0799,-0.0697,0.2281,0.0484,-0.1758,0.2399,0.0316,0.2874,0.3921,0.4425,1.3015,-0.487,-0.4177,-1.1861,-0.3525,-0.0059,0.0324,0.1526,-0.5048,0.47,-0.0231,0.5641,0.3873,-0.0687,-0.3742,-1.1411
0.1451,-0.3362,-0.5615,-0.0645,0.089,-0.0693,0.335,0.1318,-0.1072,0.3003,0.1067,0.3083,0.5341,0.5663,1.1986,-0.6051,-0.5029,-1.2841,-0.4145,-0.0727,0.0414,0.2406,-0.4177,0.6256,0.1247,0.6867,0.4725,-0.0451,-0.2005,-1.3204
-0.02,-0.5077,-0.6908,-0.1854,0.0715,-0.1051,0.3986,0.2181,-0.0325,0.3223,0.1704,0.2726,0.6069,0.6335,1.0644,-0.7458,-0.6208,-1.3973,-0.5132,-0.1716,0.0066,0.2835,-0.3691,0.7116,0.2297,0.7344,0.4806,-0.088,-0.0155,-1.4702
-0.1699,-0.6834,-0.7716,-0.3259,0.0271,-0.1657,0.4214,0.3146,0.0558,0.3122,0.2263,0.1881,0.606,0.6321,0.9103,-0.9043,-0.7724,-1.5184,-0.6495,-0.303,-0.077,0.2708,-0.3649,0.7209,0.2822,0.7033,0.4118,-0.1936,0.1715,-1.5829
-0.2939,-0.8456,-0.7959,-0.4732,-0.0432,-0.2364,0.4069,0.4254,0.1608,0.2769,0.2763,0.0672,0.533,0.557,0.7518,-1.0711,-0.9509,-1.6367,-0.8177,-0.4619,-0.2086,0.1991,-0.4045,0.6549,0.2797,0.5999,0.2753,-0.3506,0.3492,-1.654
-0.3815,-0.977,-0.7642,-0.6125,-0.1371,-0.3031,0.3585,0.5489,0.2786,0.2215,0.3185,-0.0761,0.3949,0.4112,0.6062,-1.2323,-1.141,-1.7387,-1.0052,-0.637,-0.3811,0.0735,-0.4807,0.5226,0.2263,0.4391,0.0873,-0.543,0.506,-1.6813
-0.4238,-1.0646,-0.6853,-0.7292,-0.2508,-0.3552,0.2783,0.6771,0.3982,0.1482,0.3473,-0.2287,0.2025,0.2053,0.4902,-1.3713,-1.3219,-1.8092,-1.1939,-0.8124,-0.5819,-0.092,-0.5814,0.3379,0.132,0.2412,-0.1322,-0.7519,0.6311,-1.6658
-0.4146,-1.1014,-0.5737,-0.812,-0.3791,-0.3871,0.1677,0.7976,0.5037,0.0565,0.3557,-0.3801,-0.0307,-0.0438,0.4188,-1.4716,-1.4701,-1.8343,-1.3623,-0.9694,-0.7944,-0.2772,-0.6916,0.1181,0.011,0.0291,-0.3629,-0.9593,0.7158,-1.612
-0.3509,-1.0871,-0.4461,-0.8536,-0.5147,-0.3986,0.0288,0.8968,0.5783,-0.0541,0.3376,-0.5223,-0.2896,-0.3156,0.4041,-1.5188,-1.5641,-1.8038,-1.4893,-1.0897,-1.0005,-0.4579,-0.7955,-0.1183,-0.1202,-0.1753,-0.5859,-1.149,0.7545,-1.5281
-0.2325,-1.0264,-0.3172,-0.8514,-0.6485,-0.3933,-0.1341,0.9632,0.609,-0.1823,0.2916,-0.6485,-0.5579,-0.5877,0.4532,-1.5034,-1.5878,-1.7144,-1.557,-1.1582,-1.1828,-0.6099,-0.8791,-0.3523,-0.2447,-0.3532,-0.7851,-1.3076,0.7461,-1.4252
-0.0616,-0.9272,-0.1971,-0.8066,-0.7699,-0.376,-0.3126,0.9909,0.59,-0.3224,0.2227,-0.7526,-0.8184,-0.8388,0.5674,-1.4219,-1.5342,-1.5716,-1.5542,-1.1652,-1.3272,-0.7132,-0.9316,-0.5658,-0.3468,-0.4901,-0.9481,-1.4251,0.6947,-1.3152
0.1569,-0.7985,-0.0891,-0.7231,-0.8672,-0.3504,-0.4944,0.9806,0.5244,-0.4643,0.1414,-0.8279,-1.054,-1.0504,0.7412,-1.2775,-1.4056,-1.3893,-1.4777,-1.1078,-1.4237,-0.7545,-0.947,-0.742,-0.4143,-0.5765,-1.0656,-1.4948,0.6093,-1.2095
0.4147,-0.648,0.0102,-0.605,-0.9282,-0.3168,-0.6639,0.9392,0.4237,-0.5939,0.0627,-0.8678,-1.2489,-1.2077,0.9629,-1.0789,-1.2135,-1.188,-1.3324,-0.9894,-1.4664,-0.7289,-0.9244,-0.868,-0.44,-0.6089,-1.1324,-1.5132,0.5032,-1.1176
0.7004,-0.4812,0.1089,-0.4555,-0.9417,-0.2718,-0.8041,0.8781,0.305,-0.6959,0.0017,-0.8669,-1.3897,-1.3004,1.2163,-0.8389,-0.9746,-0.9901,-1.1304,-0.8181,-1.4534,-0.6404,-0.8674,-0.9358,-0.4226,-0.5892,-1.1472,-1.4806,0.3911,-1.046
1,-0.3,0.2179,-0.2761,-0.8985,-0.2086,-0.8996,0.8102,0.1868,-0.7572,-0.0294,-0.8232,-1.4671,-1.3234,1.4831,-0.5711,-0.7077,-0.816,-0.888,-0.6047,-1.385,-0.5003,-0.7832,-0.9442,-0.3673,-0.5251,-1.1132,-1.4018,0.2869,-0.9981
1.2987,-0.1041,0.3462,-0.0675,-0.7934,-0.1194,-0.9394,0.7476,0.0853,-0.77,-0.0243,-0.739,-1.4781,-1.2774,1.7453,-0.2888,-0.4296,-0.6809,-0.6236,-0.3605,-1.2636,-0.3249,-0.6809,-0.8993,-0.2849,-0.4289,-1.0382,-1.2864,0.2014,-0.9729
1.583,0.1079,0.498,0.1683,-0.6276,0.0011,-0.92,0.6983,0.0106,-0.7339,0.0156,-0.6224,-1.4267,-1.1693,1.9861,-0.0035,-0.1535,-0.5923,-0.355,-0.0976,-1.0941,-0.1334,-0.5704,-0.8134,-0.1892,-0.3163,-0.9343,-1.1485,0.1411,-0.9656
1.8421,0.3356,0.6699,0.4255,-0.4099,0.1532,-0.8458,0.6655,-0.0346,-0.6567,0.0816,-0.4869,-1.3237,-1.0126,2.1911,0.2739,0.1115,-0.5504,-0.0984,0.1715,-0.8849,0.0552,-0.4606,-0.7035,-0.0948,-0.2041,-0.8157,-1.0053,0.1077,-0.9675
2.0678,0.5743,0.8502,0.6927,-0.1573,0.3301,-0.729,0.6472,-0.0546,-0.5529,0.1589,-0.3493,-1.1858,-0.8263,2.3498,0.5327,0.3589,-0.549,0.1319,0.4325,-0.6496,0.2234,-0.3595,-0.5878,-0.015,-0.1079,-0.6975,-0.8744,0.0982,-0.9687
2.2532,0.8139,1.0208,0.9523,0.1063,0.5181,-0.5873,0.6374,-0.059,-0.4402,0.2304,-0.2268,-1.0321,-0.6322,2.4565,0.7613,0.5836,-0.5782,0.3243,0.6694,-0.4059,0.3581,-0.2729,-0.4827,0.0411,-0.0391,-0.5926,-0.7713,0.1066,-0.9609
2.3909,1.0391,1.1611,1.1833,0.3542,0.6992,-0.4397,0.6285,-0.0597,-0.3354,0.2797,-0.1341,-0.8802,-0.4511,2.5119,0.9476,0.7805,-0.6264,0.4703,0.8657,-0.1748,0.4513,-0.2043,-0.399,0.0692,-0.0035,-0.5092,-0.7056,0.1255,-0.9414
2.4717,1.2317,1.2526,1.3647,0.5614,0.8553,-0.3027,0.6133,-0.0669,-0.2502,0.2959,-0.0794,-0.7428,-0.2982,2.5232,1.0807,0.9443,-0.6817,0.5652,1.0073,0.0241,0.5018,-0.1539,-0.3394,0.0704,0.0003,-0.4494,-0.6794,0.1473,-0.9152
2.4854,1.3749,1.283,1.4808,0.7098,0.9727,-0.1863,0.5875,-0.0865,-0.1887,0.2757,-0.063,-0.6239,-0.1797,2.5035,1.1532,1.0699,-0.733,0.6088,1.0859,0.1759,0.5156,-0.1185,-0.2979,0.0509,-0.0202,-0.4085,-0.6863,0.1655,-0.8951
2.4237,1.4573,1.2482,1.5254,0.7917,1.0452,-0.0928,0.5515,-0.1185,-0.1469,0.2249,-0.0766,-0.5189,-0.091,2.4691,1.1637,1.1531,-0.7705,0.6059,1.1016,0.2746,0.5049,-0.0913,-0.2609,0.0206,-0.053,-0.3763,-0.7133,0.1752,-0.8991
2.2831,1.4766,1.1529,1.5039,0.811,1.0756,-0.0161,0.5099,-0.1565,-0.1141,0.1571,-0.1051,-0.4156,-0.0182,2.4366,1.1181,1.1918,-0.7865,0.5655,1.0633,0.3244,0.4859,-0.0634,-0.2102,-0.0086,-0.0846,-0.3394,-0.7431,0.1735,-0.9454
2.0693,1.4398,1.0089,1.4321,0.782,1.0751,0.055,0.4713,-0.1895,-0.0763,0.0905,-0.1294,-0.2982,0.0578,2.4191,1.0293,1.187,-0.776,0.5001,0.9879,0.3388,0.4757,-0.0255,-0.128,-0.0247,-0.1029,-0.2842,-0.7582,0.1611,-1.0465
1.799,1.3621,0.833,1.3332,0.7255,1.0599,0.1341,0.4464,-0.2045,-0.0202,0.0445,-0.1306,-0.1524,0.1558,2.423,0.9147,1.1437,-0.738,0.4232,0.8964,0.3366,0.4893,0.0297,-0.0011,-0.0183,-0.0999,-0.2009,-0.7444,0.1426,-1.2051
1.4991,1.2625,0.6439,1.2315,0.664,1.0471,0.233,0.4457,-0.1899,0.0638,0.0349,-0.0942,0.0306,0.2893,2.4471,0.7929,1.0702,-0.6755,0.3481,0.809,0.3373,0.5366,0.1065,0.1753,0.0162,-0.0731,-0.0855,-0.6942,0.1267,-1.4113
1.2034,1.1585,0.4593,1.147,0.6163,1.049,0.3578,0.4769,-0.1386,0.1787,0.0708,-0.0133,0.2503,0.4614,2.4829,0.6794,0.9767,-0.5957,0.2853,0.7406,0.3555,0.6206,0.2047,0.3958,0.0794,-0.0254,0.0589,-0.6078,0.1239,-1.6442
0.9443,1.062,0.2926,1.0897,0.5926,1.0699,0.5059,0.5419,-0.0503,0.3197,0.1526,0.1093,0.4963,0.6637,2.5168,0.583,0.8733,-0.5083,0.2411,0.6967,0.3963,0.7374,0.3197,0.6451,0.1666,0.0354,0.2217,-0.4935,0.1444,-1.8756
0.7458,0.9763,0.1507,1.058,0.5923,1.1035,0.6652,0.6349,0.0666,0.4737,0.2709,0.2616,0.7488,0.8769,2.5343,0.5044,0.7678,-0.4244,0.2165,0.6724,0.4534,0.8765,0.4435,0.9004,0.2693,0.0996,0.3872,-0.3654,0.1934,-2.0771
0.6163,0.897,0.0333,1.0392,0.6035,1.1342,0.815,0.7423,0.1967,0.6214,0.409,0.424,0.9814,1.0739,2.5241,0.4363,0.6649,-0.3539,0.2069,0.6536,0.5105,1.0221,0.5658,1.1349,0.3766,0.157,0.5367,-0.2411,0.2699,-2.2263
0.5473,0.8142,-0.0663,1.0133,0.6055,1.1409,0.9296,0.8447,0.3196,0.7398,0.5453,0.5732,1.1658,1.2248,2.4808,0.3662,0.5662,-0.3039,0.2037,0.621,0.5441,1.156,0.6755,1.3225,0.4777,0.1996,0.6518,-0.1384,0.3649,-2.311
0.5164,0.7174,-0.1586,0.9597,0.5743,1.1027,0.9831,0.9202,0.4147,0.8069,0.6575,0.6864,1.2759,1.3029,2.4074,0.2808,0.4715,-0.2769,0.196,0.5555,0.5298,1.2599,0.7622,1.4418,0.5629,0.2231,0.7179,-0.0719,0.4635,-2.3314
0.4951,0.6005,-0.2535,0.8634,0.4892,1.0057,0.9561,0.95,0.466,0.806,0.7274,0.7462,1.2931,1.2897,2.3143,0.1704,0.3809,-0.2703,0.1741,0.444,0.448,1.3185,0.8172,1.4792,0.6256,0.2267,0.7264,-0.0508,0.5478,-2.2972
0.4587,0.4655,-0.3571,0.7216,0.34,0.848,0.8406,0.9225,0.4654,0.7303,0.7443,0.7433,1.2101,1.1789,2.2188,0.0338,0.2972,-0.2763,0.1323,0.2843,0.2902,1.3226,0.835,1.4318,0.6622,0.2127,0.6763,-0.0774,0.6006,-2.2247
0.395,0.325,-0.4682,0.5462,0.1319,0.6425,0.6438,0.8368,0.4155,0.585,0.7075,0.6792,1.0332,0.9797,2.142,-0.1195,0.2274,-0.2823,0.0724,0.088,0.0632,1.2721,0.8151,1.3077,0.6725,0.1862,0.5752,-0.1464,0.6084,-2.1316
0.3079,0.2007,-0.5774,0.3634,-0.1132,0.4158,0.388,0.7036,0.3284,0.3875,0.6265,0.5655,0.783,0.7162,2.1056,-0.2687,0.1829,-0.2728,0.0046,-0.1192,-0.2096,1.1773,0.7635,1.1256,0.6598,0.1534,0.4379,-0.2462,0.5641,-2.0343
0.2173,0.1192,-0.6683,0.2084,-0.3594,0.2037,0.1072,0.5422,0.2231,0.1644,0.5184,0.4223,0.491,0.4254,2.1271,-0.3846,0.1777,-0.2315,-0.0529,-0.3011,-0.4903,1.0584,0.6926,0.9121,0.6302,0.1209,0.2845,-0.3598,0.4679,-1.9445
0.1526,0.106,-0.7208,0.1184,-0.5638,0.0436,-0.1595,0.3767,0.1201,-0.0537,0.4041,0.2735,0.1954,0.1507,2.2159,-0.4357,0.2259,-0.1443,-0.0771,-0.4174,-0.7328,0.9427,0.6207,0.6971,0.5919,0.095,0.1372,-0.4682,0.3272,-1.8688
0.145,0.1793,-0.7149,0.1236,-0.6857,-0.0333,-0.3757,0.2305,0.0363,-0.2383,0.3037,0.1428,-0.0662,-0.0645,2.3704,-0.3943,0.3377,-0.0034,-0.0445,-0.4319,-0.8911,0.8591,0.5682,0.5092,0.554,0.0802,0.0158,-0.5537,0.1559,-1.8091
0.2182,0.3452,-0.6362,0.241,-0.6951,-0.0081,-0.5146,0.1209,-0.0184,-0.3683,0.2319,0.0488,-0.2628,-0.1858,2.5785,-0.2432,0.5173,0.1912,0.0634,-0.3199,-0.9288,0.833,0.5538,0.3707,0.5248,0.0797,-0.0652,-0.602,-0.028,-1.7637
0.3819,0.597,-0.4794,0.4705,-0.5784,0.1227,-0.5629,0.0568,-0.0429,-0.4337,0.1957,0.002,-0.3752,-0.1932,2.8201,0.0206,0.7606,0.4306,0.256,-0.0742,-0.8264,0.8799,0.5898,0.2941,0.5102,0.0948,-0.0987,-0.6055,-0.2055,-1.7291
0.629,0.9166,-0.2502,0.7961,-0.3408,0.3474,-0.5226,0.0372,-0.0443,-0.4358,0.1935,0.004,-0.3976,-0.0849,3.0724,0.3846,1.0562,0.6992,0.5313,0.2935,-0.5856,1.0033,0.6796,0.281,0.5132,0.125,-0.0854,-0.5633,-0.3596,-1.7025
0.937,1.2789,0.0345,1.189,-0.0038,0.6428,-0.408,0.0531,-0.0346,-0.3853,0.2165,0.048,-0.3371,0.1235,3.3151,0.8234,1.3873,0.9774,0.876,0.7547,-0.2291,1.1939,0.817,0.3232,0.5333,0.1688,-0.0325,-0.4816,-0.4791,-1.6828
1.2729,1.6571,0.3498,1.6139,0.4003,0.9794,-0.2413,0.0906,-0.027,-0.2984,0.2517,0.1212,-0.2103,0.4031,3.535,1.3022,1.7345,1.2459,1.2681,1.2688,0.2048,1.4324,0.988,0.4059,0.5671,0.2233,0.0489,-0.372,-0.559,-1.6712
1.6001,2.0272,0.6665,2.0356,0.8351,1.3275,-0.0468,0.1347,-0.0318,-0.1925,0.2857,0.2083,-0.0388,0.7185,3.7269,1.7832,2.0789,1.4883,1.6806,1.7912,0.6694,1.6942,1.1748,0.5126,0.6097,0.2849,0.1473,-0.2495,-0.6011,-1.671
1.8861,2.3711,0.9564,2.4244,1.2669,1.6614,0.1536,0.1734,-0.0543,-0.0826,0.3076,0.295,0.1558,1.035,3.8922,2.2309,2.4041,1.694,2.0858,2.2806,1.1193,1.9551,1.3596,0.6289,0.6565,0.3494,0.2527,-0.1295,-0.6123,-1.6852
2.108,2.6779,1.196,2.7599,1.6697,1.9631,0.3441,0.1994,-0.0935,0.021,0.3119,0.3703,0.3555,1.3249,4.0359,2.6171,2.6978,1.8581,2.4592,2.7051,1.5178,2.1953,1.5289,0.7459,0.7041,0.4133,0.3585,-0.0253,-0.6022,-1.7161
2.2549,2.9426,1.3696,3.0324,2.0274,2.2229,0.5165,0.211,-0.1434,0.1134,0.2985,0.4281,0.5485,1.5715,4.163,2.9234,2.9514,1.9811,2.7822,3.0459,1.8424,2.4029,1.6751,0.8614,0.7517,0.4742,0.4623,0.0543,-0.581,-1.7642
2.3268,3.1646,1.4709,3.2414,2.3341,2.4391,0.6694,0.2114,-0.1956,0.1945,0.2726,0.4678,0.7294,1.7701,4.2767,3.1426,3.1603,2.0673,3.0435,3.298,2.0865,2.5745,1.7975,0.9789,0.8014,0.5315,0.5646,0.1062,-0.5582,-1.8296
2.332,3.3456,1.5031,3.3935,2.5921,2.6157,0.8075,0.2061,-0.2412,0.2675,0.2424,0.4931,0.8988,1.9264,4.3776,3.2776,3.3226,2.1235,3.2395,3.468,2.257,2.7138,1.9011,1.106,0.8579,0.5867,0.6684,0.1332,-0.5412,-1.9132
2.2829,3.4875,1.4772,3.4991,2.8092,2.7602,0.9386,0.2015,-0.2734,0.3375,0.2173,0.5109,1.0618,2.0535,4.4647,3.3394,3.4395,2.1568,3.3734,3.57,2.3701,2.8296,1.9951,1.2516,0.9273,0.6431,0.7774,0.1432,-0.5354,-2.0169
2.1937,3.5929,1.4095,3.5702,2.9956,2.8811,1.0718,0.2029,-0.2879,0.4102,0.2063,0.5292,1.2256,2.1672,4.5352,3.3439,3.5147,2.1743,3.4537,3.6219,2.4463,2.9333,2.0903,1.4228,1.016,0.7045,0.8949,0.1469,-0.543,-2.1434
2.0791,3.6646,1.3185,3.6187,3.161,2.9867,1.215,0.2144,-0.2829,0.491,0.216,0.5556,1.3976,2.2828,4.5853,3.3095,3.5545,2.183,3.4927,3.6416,2.5046,3.0358,2.1971,1.6233,1.1285,0.7746,1.0225,0.155,-0.5627,-2.2933
1.9546,3.7077,1.2215,3.6555,3.313,3.0835,1.373,0.2385,-0.2579,0.5837,0.2501,0.596,1.5827,2.4113,4.611,3.2551,3.5678,2.1895,3.5047,3.6449,2.5601,3.1461,2.3233,1.8515,1.2658,0.8552,1.1594,0.1761,-0.589,-2.4621
1.8368,3.7294,1.1319,3.6902,3.4555,3.1764,1.5465,0.2771,-0.2132,0.6898,0.3092,0.6535,1.7815,2.5578,4.6088,3.1979,3.5655,2.201,3.5041,3.6447,2.6213,3.2694,2.4727,2.0998,1.4239,0.9451,1.3013,0.2143,-0.6123,-2.6389
1.7427,3.7391,1.0591,3.7312,3.5884,3.2684,1.7313,0.3311,-0.1491,0.8076,0.3904,0.7277,1.9894,2.7198,4.5772,3.1526,3.5601,2.2239,3.5042,3.6502,2.6908,3.4065,2.6439,2.3549,1.5935,1.0394,1.4405,0.2678,-0.6204,-2.8064
1.6871,3.7473,1.0081,3.7837,3.7072,3.3597,1.9186,0.401,-0.0667,0.9323,0.488,0.8152,2.1956,2.8882,4.5186,3.1301,3.5636,2.2632,3.5151,3.6673,2.7654,3.5532,2.8294,2.5989,1.7611,1.1295,1.566,0.3299,-0.6013,-2.9453
1.6793,3.764,0.981,3.85,3.8047,3.4481,2.0966,0.4854,0.0319,1.056,0.5946,0.9092,2.3856,3.0489,4.4401,3.1371,3.5866,2.3211,3.5433,3.6989,2.8386,3.7014,3.0167,2.8118,1.9108,1.2045,1.6656,0.3905,-0.547,-3.0385
1.7208,3.7974,0.9787,3.9281,3.8723,3.5289,2.2522,0.5812,0.1424,1.1694,0.7021,1.001,2.543,3.1862,4.3539,3.1759,3.6369,2.3961,3.5909,3.745,2.9032,3.8409,3.1902,2.9751,2.0275,1.2537,1.7281,0.4385,-0.4568,-3.0762
1.8052,3.8536,1.0015,4.0133,3.9027,3.5963,2.3742,0.6831,0.2589,1.2636,0.8024,1.0816,2.654,3.287,4.2766,3.2457,3.7189,2.4837,3.6578,3.8046,2.9539,3.9627,3.3347,3.0752,2.1002,1.2695,1.7461,0.4653,-0.339,-3.0586
1.92,3.9371,1.0496,4.0996,3.8926,3.6447,2.4551,0.7838,0.3735,1.3319,0.8885,1.1426,2.7104,3.3446,4.2268,3.3445,3.8342,2.578,3.7431,3.8763,2.9896,4.0617,3.4393,3.1072,2.1244,1.2494,1.7184,0.4665,-0.2108,-2.996
2.0506,4.0511,1.1235,4.1822,3.845,3.6714,2.4935,0.8754,0.4778,1.3716,0.9553,1.1784,2.7126,3.3609,4.2223,3.4705,3.9815,2.6738,3.8469,3.9603,3.0149,4.1389,3.5003,3.0756,2.1028,1.197,1.6513,0.444,-0.0953,-2.9061
2.1842,4.1977,1.2232,4.2597,3.7705,3.6782,2.4944,0.9504,0.5636,1.3845,0.9997,1.1873,2.6696,3.3469,4.2763,3.6232,4.1583,2.769,3.9719,4.0587,3.0396,4.2012,3.5227,2.9944,2.0451,1.1221,1.5579,0.4049,-0.0164,-2.8094
2.313,4.3777,1.3485,4.335,3.6862,3.6717,2.469,1.0037,0.6249,1.3774,1.0216,1.1719,2.5978,3.3199,4.3947,3.8034,4.3603,2.8661,4.1221,4.1753,3.0771,4.2602,3.5188,2.884,1.965,1.038,1.4556,0.3606,0.0057,-2.7244
2.436,4.5883,1.4973,4.4143,3.6138,3.6632,2.4327,1.0338,0.6586,1.3605,1.024,1.1391,2.5179,3.3001,4.574,4.0119,4.5825,2.9725,4.3014,4.3148,3.1412,4.3279,3.5051,2.7672,1.8778,0.9595,1.3634,0.3245,-0.0404,-2.6634
2.5589,4.8225,1.6654,4.5054,3.5758,3.6661,2.4025,1.0435,0.6659,1.346,1.0133,1.0993,2.4507,3.306,4.8018,4.2478,4.8185,3.0975,4.5107,4.4805,3.2431,4.4137,3.4977,2.6647,1.7974,0.8993,1.2978,0.3092,-0.1541,-2.6301
2.6919,5.0688,1.8468,4.6154,3.5916,3.6939,2.3945,1.0398,0.6526,1.346,0.9985,1.0647,2.414,3.3508,5.0587,4.5075,5.0609,3.2497,4.7466,4.6736,3.3893,4.5214,3.5086,2.5919,1.7334,0.8658,1.2703,0.3241,-0.322,-2.6206
2.8463,5.3137,2.035,4.7499,3.6745,3.7581,2.4211,1.0325,0.6286,1.3711,0.9902,1.047,2.4198,3.4406,5.3225,4.7846,5.3026,3.432,5.001,4.8925,3.5804,4.6487,3.5426,2.5567,1.6908,0.8614,1.2856,0.3734,-0.5197,-2.625
3.0297,5.5452,2.2248,4.9116,3.8294,3.866,2.4891,1.0326,0.6058,1.4277,0.9976,1.0555,2.4734,3.575,5.5723,5.0711,5.5381,3.6389,5.2627,5.1333,3.8117,4.7882,3.5974,2.5598,1.6692,0.8829,1.3408,0.455,-0.7158,-2.6325
3.2435,5.7567,2.4135,5.1005,4.0515,4.0196,2.598,1.0489,0.5957,1.517,1.0267,1.0952,2.5727,3.7475,5.7926,5.3591,5.765,3.856,5.5201,5.3903,4.0739,4.9297,3.665,2.5961,1.6645,0.9223,1.4267,0.5609,-0.8776,-2.6338
3.4807,5.9481,2.6002,5.3133,4.3269,4.2137,2.7396,1.086,0.6065,1.6345,1.0777,1.1652,2.7094,3.9478,5.9754,5.6418,5.9836,4.0618,5.763,5.6568,4.3537,5.0635,3.7349,2.6564,1.6705,0.9688,1.5297,0.6783,-0.9781,-2.6248
3.7271,6.1244,2.7841,5.5431,4.634,4.4361,2.8989,1.1421,0.6404,1.7695,1.1446,1.2586,2.8702,4.1629,6.1211,5.9131,6.1962,4.2328,5.9846,5.9245,4.6356,5.1823,3.7974,2.7305,1.6815,1.0115,1.6343,0.7925,-1.0011,-2.6065
3.9627,6.2923,2.9617,5.7784,4.9454,4.6681,3.0561,1.2089,0.693,1.9073,1.2165,1.3645,3.0387,4.3785,6.237,6.1674,6.405,4.3489,6.181,6.1834,4.9022,5.2834,3.8471,2.8091,1.6939,1.0423,1.7265,0.8896,-0.9441,-2.5848
4.1657,6.4545,3.1257,6.0036,5.232,4.8859,3.1895,1.2733,0.7543,2.0316,1.28,1.4695,3.1977,4.5801,6.3334,6.3975,6.6097,4.399,6.3508,6.4211,5.1359,5.3684,3.8847,2.8856,1.7078,1.0569,1.7961,0.9596,-0.8192,-2.5676
4.315,6.6063,3.265,6.1993,5.4661,5.0645,3.2796,1.32,0.8114,2.127,1.3229,1.561,3.3313,4.7537,6.4192,6.5944,6.8055,4.3836,6.4929,6.6232,5.3203,5.4421,3.9159,2.9569,1.7268,1.0569,1.8385,0.9982,-0.6496,-2.5628
4.3939,6.7339,3.3666,6.3445,5.6254,5.1809,3.3117,1.3354,0.8516,2.1816,1.3365,1.6287,3.4267,4.8868,6.4981,6.7453,6.9812,4.3143,6.6047,6.774,5.4414,5.5096,3.9501,3.0227,1.7566,1.0483,1.8548,1.0074,-0.4652,-2.5752
4.3907,6.8154,3.418,6.4192,5.6952,5.2184,3.2784,1.3103,0.8653,2.1888,1.317,1.6665,3.4743,4.9686,6.5657,6.8346,7.1192,4.2099,6.6795,6.8571,5.4884,5.5737,3.9954,3.0837,1.8029,1.04,1.8503,0.9938,-0.2959,-2.6058
4.3004,6.8253,3.4089,6.4074,5.6703,5.1692,3.1801,1.2418,0.8472,2.1472,1.2651,1.6724,3.4685,4.9902,6.6092,6.8444,7.1965,4.0908,6.7053,6.8573,5.4535,5.6312,4.0549,3.1402,1.8689,1.0409,1.8316,0.9657,-0.1657,-2.6513
4.1236,6.7389,3.3331,6.2997,5.5543,5.0354,3.0244,1.1338,0.7971,2.0599,1.1843,1.6472,3.4068,4.9442,6.6103,6.757,7.1879,3.9726,6.665,6.7618,5.3323,5.6721,4.1236,3.1893,1.9529,1.0573,1.8043,0.931,-0.0887,-2.7051
3.8667,6.5376,3.1885,6.0949,5.3584,4.8279,2.8242,0.9954,0.7184,1.9333,1.0802,1.5934,3.29,4.8263,6.5492,6.5581,7.0703,3.8621,6.5391,6.5626,5.1244,5.68,4.1874,3.2244,2.0478,1.0905,1.7703,0.894,-0.0664,-2.7596
3.5421,6.2134,2.9772,5.8006,5.0991,4.5641,2.5954,0.8397,0.6174,1.7759,0.9588,1.5144,3.1222,4.6366,6.4099,6.241,6.8277,3.7549,6.3105,6.2588,4.8347,5.6359,4.2262,3.2367,2.1416,1.1366,1.7281,0.8547,-0.0882,-2.8072
3.1671,5.7715,2.7052,5.4327,4.7961,4.2648,2.3553,0.6807,0.5021,1.598,0.8264,1.4137,2.9122,4.3818,6.1844,5.8105,6.4562,3.6378,5.9701,5.8597,4.4749,5.5231,4.2187,3.2168,2.2203,1.1871,1.6731,0.8097,-0.1336,-2.8421
2.7627,5.2314,2.3834,5.0144,4.4703,3.9515,2.1205,0.5318,0.3811,1.411,0.6898,1.2954,2.6732,4.0767,5.8753,5.2848,5.9671,3.4925,5.5226,5.3851,4.065,5.3335,4.1487,3.1588,2.2707,1.2318,1.6011,0.754,-0.1768,-2.8619
2.35,4.6259,2.0277,4.5735,4.1424,3.6439,1.9059,0.4038,0.2633,1.2268,0.5558,1.164,2.4237,3.7448,5.4968,4.695,5.3871,3.3018,4.9888,4.8657,3.6325,5.0712,4.0102,3.063,2.2838,1.2608,1.5101,0.6832,-0.192,-2.8676
1.9471,3.9971,1.6578,4.1395,3.8307,3.358,1.7236,0.304,0.1572,1.0579,0.4308,1.0248,2.1846,3.4156,5.0726,4.0813,4.7559,3.0555,4.4045,4.3388,3.2094,4.7541,3.8095,2.9364,2.2565,1.2672,1.402,0.5958,-0.1596,-2.8643
1.5652,3.3905,1.2951,3.7397,3.5502,3.1051,1.5816,0.2356,0.0698,0.9147,0.3197,0.884,1.9775,3.1205,4.6328,3.4865,4.1188,2.754,3.8147,3.8431,2.8281,4.4114,3.5649,2.7922,2.1923,1.2485,1.2831,0.4935,-0.071,-2.86
1.2084,2.8484,0.9594,3.3953,3.3106,2.8906,1.4829,0.1978,0.0058,0.8049,0.2254,0.7474,1.8197,2.8872,4.2075,2.9484,3.5197,2.4095,3.2654,3.4121,2.5157,4.0776,3.302,2.6468,2.0999,1.2068,1.1628,0.3812,0.0691,-2.8633
0.8749,2.4026,0.6649,3.1182,3.1149,2.7138,1.4256,0.1872,-0.0332,0.7317,0.148,0.6205,1.7222,2.7338,3.8219,2.4934,2.9921,2.0443,2.7953,3.0676,2.2892,3.7854,3.0481,2.5155,1.991,1.1479,1.051,0.2653,0.2437,-2.8804
0.5617,2.0693,0.4185,2.9096,2.9603,2.5688,1.4028,0.1979,-0.0493,0.6932,0.0851,0.5071,1.6864,2.6659,3.4909,2.1324,2.5549,1.6862,2.4284,2.8166,2.1527,3.5592,2.8262,2.4095,1.877,1.0796,0.9555,0.1525,0.4274,-2.9124
0.2684,1.8475,0.2201,2.7612,2.8382,2.4464,1.4044,0.2233,-0.0474,0.6827,0.0329,0.4094,1.7049,2.6752,3.2175,1.8611,2.2106,1.3631,2.1715,2.6509,2.0975,3.4101,2.6512,2.3331,1.7672,1.0093,0.8809,0.0484,0.593,-2.9535
0.0002,1.7206,0.0639,2.6577,2.7375,2.3365,1.4185,0.257,-0.0348,0.6903,-0.0123,0.3282,1.763,2.743,2.9929,1.6633,1.9488,1.0988,2.0152,2.5511,2.1052,3.3357,2.5278,2.2838,1.6672,0.9428,0.8271,-0.0433,0.7182,-2.9922
-0.2316,1.6611,-0.0572,2.5818,2.6468,2.2311,1.4338,0.2933,-0.0194,0.705,-0.0531,0.2628,1.842,2.8442,2.8011,1.5171,1.7515,0.9084,1.9384,2.4923,2.1525,3.3218,2.4515,2.2535,1.579,0.8829,0.7907,-0.1205,0.7904,-3.0145
-0.4138,1.6376,-0.1498,2.5183,2.5571,2.1269,1.441,0.3276,-0.0079,0.7164,-0.0904,0.212,1.923,2.9535,2.6245,1.4007,1.5994,0.7969,1.9144,2.4501,2.2163,3.3467,2.4108,2.2312,1.5016,0.8301,0.7661,-0.1827,0.8094,-3.0078
-0.536,1.621,-0.2172,2.4574,2.4635,2.0253,1.4342,0.3571,-0.005,0.7166,-0.1232,0.1734,1.9899,3.0495,2.4493,1.297,1.4763,0.7581,1.916,2.4055,2.2774,3.3854,2.3898,2.2057,1.4327,0.7823,0.7471,-0.2311,0.7867,-2.9661
-0.5966,1.5902,-0.2593,2.3954,2.3657,1.9327,1.4111,0.38,-0.0119,0.702,-0.1498,0.1447,2.0317,3.1176,2.2692,1.1954,1.3712,0.7762,1.9202,2.3472,2.3222,3.4142,2.371,2.168,1.3689,0.7368,0.7281,-0.2677,0.7421,-2.892
-0.6072,1.535,-0.2734,2.3342,2.2681,1.8577,1.374,0.3964,-0.0265,0.6736,-0.1678,0.123,2.0435,3.1509,2.0868,1.0916,1.2783,0.8281,1.9101,2.2718,2.3427,3.4136,2.3388,2.1124,1.307,0.6905,0.7053,-0.2956,0.6992,-2.7977
-0.592,1.4556,-0.2554,2.2794,2.178,1.8093,1.3284,0.4083,-0.0431,0.6368,-0.1752,0.1062,2.0263,3.1497,1.9115,0.9862,1.1952,0.8876,1.8762,2.182,2.3361,3.3702,2.2814,2.0372,1.2442,0.6413,0.6771,-0.3183,0.6805,-2.702
-0.5829,1.3612,-0.2019,2.2375,2.1043,1.7944,1.2826,0.419,-0.0543,0.6003,-0.1703,0.0924,1.9858,3.1195,1.7566,0.8825,1.1215,0.9297,1.8153,2.0844,2.3032,3.2776,2.1927,1.9439,1.1778,0.5882,0.6438,-0.3392,0.7033,-2.6269
-0.6123,1.2647,-0.1115,2.2141,2.0547,1.8164,1.2458,0.4328,-0.0522,0.5736,-0.1525,0.0806,1.9306,3.0691,1.6349,0.7843,1.0569,0.9347,1.7294,1.9867,2.2476,3.1362,2.0723,1.8363,1.1057,0.5305,0.6073,-0.3617,0.777,-2.5918
-0.7036,1.1784,0.0141,2.2118,2.0333,1.8739,1.2253,0.4536,-0.0312,0.5646,-0.122,0.0699,1.8699,3.0081,1.5549,0.6944,1.0005,0.8911,1.624,1.8955,2.1743,2.9518,1.924,1.7189,1.0265,0.4685,0.57,-0.388,0.9026,-2.6093
-0.8658,1.1102,0.17,2.2299,2.0398,1.9612,1.2244,0.4837,0.0108,0.5769,-0.0806,0.0602,1.8114,2.9451,1.5172,0.6135,0.9507,0.7977,1.506,1.8143,2.0895,2.7346,1.755,1.5961,0.9396,0.4023,0.5337,-0.4194,1.0734,-2.6814
-1.091,1.0614,0.3477,2.2641,2.0681,2.069,1.2414,0.523,0.071,0.6085,-0.0313,0.0508,1.7593,2.8859,1.5138,0.5405,0.9051,0.6631,1.382,1.7436,1.9993,2.4969,1.573,1.4714,0.8457,0.3328,0.4993,-0.4559,1.2768,-2.7989
-1.3568,1.0273,0.5362,2.3074,2.1082,2.1862,1.2698,0.5683,0.1424,0.6525,0.0216,0.0412,1.7146,2.8336,1.5297,0.4724,0.8615,0.504,1.2581,1.6807,1.9096,2.2521,1.386,1.3473,0.7474,0.2613,0.4667,-0.4959,1.4967,-2.9435
