FP1,F3,F7,FC3,C3,C5,P3,P7,PO7,PO3,O1,Oz,Pz,CPz,FP2,Fz,F4,F8,FC4,FCz,Cz,C4,C6,P4,P8,PO8,PO4,O2,(corr) HEOG,(corr) VEOG
1.5143,0.9438,0.5966,1.0763,0.7198,0.3288,0.6748,0.3263,0.4406,0.4654,0.2015,0.1655,0.7761,0.8438,1.0677,1.1192,0.7669,0.5063,0.6539,1.0127,1.0521,0.8065,0.3928,0.4725,0.2541,0.2964,0.5172,0.5012,0.0451,0.1784
1.6748,1.1155,0.6781,1.1695,0.8312,0.5109,0.8178,0.3299,0.4767,0.5632,0.255,0.2427,0.9184,0.9369,1.1951,1.2669,0.865,0.5843,0.6594,1.1317,1.1563,0.864,0.4283,0.5167,0.317,0.3631,0.6256,0.6126,0.0302,0.2083
1.8442,1.3356,0.7722,1.2775,0.9804,0.7523,0.977,0.3187,0.4994,0.6667,0.3016,0.3352,1.0799,1.0641,1.3361,1.4428,0.9861,0.7091,0.6957,1.2859,1.2969,0.9558,0.5127,0.5889,0.3932,0.4299,0.7561,0.7316,0.0257,0.2371
2.0117,1.5879,0.8728,1.4128,1.1722,1.0403,1.1439,0.2889,0.4983,0.7648,0.3281,0.428,1.2524,1.2259,1.4916,1.6463,1.1289,0.8773,0.7757,1.481,1.4782,1.087,0.6558,0.693,0.4783,0.4866,0.9023,0.8459,0.0279,0.252
2.1625,1.8504,0.9725,1.5874,1.4057,1.3542,1.3058,0.2378,0.4648,0.8461,0.3257,0.5036,1.4246,1.4165,1.6608,1.8734,1.2918,1.0781,0.9066,1.7173,1.6982,1.2552,0.8566,0.8257,0.5638,0.5242,1.0526,0.9422,0.0311,0.2421
2.2808,2.0985,1.0633,1.8093,1.6729,1.6672,1.4475,0.1643,0.3939,0.9009,0.2921,0.5461,1.5837,1.6253,1.8386,2.1161,1.4741,1.2956,1.0889,1.9887,1.9485,1.4499,1.1022,0.9776,0.6386,0.5372,1.1924,1.0088,0.029,0.202
2.3535,2.3104,1.1381,2.0781,1.9589,1.9503,1.5548,0.0698,0.2864,0.924,0.2326,0.5457,1.7184,1.8385,2.015,2.3639,1.675,1.5112,1.3169,2.284,2.2159,1.6553,1.3698,1.1342,0.691,0.5256,1.3071,1.0389,0.0154,0.1342
2.3748,2.4709,1.1927,2.3825,2.2427,2.1775,1.6181,-0.0403,0.1503,0.9158,0.1587,0.5015,1.8215,2.0429,2.1763,2.6047,1.8926,1.7074,1.5801,2.5877,2.4846,1.8536,1.6315,1.28,0.7116,0.4952,1.3862,1.0318,-0.0137,0.05
2.3495,2.5743,1.2267,2.6999,2.5011,2.3303,1.6348,-0.1575,0,0.8833,0.0854,0.4231,1.8913,2.2274,2.3075,2.8266,2.1226,1.8709,1.865,2.882,2.7385,2.0284,1.8601,1.4013,0.6951,0.4567,1.4257,0.9944,-0.0595,-0.0321
2.2933,2.6252,1.2445,2.9989,2.7115,2.4009,1.6103,-0.2707,-0.1461,0.8377,0.0279,0.3277,1.9315,2.3846,2.3957,3.0188,2.3565,1.9941,2.1557,3.1493,2.9627,2.1679,2.034,1.4894,0.6423,0.4227,1.4287,0.9389,-0.1204,-0.0907
2.2304,2.636,1.2536,3.244,2.8553,2.392,1.5563,-0.368,-0.2695,0.7919,-0.002,0.2366,1.9491,2.5102,2.4324,3.1722,2.5809,2.0744,2.435,3.3732,3.1448,2.2658,2.1403,1.5411,0.5596,0.4043,1.4045,0.8806,-0.1917,-0.105
2.1874,2.6236,1.2624,3.4027,2.9204,2.3137,1.4871,-0.4383,-0.3549,0.7575,0.0022,0.1693,1.9512,2.6016,2.4154,3.28,2.7783,2.1129,2.6842,3.5399,3.2749,2.3208,2.1752,1.5587,0.4578,0.4077,1.3649,0.8337,-0.267,-0.0602
2.1859,2.605,1.2777,3.4519,2.9022,2.1796,1.4156,-0.4731,-0.3931,0.7415,0.0417,0.1394,1.9418,2.6561,2.3491,3.3383,2.9286,2.1122,2.8845,3.6401,3.346,2.3356,2.142,1.547,0.3504,0.4327,1.3213,0.8082,-0.3394,0.049
2.2358,2.5936,1.3033,3.3834,2.8038,2.003,1.3499,-0.4677,-0.3824,0.7457,0.1129,0.1512,1.9208,2.6703,2.2438,3.3465,3.0135,2.0752,3.0187,3.6694,3.3551,2.3147,2.0498,1.5118,0.2509,0.4727,1.2812,0.8079,-0.4022,0.2159
2.3319,2.597,1.339,3.2076,2.6355,1.7953,1.2921,-0.423,-0.3284,0.7661,0.2085,0.2,1.8841,2.641,2.1151,3.3083,3.0209,2.005,3.0744,3.63,3.303,2.2634,1.9108,1.4572,0.1707,0.516,1.2472,0.8295,-0.4496,0.4223
2.4555,2.6157,1.3809,2.9521,2.4137,1.5668,1.2387,-0.3453,-0.2419,0.7948,0.3189,0.2738,1.8257,2.566,1.981,3.2312,2.9483,1.9059,3.0465,3.5303,3.1958,2.1876,1.7397,1.3855,0.1173,0.5493,1.2173,0.8642,-0.4776,0.6412
2.5798,2.643,1.4221,2.6565,2.159,1.3275,1.1831,-0.2463,-0.1372,0.8219,0.433,0.3564,1.7395,2.4462,1.8588,3.1252,2.8041,1.7837,2.939,3.3836,3.0433,2.0933,1.5521,1.2968,0.0934,0.5604,1.1861,0.8997,-0.4841,0.8429
2.6766,2.6659,1.455,2.3632,1.8928,1.089,1.1182,-0.1401,-0.0286,0.8375,0.5392,0.4313,1.6221,2.2863,1.761,3.0003,2.6054,1.6459,2.7637,3.2052,2.858,1.9864,1.363,1.1904,0.0972,0.5416,1.1475,0.9237,-0.4689,1.0003
2.7233,2.6677,1.4717,2.1079,1.6341,0.863,1.0384,-0.041,0.0714,0.8338,0.627,0.4852,1.474,2.0943,1.6928,2.8641,2.374,1.5018,2.5388,3.0091,2.653,1.8728,1.1862,1.0665,0.1232,0.4913,1.0967,0.9262,-0.434,1.0945
2.7062,2.6319,1.4668,1.912,1.3974,0.6611,0.9418,0.0397,0.1542,0.8064,0.6879,0.5098,1.2997,1.881,1.6516,2.7203,2.1316,1.3606,2.2856,2.8055,2.4393,1.7572,1.0318,0.9266,0.1636,0.4146,1.0309,0.9021,-0.3829,1.1176
2.6223,2.5467,1.4375,1.7804,1.1915,0.4923,0.8308,0.0955,0.2149,0.7547,0.7165,0.5029,1.1077,1.6584,1.6278,2.569,1.8962,1.231,2.0251,2.6003,2.2254,1.6435,0.9062,0.7746,0.2101,0.3226,0.9505,0.8511,-0.321,1.0732
2.4786,2.4092,1.3848,1.7037,1.0205,0.362,0.7119,0.1258,0.2528,0.6821,0.7108,0.4678,0.9093,1.4381,1.6081,2.4077,1.6795,1.1195,1.7755,2.3951,2.0169,1.534,0.8106,0.6166,0.2551,0.2296,0.8584,0.7782,-0.2546,0.9749
2.2906,2.2259,1.3125,1.6628,0.8855,0.2717,0.5945,0.1346,0.2699,0.5949,0.6722,0.4116,0.717,1.2301,1.5776,2.2338,1.4867,1.0305,1.549,2.1893,1.8171,1.4293,0.7419,0.4605,0.2937,0.1508,0.7597,0.6918,-0.1908,0.8437
2.0789,2.0119,1.2272,1.635,0.7849,0.2191,0.4893,0.1293,0.2695,0.5014,0.6062,0.3433,0.5434,1.0421,1.5225,2.0462,1.3178,0.9657,1.3515,1.9823,1.6279,1.3277,0.693,0.3148,0.3242,0.099,0.6609,0.6018,-0.1368,0.7045
1.8666,1.7867,1.137,1.5998,0.7157,0.1985,0.4058,0.1181,0.2556,0.4103,0.5214,0.2721,0.3988,0.8787,1.4335,1.8471,1.1697,0.9247,1.1824,1.7751,1.4513,1.2267,0.6554,0.1879,0.3487,0.0826,0.5695,0.5184,-0.0984,0.5822
1.6748,1.5696,1.05,1.5423,0.6734,0.2023,0.3497,0.1071,0.2314,0.3295,0.429,0.2051,0.2899,0.7422,1.3077,1.6426,1.0385,0.905,1.0374,1.5714,1.2894,1.1229,0.6203,0.0863,0.372,0.1034,0.4926,0.4499,-0.0792,0.497
1.5197,1.3769,0.9731,1.4574,0.6532,0.2222,0.3225,0.0995,0.1998,0.2649,0.3417,0.1472,0.2184,0.6331,1.1515,1.4429,0.9226,0.9029,0.9114,1.3789,1.1462,1.0145,0.581,0.0145,0.3994,0.1574,0.4359,0.4016,-0.0793,0.4599
1.4096,1.2209,0.9112,1.3505,0.6514,0.2509,0.3211,0.0951,0.1631,0.2197,0.2711,0.1003,0.1817,0.5518,0.9807,1.2621,0.8234,0.9147,0.8015,1.2085,1.0275,0.9022,0.5344,-0.0261,0.4348,0.2347,0.403,0.3757,-0.0954,0.4703
1.344,1.1108,0.8673,1.2372,0.6665,0.2847,0.3402,0.0917,0.1244,0.1957,0.2269,0.0644,0.1737,0.4993,0.8181,1.1162,0.7464,0.937,0.7095,1.0738,0.9413,0.7911,0.4814,-0.0363,0.4787,0.3227,0.3943,0.3709,-0.1215,0.5167
1.3144,1.0532,0.8423,1.1397,0.6999,0.3234,0.3743,0.0865,0.0884,0.1932,0.2154,0.0384,0.1872,0.4785,0.6882,1.0214,0.7,0.9678,0.6419,0.9892,0.897,0.6907,0.4273,-0.0188,0.5283,0.4084,0.4071,0.3837,-0.15,0.5795
1.307,1.0526,0.8361,1.0814,0.7543,0.3707,0.4194,0.0789,0.0608,0.2119,0.2383,0.0211,0.2161,0.4928,0.6106,0.9903,0.6933,1.0058,0.607,0.9665,0.9032,0.6128,0.3796,0.0229,0.5778,0.4812,0.4364,0.4088,-0.1737,0.6369
1.307,1.1105,0.8477,1.0804,0.8325,0.4321,0.4742,0.0705,0.0481,0.2508,0.2925,0.0118,0.2563,0.5454,0.5948,1.0287,0.7328,1.0498,0.6115,1.0119,0.965,0.5688,0.3466,0.0844,0.6208,0.5339,0.4747,0.4403,-0.1875,0.6708
1.3031,1.2237,0.8755,1.1442,0.9345,0.5128,0.5392,0.065,0.0551,0.3075,0.3693,0.0099,0.3057,0.6363,0.6374,1.1329,0.8184,1.0979,0.6568,1.1226,1.0814,0.5656,0.3339,0.1601,0.6516,0.5632,0.5128,0.4714,-0.1899,0.6711
1.2905,1.382,0.9169,1.2673,1.0562,0.6155,0.6146,0.0666,0.0831,0.3768,0.4552,0.0144,0.3622,0.7605,0.7232,1.2884,0.9412,1.1469,0.7359,1.2857,1.2426,0.6023,0.3435,0.2423,0.6663,0.5682,0.5403,0.4958,-0.1827,0.6377
1.2722,1.5673,0.9682,1.4311,1.1885,0.7383,0.6978,0.0788,0.129,0.4499,0.534,0.0223,0.4218,0.9064,0.8285,1.4712,1.0825,1.192,0.8337,1.4783,1.4292,0.6691,0.3718,0.3206,0.6628,0.5497,0.5462,0.5067,-0.1704,0.5794
1.2561,1.753,1.0248,1.6069,1.3173,0.8737,0.7816,0.1024,0.1844,0.5146,0.5896,0.0277,0.4758,1.055,0.9273,1.6508,1.2162,1.2266,0.9288,1.6699,1.6138,0.7481,0.4103,0.3816,0.6404,0.5082,0.5204,0.4981,-0.1587,0.5104
1.2501,1.9069,1.0803,1.7604,1.4242,1.008,0.8525,0.1361,0.2377,0.5564,0.6095,0.0223,0.5105,1.1813,0.9964,1.7948,1.3128,1.2434,0.9975,1.8266,1.7636,0.8165,0.4461,0.4094,0.5996,0.444,0.4547,0.4642,-0.1528,0.446
1.2574,1.9968,1.128,1.8583,1.4887,1.1234,0.8922,0.1756,0.2756,0.5605,0.5878,-0.004,0.5077,1.2577,1.0203,1.8741,1.3453,1.2357,1.0182,1.9162,1.8457,0.8512,0.4641,0.3885,0.5408,0.3581,0.3447,0.4009,-0.1562,0.3979
1.2723,1.9979,1.1608,1.8742,1.4918,1.2003,0.8811,0.2144,0.2861,0.515,0.5253,-0.0599,0.4485,1.2585,0.9939,1.8673,1.2953,1.2003,0.9762,1.9134,1.8329,0.834,0.4503,0.3064,0.4648,0.2528,0.1909,0.3069,-0.17,0.3716
1.2808,1.8993,1.1732,1.7948,1.4199,1.2225,0.8026,0.2447,0.2609,0.4131,0.4292,-0.1499,0.318,1.1656,0.9232,1.765,1.1578,1.1389,0.8674,1.8048,1.7094,0.7563,0.3957,0.1577,0.3732,0.1335,0.0007,0.1851,-0.1931,0.3656
1.2641,1.7085,1.1621,1.6229,1.2688,1.1805,0.6489,0.2583,0.1971,0.2559,0.3103,-0.2717,0.1098,0.9727,0.8237,1.5707,0.9439,1.0598,0.7003,1.5914,1.4747,0.6211,0.2997,-0.0524,0.2695,0.0083,-0.2125,0.0432,-0.222,0.3732
1.2044,1.4502,1.1279,1.3771,1.0455,1.0752,0.4243,0.2484,0.0985,0.0532,0.1811,-0.4153,-0.1703,0.6886,0.7162,1.3002,0.6791,0.9763,0.4957,1.2888,1.1452,0.4435,0.172,-0.3076,0.1596,-0.112,-0.4298,-0.1067,-0.252,0.3848
1.0911,1.161,1.0738,1.0873,0.7685,0.9173,0.1458,0.2117,-0.0255,-0.1777,0.0537,-0.5641,-0.5035,0.3359,0.6209,0.9793,0.399,0.905,0.2833,0.9244,0.7514,0.2474,0.0316,-0.5812,0.0523,-0.2167,-0.6302,-0.2499,-0.2785,0.3924
0.926,0.8813,1.0064,0.7877,0.4646,0.7251,-0.1597,0.1496,-0.1613,-0.4143,-0.0611,-0.6991,-0.8605,-0.0517,0.5514,0.6392,0.1419,0.8615,0.0958,0.5336,0.3331,0.0611,-0.0966,-0.8413,-0.042,-0.297,-0.7943,-0.3722,-0.2973,0.3924
0.7241,0.6453,0.9333,0.509,0.1636,0.5198,-0.4612,0.0683,-0.2933,-0.633,-0.1544,-0.8031,-1.2068,-0.4364,0.5118,0.3116,-0.059,0.8573,-0.0377,0.1532,-0.068,-0.0892,-0.188,-1.0567,-0.1131,-0.348,-0.9075,-0.4628,-0.3065,0.3876
0.5103,0.4736,0.8624,0.2721,-0.1073,0.3207,-0.7302,-0.0224,-0.4071,-0.8138,-0.2197,-0.8654,-1.5094,-0.7824,0.4954,0.0243,-0.1813,0.8968,-0.0984,-0.1842,-0.4155,-0.1845,-0.2246,-1.204,-0.1535,-0.3702,-0.963,-0.5169,-0.3064,0.386
0.3135,0.3702,0.8,0.0853,-0.3291,0.1413,-0.9461,-0.1108,-0.4922,-0.9439,-0.2547,-0.8848,-1.743,-1.0619,0.4882,-0.2027,-0.218,0.9762,-0.0812,-0.4547,-0.6843,-0.2175,-0.1996,-1.2722,-0.1599,-0.3684,-0.963,-0.536,-0.2996,0.3975
0.1591,0.323,0.7497,-0.0545,-0.4925,-0.0112,-1.0988,-0.1858,-0.5437,-1.0199,-0.2615,-0.8686,-1.8937,-1.2588,0.4744,-0.3599,-0.1777,1.0842,0.0042,-0.6462,-0.863,-0.1929,-0.1195,-1.2645,-0.1349,-0.3505,-0.9175,-0.5272,-0.2907,0.4295
0.0634,0.3095,0.7123,-0.1575,-0.5982,-0.1351,-1.189,-0.2392,-0.5628,-1.0475,-0.248,-0.8309,-1.9606,-1.3697,0.4431,-0.4481,-0.0823,1.205,0.1363,-0.7584,-0.9543,-0.1257,-0.0019,-1.1967,-0.0861,-0.3246,-0.8418,-0.5005,-0.2848,0.4832
0.0313,0.3048,0.6867,-0.2351,-0.6533,-0.2316,-1.2251,-0.2667,-0.5559,-1.0394,-0.2262,-0.7875,-1.9541,-1.4025,0.3924,-0.4774,0.0389,1.3218,0.2873,-0.801,-0.9716,-0.0369,0.1289,-1.0923,-0.0246,-0.2977,-0.7539,-0.4656,-0.2866,0.5514
0.0568,0.2899,0.6707,-0.295,-0.6675,-0.3012,-1.2195,-0.269,-0.5326,-1.011,-0.2094,-0.7524,-1.8919,-1.3725,0.3312,-0.4634,0.1557,1.4204,0.4297,-0.7902,-0.9348,0.0528,0.2484,-0.9766,0.038,-0.2735,-0.6699,-0.4305,-0.2988,0.6206
0.1271,0.2572,0.663,-0.3387,-0.6505,-0.3428,-1.1858,-0.251,-0.5031,-0.9773,-0.2093,-0.7342,-1.7955,-1.2992,0.2767,-0.4236,0.2442,1.4924,0.5414,-0.7445,-0.8652,0.1275,0.3376,-0.8712,0.0924,-0.2522,-0.6017,-0.3991,-0.3219,0.6748
0.2276,0.2131,0.6634,-0.3623,-0.6098,-0.3539,-1.1365,-0.2218,-0.4766,-0.95,-0.2328,-0.7357,-1.6854,-1.2018,0.2486,-0.3734,0.2909,1.5367,0.61,-0.6806,-0.7811,0.1795,0.387,-0.7897,0.1333,-0.2314,-0.5553,-0.3723,-0.3541,0.7014
0.3455,0.1751,0.6732,-0.3589,-0.5516,-0.3329,-1.0817,-0.192,-0.4599,-0.9364,-0.2821,-0.7542,-1.5789,-1.0962,0.2638,-0.3233,0.2956,1.5588,0.6341,-0.6104,-0.6957,0.2099,0.3977,-0.7367,0.1608,-0.2069,-0.53,-0.3483,-0.3921,0.6954
0.4725,0.165,0.6947,-0.3218,-0.4808,-0.2817,-1.0291,-0.1726,-0.4573,-0.9391,-0.3544,-0.7838,-1.4879,-0.9931,0.3312,-0.2773,0.2697,1.5688,0.6224,-0.5396,-0.6151,0.2271,0.3802,-0.708,0.1793,-0.1745,-0.5195,-0.3243,-0.4326,0.6611
0.6044,0.2017,0.7308,-0.2467,-0.4013,-0.2066,-0.9833,-0.1721,-0.4703,-0.9566,-0.4436,-0.817,-1.4178,-0.8971,0.4491,-0.2328,0.2335,1.5786,0.591,-0.4667,-0.5389,0.2432,0.3508,-0.6935,0.1962,-0.1311,-0.5137,-0.2974,-0.4731,0.6116
0.7393,0.2948,0.7839,-0.1326,-0.316,-0.1174,-0.9457,-0.1945,-0.4975,-0.9841,-0.5411,-0.8464,-1.3676,-0.8069,0.6054,-0.1817,0.2105,1.5984,0.5603,-0.3851,-0.4613,0.2701,0.3279,-0.6802,0.2199,-0.0758,-0.5011,-0.2655,-0.512,0.565
0.8752,0.4417,0.8561,0.0188,-0.2259,-0.0246,-0.9137,-0.238,-0.5349,-1.0137,-0.6367,-0.8652,-1.3305,-0.7171,0.7799,-0.1122,0.2228,1.635,0.5507,-0.2845,-0.3732,0.317,0.3278,-0.6559,0.2573,-0.0105,-0.4714,-0.2271,-0.5489,0.5398
1.0097,0.6289,0.9484,0.2025,-0.13,0.0636,-0.8816,-0.2948,-0.5758,-1.0355,-0.7188,-0.8682,-1.2955,-0.6199,0.9493,-0.0125,0.286,1.6902,0.5789,-0.1546,-0.2654,0.3881,0.361,-0.6115,0.311,0.0602,-0.4182,-0.1821,-0.5832,0.5505
1.1396,0.8368,1.0599,0.4109,-0.0258,0.1433,-0.8412,-0.3529,-0.6118,-1.039,-0.776,-0.8518,-1.2501,-0.5079,1.093,0.1272,0.4068,1.7617,0.6554,0.0125,-0.1305,0.4826,0.4307,-0.543,0.3789,0.1296,-0.3403,-0.1311,-0.6134,0.6038
1.2632,1.0445,1.1876,0.6339,0.0894,0.2157,-0.7841,-0.3989,-0.6337,-1.0147,-0.7976,-0.8144,-1.1829,-0.3761,1.1986,0.3114,0.5815,1.8439,0.7822,0.2199,0.0349,0.5959,0.5325,-0.4512,0.4535,0.1902,-0.2419,-0.0758,-0.6368,0.697
1.3807,1.2349,1.3258,0.8601,0.2179,0.2852,-0.7033,-0.4214,-0.6337,-0.9561,-0.7764,-0.7568,-1.0862,-0.2229,1.2644,0.5383,0.7969,1.9297,0.9528,0.4644,0.2293,0.721,0.6562,-0.3414,0.5243,0.2354,-0.1321,-0.0186,-0.6496,0.8181
1.4941,1.3983,1.4661,1.0784,0.3597,0.3568,-0.5959,-0.4141,-0.6068,-0.8616,-0.7094,-0.6819,-0.9577,-0.0511,1.2995,0.7994,1.0338,2.0119,1.1538,0.7373,0.4464,0.8506,0.7888,-0.2222,0.5805,0.2617,-0.0226,0.0377,-0.648,0.9484
1.6059,1.5338,1.5982,1.2794,0.5123,0.433,-0.4639,-0.3775,-0.5526,-0.7352,-0.6005,-0.5946,-0.8018,0.133,1.3193,1.0807,1.2705,2.0847,1.367,1.0248,0.6761,0.9779,0.9172,-0.1037,0.6139,0.2693,0.0747,0.0906,-0.6299,1.0668
1.7161,1.6472,1.7108,1.4563,0.6703,0.5128,-0.3153,-0.318,-0.4758,-0.5869,-0.46,-0.5022,-0.6291,0.3196,1.3402,1.3642,1.4873,2.1441,1.5728,1.3104,0.9054,1.0968,1.031,0.0032,0.6218,0.2626,0.1498,0.1373,-0.5957,1.1547
1.8205,1.7471,1.7938,1.6042,0.8252,0.5909,-0.1632,-0.2467,-0.3855,-0.4318,-0.3045,-0.4136,-0.4559,0.4973,1.3734,1.6307,1.67,2.1877,1.7539,1.5764,1.1201,1.2019,1.1232,0.0889,0.6075,0.2484,0.1965,0.1747,-0.5493,1.2
1.9088,1.8399,1.8396,1.7185,0.966,0.6599,-0.0234,-0.1754,-0.2934,-0.2877,-0.1537,-0.3386,-0.3016,0.6536,1.4217,1.8618,1.8111,2.2143,1.898,1.8064,1.3059,1.2882,1.1908,0.1452,0.5795,0.234,0.2123,0.1993,-0.4973,1.1985
1.9668,1.9255,1.8454,1.7937,1.0801,0.7124,0.0881,-0.1147,-0.2119,-0.1722,-0.0279,-0.2871,-0.1851,0.7764,1.4785,2.0425,1.9098,2.2242,1.9991,1.9869,1.4504,1.3516,1.2347,0.1666,0.5488,0.2241,0.199,0.2069,-0.4478,1.1536
1.9797,1.9969,1.8143,1.8244,1.1561,0.744,0.1592,-0.0708,-0.1513,-0.0991,0.0564,-0.2672,-0.1212,0.8564,1.5313,2.1629,1.9706,2.2189,2.0583,2.1093,1.5447,1.3895,1.2588,0.151,0.5252,0.2198,0.161,0.1932,-0.408,1.0745
1.9369,2.0429,1.7546,1.8074,1.1872,0.7552,0.1848,-0.0449,-0.1171,-0.0754,0.0886,-0.2835,-0.1167,0.8888,1.5655,2.2199,2.0013,2.2019,2.0819,2.1713,1.5851,1.4018,1.2698,0.1005,0.515,0.2176,0.1051,0.1553,-0.3825,0.9737
1.8364,2.0529,1.6793,1.7456,1.1741,0.7512,0.1694,-0.0334,-0.1093,-0.0997,0.0665,-0.3362,-0.1687,0.875,1.569,2.2177,2.0118,2.179,2.0798,2.177,1.5742,1.3921,1.2762,0.0221,0.52,0.2113,0.0397,0.0927,-0.3726,0.8654
1.6863,2.0212,1.6022,1.6496,1.1268,0.7409,0.1264,-0.0293,-0.122,-0.1618,-0.0037,-0.4204,-0.2643,0.8225,1.535,2.167,2.0117,2.1568,2.0622,2.1361,1.5206,1.3665,1.2858,-0.0732,0.5382,0.1944,-0.0261,0.0088,-0.3758,0.7635
1.5045,1.9495,1.5355,1.5373,1.0627,0.7341,0.0748,-0.0243,-0.1457,-0.2453,-0.1085,-0.5272,-0.3846,0.7439,1.4628,2.0823,2.0084,2.1415,2.037,2.0613,1.4369,1.3322,1.3036,-0.1718,0.5648,0.1622,-0.0833,-0.0892,-0.3877,0.68
1.3154,1.8468,1.4864,1.43,1.0031,0.7391,0.0345,-0.0119,-0.1699,-0.3314,-0.2294,-0.6447,-0.5084,0.6535,1.357,1.9788,2.0056,2.136,2.0077,1.9651,1.3365,1.2953,1.33,-0.2607,0.5935,0.114,-0.1249,-0.1914,-0.4028,0.6246
1.1452,1.7281,1.4569,1.3469,0.9674,0.7608,0.0209,0.0115,-0.1857,-0.4029,-0.3466,-0.7597,-0.6171,0.5645,1.2263,1.8693,2.0024,2.1388,1.9733,1.8575,1.2314,1.259,1.3597,-0.3301,0.6179,0.053,-0.1469,-0.2869,-0.4162,0.6034
1.0159,1.6106,1.4443,1.3,0.9674,0.7992,0.0411,0.0458,-0.1877,-0.4476,-0.4426,-0.8597,-0.6982,0.4861,1.0828,1.7626,1.9947,2.1443,1.9296,1.7445,1.1295,1.2235,1.3846,-0.3748,0.6319,-0.0147,-0.1493,-0.3661,-0.4237,0.6175
0.9409,1.5094,1.4436,1.2916,1.0039,0.8495,0.0926,0.0883,-0.1746,-0.4607,-0.5052,-0.9338,-0.7466,0.423,0.941,1.6637,1.9776,2.1442,1.8709,1.6289,1.0353,1.1867,1.3959,-0.3949,0.6306,-0.0817,-0.1359,-0.422,-0.4222,0.6631
0.9211,1.4342,1.4493,1.3133,1.0658,0.9025,0.1645,0.1345,-0.1488,-0.4442,-0.5297,-0.975,-0.7643,0.375,0.8159,1.5743,1.9472,2.1306,1.7935,1.5111,0.9494,1.1452,1.387,-0.3946,0.6104,-0.1418,-0.1131,-0.452,-0.4094,0.7308
0.9455,1.3872,1.4568,1.3484,1.1327,0.9464,0.2412,0.1795,-0.1151,-0.4064,-0.5186,-0.9809,-0.7587,0.3383,0.7207,1.4943,1.9024,2.0974,1.6958,1.3911,0.8707,1.0959,1.3548,-0.3809,0.5704,-0.1908,-0.0883,-0.4578,-0.3847,0.8073
0.9937,1.3635,1.4623,1.3759,1.1799,0.9693,0.3057,0.2192,-0.0793,-0.3586,-0.4807,-0.9549,-0.7404,0.307,0.6634,1.4222,1.8437,2.0416,1.5794,1.2689,0.7964,1.0357,1.2993,-0.3619,0.512,-0.2278,-0.0679,-0.4447,-0.3493,0.8782
1.0419,1.3519,1.4624,1.3754,1.1852,0.9623,0.3438,0.2509,-0.0471,-0.3134,-0.4286,-0.9056,-0.7213,0.2746,0.6436,1.355,1.7723,1.9631,1.4476,1.1451,0.7234,0.9624,1.2224,-0.3453,0.4396,-0.2546,-0.0564,-0.4204,-0.3066,0.9312
1.0689,1.3382,1.4535,1.3313,1.134,0.9214,0.3464,0.273,-0.0232,-0.2816,-0.3755,-0.845,-0.7121,0.2354,0.6522,1.2883,1.688,1.864,1.3048,1.02,0.6488,0.8744,1.1267,-0.3373,0.3599,-0.2745,-0.0552,-0.3931,-0.2622,0.9585
1.061,1.3073,1.4316,1.2358,1.0232,0.849,0.3103,0.2844,-0.0103,-0.271,-0.3331,-0.7863,-0.722,0.1851,0.6733,1.2166,1.5892,1.7475,1.155,0.8939,0.5696,0.7709,1.0151,-0.3424,0.2813,-0.2911,-0.0632,-0.3691,-0.2223,0.9582
1.014,1.2468,1.3929,1.0904,0.8607,0.7522,0.2382,0.2847,-0.0092,-0.2852,-0.309,-0.7404,-0.7569,0.1209,0.689,1.1331,1.4724,1.6164,1.0015,0.7654,0.4825,0.6515,0.8902,-0.3626,0.2121,-0.3067,-0.0772,-0.3524,-0.1929,0.9331
0.932,1.1502,1.3338,0.9046,0.6634,0.641,0.1372,0.2744,-0.0182,-0.3232,-0.3056,-0.714,-0.819,0.0412,0.684,1.0312,1.3337,1.4728,0.8459,0.6319,0.3842,0.516,0.7544,-0.3984,0.1593,-0.3217,-0.0937,-0.3436,-0.1781,0.8892
0.8244,1.0183,1.2517,0.6945,0.4525,0.5248,0.0174,0.2554,-0.0334,-0.3795,-0.3191,-0.7077,-0.9069,-0.0545,0.6478,0.9052,1.1702,1.3173,0.6889,0.4893,0.2707,0.3646,0.6096,-0.4491,0.1266,-0.3352,-0.11,-0.3408,-0.1791,0.8337
0.7028,0.8599,1.1452,0.4788,0.2494,0.4104,-0.1092,0.2315,-0.049,-0.445,-0.3408,-0.7166,-1.015,-0.1662,0.576,0.7522,0.9818,1.1496,0.5308,0.3331,0.1385,0.1981,0.4574,-0.5135,0.1141,-0.3452,-0.1258,-0.3406,-0.1946,0.7743
0.5776,0.6891,1.0147,0.2767,0.0723,0.301,-0.2298,0.2082,-0.058,-0.5081,-0.3593,-0.7316,-1.1342,-0.292,0.4684,0.5733,0.7729,0.9697,0.3721,0.1603,-0.0142,0.0189,0.3002,-0.5895,0.118,-0.3502,-0.1423,-0.3394,-0.2204,0.7187
0.4562,0.5218,0.8631,0.1044,-0.0659,0.1981,-0.3316,0.1921,-0.0534,-0.5567,-0.3634,-0.7415,-1.2526,-0.4283,0.3284,0.3745,0.5523,0.779,0.2145,-0.0284,-0.186,-0.1687,0.141,-0.6739,0.1318,-0.35,-0.1617,-0.3345,-0.2509,0.6731
0.3427,0.3715,0.6968,-0.0255,-0.1581,0.1033,-0.4024,0.1901,-0.0288,-0.5799,-0.3451,-0.7359,-1.3576,-0.569,0.1622,0.1669,0.3326,0.5813,0.0616,-0.2276,-0.3711,-0.3574,-0.0156,-0.7626,0.1479,-0.3462,-0.1854,-0.3245,-0.2795,0.6414
0.2391,0.2465,0.5259,-0.1054,-0.2024,0.0197,-0.4321,0.2078,0.0202,-0.5707,-0.3025,-0.7074,-1.4376,-0.7061,-0.0199,-0.0352,0.1271,0.383,-0.0821,-0.4263,-0.5595,-0.5383,-0.1645,-0.8498,0.1591,-0.3415,-0.2126,-0.3093,-0.3002,0.6243
0.1487,0.149,0.364,-0.1331,-0.2021,-0.0471,-0.4147,0.2484,0.0944,-0.5272,-0.2407,-0.6534,-1.4841,-0.83,-0.2046,-0.2158,-0.053,0.1931,-0.2113,-0.6102,-0.7381,-0.7013,-0.2999,-0.9295,0.1601,-0.3382,-0.2402,-0.2894,-0.3086,0.6199
0.0775,0.077,0.2261,-0.1123,-0.1645,-0.0904,-0.35,0.312,0.1907,-0.4535,-0.1701,-0.5767,-1.4941,-0.9316,-0.3756,-0.3604,-0.2008,0.0224,-0.3208,-0.7638,-0.8927,-0.8367,-0.4163,-0.9959,0.1484,-0.3371,-0.2624,-0.2651,-0.3035,0.6249
0.0352,0.0263,0.1257,-0.0523,-0.1002,-0.1051,-0.2448,0.3942,0.3015,-0.3595,-0.104,-0.4843,-1.4697,-1.0033,-0.5164,-0.4582,-0.3147,-0.118,-0.406,-0.8734,-1.0107,-0.9368,-0.5088,-1.0442,0.1238,-0.3364,-0.272,-0.2359,-0.2864,0.6364
0.0318,-0.0057,0.0717,0.0329,-0.0223,-0.0899,-0.1135,0.4867,0.4153,-0.2584,-0.0542,-0.3865,-1.4181,-1.0405,-0.6138,-0.5047,-0.3976,-0.2182,-0.4638,-0.9307,-1.0836,-0.997,-0.5734,-1.071,0.0886,-0.3316,-0.2617,-0.2002,-0.2622,0.6534
0.0731,-0.0184,0.0649,0.1256,0.0548,-0.0492,0.0239,0.5772,0.5178,-0.1648,-0.0279,-0.2942,-1.3499,-1.0429,-0.6618,-0.5017,-0.455,-0.2722,-0.4922,-0.9338,-1.1087,-1.0167,-0.6078,-1.0751,0.0465,-0.3176,-0.2266,-0.1562,-0.2378,0.6765
0.1558,-0.0084,0.098,0.2074,0.1168,0.0071,0.144,0.6512,0.5947,-0.0915,-0.026,-0.2169,-1.2771,-1.0149,-0.6632,-0.4582,-0.4932,-0.28,-0.4916,-0.8889,-1.0897,-0.9998,-0.6123,-1.0573,0.0023,-0.2902,-0.1653,-0.1029,-0.221,0.7074
0.266,0.0286,0.1554,0.2609,0.1511,0.0641,0.2244,0.6943,0.6336,-0.0479,-0.0428,-0.1612,-1.2106,-0.9655,-0.6308,-0.3884,-0.5182,-0.2489,-0.465,-0.8092,-1.0364,-0.9556,-0.591,-1.0213,-0.0393,-0.2479,-0.0813,-0.0408,-0.219,0.7472
0.3809,0.0926,0.2173,0.2729,0.1481,0.1041,0.248,0.6953,0.6273,-0.0376,-0.0676,-0.1293,-1.159,-0.9072,-0.5843,-0.3102,-0.5362,-0.1931,-0.4191,-0.7136,-0.9633,-0.8974,-0.5527,-0.9732,-0.0742,-0.1925,0.0178,0.0273,-0.2367,0.7955
0.4751,0.1761,0.2633,0.2359,0.1031,0.1098,0.2063,0.6497,0.5756,-0.0582,-0.0871,-0.1182,-1.1267,-0.8542,-0.5456,-0.2424,-0.5535,-0.1319,-0.3638,-0.624,-0.8873,-0.8416,-0.5107,-0.9211,-0.0988,-0.1282,0.1223,0.0971,-0.2758,0.8493
0.5274,0.262,0.2767,0.1498,0.0169,0.0682,0.1023,0.5619,0.4859,-0.1016,-0.0884,-0.1199,-1.1134,-0.8197,-0.5336,-0.202,-0.5772,-0.0858,-0.3112,-0.5616,-0.8252,-0.8042,-0.4812,-0.8736,-0.1107,-0.0606,0.2229,0.1635,-0.3335,0.9033
0.5266,0.3265,0.2476,0.0213,-0.1039,-0.0259,-0.0502,0.4443,0.3723,-0.1555,-0.0621,-0.1223,-1.1143,-0.8131,-0.5601,-0.2012,-0.6139,-0.0728,-0.2731,-0.5433,-0.7904,-0.7984,-0.4798,-0.8383,-0.1081,0.0056,0.3136,0.2228,-0.4034,0.9513
0.4737,0.3443,0.1741,-0.1362,-0.2475,-0.1671,-0.2286,0.3153,0.253,-0.2055,-0.0038,-0.1119,-1.1213,-0.8381,-0.6277,-0.2451,-0.6685,-0.1044,-0.2588,-0.5783,-0.7907,-0.8316,-0.5184,-0.8205,-0.0906,0.0671,0.3926,0.2729,-0.4761,0.987
0.3796,0.296,0.0615,-0.3054,-0.3985,-0.3398,-0.4059,0.1952,0.147,-0.238,0.0849,-0.076,-1.125,-0.8922,-0.7312,-0.331,-0.7427,-0.1841,-0.2733,-0.6663,-0.8275,-0.9037,-0.6016,-0.822,-0.0591,0.1225,0.4619,0.3144,-0.5413,1.0056
0.2606,0.1746,-0.0787,-0.468,-0.5409,-0.5216,-0.5565,0.1016,0.0706,-0.243,0.1973,-0.0062,-1.1174,-0.968,-0.8601,-0.4489,-0.8346,-0.3068,-0.3165,-0.7979,-0.8956,-1.0082,-0.7257,-0.8415,-0.016,0.1717,0.5258,0.3492,-0.59,1.0047
0.1323,-0.0121,-0.232,-0.6083,-0.6615,-0.6885,-0.6611,0.0464,0.035,-0.2156,0.3235,0.0989,-1.0941,-1.0549,-1.0027,-0.5834,-0.9384,-0.4598,-0.3835,-0.9571,-0.9854,-1.133,-0.8785,-0.8745,0.0348,0.2151,0.5882,0.38,-0.6163,0.9855
0.0065,-0.2424,-0.3822,-0.7162,-0.7518,-0.8207,-0.7104,0.0348,0.0444,-0.1571,0.4526,0.2331,-1.0557,-1.1418,-1.1483,-0.717,-1.0454,-0.6254,-0.4654,-1.1241,-1.0848,-1.2631,-1.0414,-0.9144,0.0888,0.2532,0.6508,0.4089,-0.6177,0.9521
-0.111,-0.4851,-0.5141,-0.7883,-0.81,-0.9064,-0.7057,0.065,0.0964,-0.0746,0.5745,0.3833,-1.0071,-1.2191,-1.288,-0.833,-1.1459,-0.7829,-0.551,-1.2795,-1.1816,-1.3835,-1.1929,-0.9527,0.1418,0.2862,0.7129,0.4371,-0.5959,0.9112
-0.2194,-0.7073,-0.6147,-0.827,-0.8389,-0.9425,-0.657,0.1296,0.1828,0.0208,0.6812,0.5316,-0.9567,-1.2796,-1.4141,-0.9191,-1.2302,-0.913,-0.6282,-1.4071,-1.2653,-1.4807,-1.3121,-0.9809,0.1913,0.3141,0.7719,0.4641,-0.5558,0.8695
-0.3211,-0.8801,-0.6752,-0.8384,-0.8446,-0.9334,-0.5798,0.2173,0.2911,0.1164,0.7664,0.6593,-0.9134,-1.3188,-1.5193,-0.9686,-1.2906,-1.0001,-0.686,-1.496,-1.328,-1.5449,-1.3833,-0.991,0.2367,0.3373,0.8247,0.4891,-0.5045,0.8318
-0.4193,-0.9841,-0.6916,-0.83,-0.8331,-0.8882,-0.4912,0.3144,0.4064,0.1995,0.8251,0.7507,-0.8846,-1.3349,-1.5963,-0.9811,-1.3223,-1.035,-0.7165,-1.5414,-1.365,-1.5704,-1.3986,-0.9777,0.2798,0.3565,0.8694,0.5106,-0.4506,0.8001
-0.5156,-1.011,-0.6657,-0.8083,-0.809,-0.8179,-0.4064,0.4068,0.5134,0.2599,0.8537,0.7958,-0.8746,-1.328,-1.6385,-0.9615,-1.3231,-1.0159,-0.715,-1.5439,-1.3744,-1.5553,-1.3591,-0.9385,0.324,0.3728,0.9057,0.528,-0.4022,0.7739
-0.6082,-0.9634,-0.6045,-0.7778,-0.7741,-0.7332,-0.3363,0.4817,0.5988,0.2913,0.8501,0.7929,-0.8838,-1.2993,-1.6416,-0.9175,-1.2928,-0.9473,-0.6803,-1.5082,-1.3562,-1.5007,-1.273,-0.8741,0.3723,0.388,0.9352,0.5416,-0.3659,0.7514
-0.6918,-0.8529,-0.5185,-0.7395,-0.7271,-0.6434,-0.2862,0.53,0.6534,0.2929,0.815,0.7486,-0.9076,-1.2497,-1.6056,-0.8564,-1.2318,-0.8378,-0.6132,-1.4407,-1.3106,-1.4095,-1.1533,-0.7873,0.4266,0.4036,0.9605,0.5531,-0.3458,0.7318
-0.7575,-0.6973,-0.4191,-0.6922,-0.665,-0.555,-0.2547,0.5474,0.6739,0.2693,0.7528,0.6768,-0.9376,-1.1792,-1.5346,-0.7832,-1.1407,-0.6973,-0.5156,-1.347,-1.2377,-1.286,-1.0137,-0.682,0.4869,0.4211,0.9852,0.5655,-0.3426,0.7164
-0.795,-0.5173,-0.3158,-0.6337,-0.5846,-0.4713,-0.2355,0.5353,0.6629,0.2302,0.6716,0.5966,-0.9622,-1.0869,-1.4375,-0.6984,-1.0196,-0.5343,-0.3895,-1.2311,-1.1371,-1.1349,-0.866,-0.562,0.5511,0.4414,1.0128,0.5821,-0.354,0.709
-0.7947,-0.3334,-0.2142,-0.5626,-0.4843,-0.3924,-0.2184,0.5003,0.6288,0.1883,0.5826,0.5285,-0.9698,-0.9715,-1.3253,-0.5996,-0.869,-0.3553,-0.2368,-1.0954,-1.0088,-0.9616,-0.7189,-0.4305,0.6162,0.4647,1.0473,0.6058,-0.3756,0.7154
-0.7505,-0.1632,-0.1155,-0.4806,-0.3655,-0.3154,-0.193,0.4526,0.583,0.1564,0.4978,0.491,-0.951,-0.8333,-1.2096,-0.4825,-0.6907,-0.1645,-0.0601,-0.9416,-0.8546,-0.7719,-0.5768,-0.2904,0.6792,0.4901,1.0924,0.6382,-0.4019,0.7413
-0.6619,-0.0191,-0.0171,-0.3931,-0.2333,-0.2368,-0.1517,0.4035,0.5376,0.1447,0.4279,0.4971,-0.902,-0.6756,-1.0994,-0.344,-0.4886,0.0342,0.137,-0.7722,-0.6792,-0.5723,-0.4409,-0.1448,0.7383,0.5158,1.1508,0.6787,-0.4279,0.79
-0.5345,0.0925,0.0846,-0.3078,-0.0961,-0.1541,-0.0922,0.3632,0.5025,0.1578,0.3799,0.5516,-0.8254,-0.5059,-1.0001,-0.1846,-0.2693,0.2359,0.349,-0.5922,-0.4914,-0.37,-0.31,0.002,0.7923,0.5393,1.2228,0.7243,-0.45,0.8611
-0.38,0.1722,0.1913,-0.2331,0.0356,-0.0676,-0.0188,0.3379,0.4828,0.1938,0.3558,0.65,-0.7307,-0.3357,-0.9133,-0.0094,-0.0423,0.4333,0.5679,-0.4095,-0.3033,-0.173,-0.1823,0.1442,0.8401,0.5579,1.3059,0.7699,-0.4669,0.9496
-0.2142,0.2258,0.3007,-0.1747,0.1509,0.0179,0.0586,0.3286,0.4779,0.2448,0.3525,0.779,-0.6321,-0.179,-0.8387,0.1711,0.1809,0.6155,0.7842,-0.2343,-0.1288,0.0094,-0.0567,0.2748,0.8803,0.5691,1.394,0.8093,-0.4794,1.0472
-0.0565,0.2622,0.4053,-0.1345,0.2395,0.0936,0.1261,0.3308,0.4817,0.2987,0.3623,0.9193,-0.5449,-0.05,-0.7768,0.3429,0.3873,0.7696,0.9869,-0.0782,0.0181,0.1678,0.0657,0.3858,0.9106,0.5717,1.4782,0.8366,-0.4909,1.1441
0.0728,0.2892,0.4935,-0.1095,0.2931,0.1483,0.1701,0.3357,0.4845,0.3422,0.375,1.0494,-0.4824,0.0395,-0.7308,0.4907,0.5641,0.8814,1.1645,0.0484,0.1257,0.293,0.1814,0.4699,0.9287,0.5663,1.5489,0.8478,-0.5056,1.2306
0.1542,0.3106,0.5523,-0.0942,0.3066,0.1709,0.1798,0.3324,0.4753,0.364,0.3805,1.1504,-0.4523,0.0827,-0.7068,0.6002,0.7003,0.9393,1.307,0.1372,0.1867,0.3777,0.2851,0.522,0.9329,0.5554,1.5979,0.8424,-0.5276,1.2989
0.1728,0.3242,0.5711,-0.0833,0.2783,0.1541,0.1507,0.3113,0.4455,0.3578,0.371,1.21,-0.4554,0.0797,-0.7118,0.6613,0.7886,0.9366,1.4065,0.1848,0.1998,0.4187,0.3707,0.5401,0.9229,0.5435,1.6209,0.8233,-0.5593,1.3438
0.1211,0.3237,0.5444,-0.0738,0.2116,0.0965,0.0864,0.2663,0.3909,0.3237,0.3438,1.2251,-0.4851,0.0374,-0.7504,0.6698,0.8258,0.8745,1.4591,0.1926,0.17,0.4178,0.4336,0.527,0.9004,0.5354,1.6187,0.7972,-0.6007,1.3622
0.0026,0.3009,0.4742,-0.0662,0.1159,0.0048,-0.0023,0.1976,0.3142,0.2688,0.3015,1.2014,-0.5288,-0.0311,-0.8212,0.6287,0.8139,0.7626,1.4656,0.1679,0.1085,0.3824,0.4719,0.4896,0.8696,0.5356,1.5968,0.7723,-0.6481,1.3526
-0.168,0.2506,0.3706,-0.0634,0.0065,-0.1067,-0.0984,0.1112,0.224,0.2053,0.2518,1.1526,-0.5706,-0.1088,-0.9147,0.5483,0.7599,0.6184,1.4317,0.1226,0.0307,0.3241,0.487,0.4385,0.836,0.5471,1.5639,0.7568,-0.6959,1.3147
-0.3661,0.1737,0.2492,-0.0688,-0.0972,-0.2181,-0.1832,0.0186,0.1334,0.1478,0.2051,1.0957,-0.5948,-0.1777,-1.0148,0.4448,0.6745,0.4641,1.367,0.071,-0.0459,0.2567,0.4832,0.3858,0.8058,0.5705,1.5294,0.7572,-0.7375,1.2498
-0.5625,0.0778,0.1291,-0.084,-0.1753,-0.3092,-0.2404,-0.0663,0.0568,0.1092,0.1716,1.0476,-0.5899,-0.2233,-1.1019,0.337,0.5707,0.3227,1.2836,0.0274,-0.1058,0.1928,0.4663,0.3425,0.7843,0.6044,1.5005,0.776,-0.7675,1.1615
-0.7287,-0.0238,0.0286,-0.1079,-0.2129,-0.3646,-0.2607,-0.1302,0.006,0.0971,0.158,1.0202,-0.5515,-0.2378,-1.1586,0.2425,0.4617,0.2132,1.1932,0.0021,-0.1387,0.1412,0.4417,0.3162,0.7743,0.6451,1.4804,0.8116,-0.7829,1.0571
-0.8429,-0.1164,-0.038,-0.137,-0.2037,-0.3783,-0.2437,-0.1638,-0.0125,0.112,0.1655,1.0184,-0.4843,-0.2221,-1.1745,0.1735,0.3587,0.1476,1.1056,-0.0007,-0.142,0.1054,0.4127,0.3085,0.7756,0.6876,1.4676,0.8582,-0.7841,0.9475
-0.8943,-0.1875,-0.0619,-0.1665,-0.1527,-0.3547,-0.1987,-0.1639,0.001,0.1471,0.1904,1.0388,-0.4009,-0.1864,-1.1482,0.1341,0.2694,0.1286,1.0265,0.0155,-0.122,0.0831,0.3802,0.3147,0.7838,0.7256,1.4563,0.9063,-0.7737,0.8463
-0.8844,-0.2296,-0.0412,-0.1913,-0.0745,-0.3066,-0.1412,-0.1342,0.0398,0.1904,0.225,1.0717,-0.3196,-0.1474,-1.0867,0.1196,0.1975,0.1507,0.9578,0.0409,-0.0922,0.0678,0.3428,0.3247,0.7916,0.7518,1.4375,0.9452,-0.7556,0.767
-0.8255,-0.2415,0.0194,-0.2073,0.0107,-0.2503,-0.0892,-0.0836,0.0934,0.2283,0.2608,1.1037,-0.2595,-0.1248,-1.0025,0.1186,0.1432,0.2016,0.8976,0.0619,-0.0698,0.051,0.2975,0.325,0.7897,0.7589,1.4015,0.9645,-0.7326,0.7197
-0.7365,-0.2279,0.1101,-0.2118,0.0822,-0.2004,-0.0577,-0.0236,0.1505,0.2494,0.2907,1.1227,-0.2364,-0.1356,-0.91,0.1164,0.1033,0.2656,0.842,0.0647,-0.0715,0.0247,0.2416,0.3024,0.7693,0.7406,1.34,0.9569,-0.7058,0.7087
-0.6368,-0.1977,0.2173,-0.2033,0.1241,-0.1657,-0.056,0.0348,0.2018,0.2471,0.3104,1.1204,-0.2588,-0.1905,-0.8229,0.0987,0.0725,0.3264,0.7863,0.0388,-0.1088,-0.0163,0.1733,0.2471,0.7242,0.6929,1.2476,0.9192,-0.6742,0.7314
-0.5416,-0.1618,0.326,-0.1817,0.1282,-0.1481,-0.0856,0.0829,0.2417,0.2207,0.319,1.0954,-0.3266,-0.291,-0.7517,0.0553,0.044,0.3699,0.7264,-0.021,-0.1859,-0.0731,0.0929,0.1554,0.6523,0.6154,1.1234,0.8534,-0.6359,0.78
-0.4591,-0.13,0.4219,-0.1483,0.0957,-0.143,-0.1411,0.1154,0.2681,0.1749,0.3184,1.0525,-0.431,-0.4293,-0.703,-0.0179,0.0113,0.3863,0.6595,-0.1135,-0.2984,-0.1431,0.0028,0.0299,0.5569,0.512,0.9713,0.766,-0.5896,0.8434
-0.3899,-0.1083,0.4947,-0.1054,0.0353,-0.1423,-0.2128,0.1297,0.2811,0.1175,0.3112,1.0015,-0.557,-0.5904,-0.6788,-0.1176,-0.0303,0.3719,0.5847,-0.2312,-0.4349,-0.22,-0.0922,-0.1202,0.4457,0.3909,0.8002,0.6666,-0.5359,0.9103
-0.3294,-0.0963,0.5399,-0.0565,-0.0389,-0.1372,-0.2895,0.1247,0.2814,0.0568,0.2994,0.9537,-0.6858,-0.7553,-0.6761,-0.2338,-0.0819,0.3294,0.504,-0.3618,-0.5792,-0.2953,-0.1852,-0.2815,0.3297,0.2633,0.6228,0.5662,-0.4781,0.9714
-0.2706,-0.0872,0.5597,-0.0059,-0.1115,-0.121,-0.361,0.0999,0.2693,-0.0001,0.2824,0.9189,-0.7988,-0.9041,-0.6865,-0.3514,-0.1405,0.2681,0.4226,-0.4896,-0.7136,-0.3594,-0.2682,-0.4379,0.2214,0.1416,0.4543,0.4754,-0.4225,1.0208
-0.2077,-0.0688,0.5621,0.042,-0.168,-0.0912,-0.4202,0.0555,0.2447,-0.0492,0.2573,0.9024,-0.8803,-1.0198,-0.6983,-0.4528,-0.1989,0.2015,0.3487,-0.5982,-0.8218,-0.403,-0.3328,-0.5729,0.1326,0.0375,0.3108,0.4028,-0.3766,1.0558
-0.138,-0.0275,0.5587,0.0843,-0.1973,-0.0494,-0.4634,-0.0083,0.2071,-0.0893,0.2201,0.9043,-0.9196,-1.0899,-0.6978,-0.5205,-0.247,0.1459,0.2938,-0.6723,-0.8908,-0.4177,-0.3711,-0.6714,0.0726,-0.0404,0.2074,0.3541,-0.3483,1.0763
-0.0631,0.0485,0.5617,0.1217,-0.1921,-0.0004,-0.4906,-0.0898,0.157,-0.1211,0.1676,0.9199,-0.912,-1.1072,-0.6729,-0.5398,-0.2727,0.1166,0.2715,-0.6995,-0.9121,-0.396,-0.3765,-0.7209,0.0468,-0.087,0.1565,0.3321,-0.3435,1.0843
0.0123,0.1649,0.5812,0.1598,-0.1485,0.0506,-0.504,-0.1859,0.0971,-0.1453,0.1005,0.942,-0.858,-1.0693,-0.616,-0.5004,-0.2639,0.1256,0.2957,-0.6717,-0.8817,-0.332,-0.3441,-0.7123,0.0559,-0.1017,0.1658,0.3363,-0.3648,1.083
0.0828,0.3192,0.6238,0.2082,-0.0663,0.0999,-0.5062,-0.2912,0.032,-0.1615,0.0243,0.9633,-0.7624,-0.9779,-0.5259,-0.3986,-0.2108,0.1795,0.378,-0.5857,-0.8001,-0.2219,-0.2715,-0.6416,0.0962,-0.0878,0.2371,0.3639,-0.4102,1.0773
0.1459,0.5001,0.6915,0.2779,0.0513,0.1472,-0.4982,-0.3985,-0.032,-0.1675,-0.0512,0.9787,-0.6328,-0.8379,-0.4083,-0.2373,-0.1073,0.2784,0.5248,-0.444,-0.6717,-0.0651,-0.1596,-0.5107,0.1601,-0.0515,0.365,0.4104,-0.4731,1.0729
0.2056,0.6891,0.7817,0.377,0.1979,0.1951,-0.4787,-0.4993,-0.0875,-0.1594,-0.1139,0.9863,-0.4778,-0.6571,-0.2746,-0.0262,0.046,0.4155,0.7338,-0.2544,-0.5044,0.1338,-0.0136,-0.3287,0.2372,-0.001,0.537,0.4702,-0.5435,1.0768
0.2716,0.8648,0.888,0.5074,0.364,0.248,-0.444,-0.5851,-0.128,-0.1332,-0.1526,0.987,-0.3061,-0.4455,-0.1387,0.2189,0.2414,0.5777,0.9941,-0.0296,-0.3087,0.3648,0.1563,-0.1116,0.3162,0.0555,0.7344,0.5373,-0.6097,1.0952
0.3575,1.0081,1.0013,0.6637,0.5382,0.3098,-0.3893,-0.6485,-0.1493,-0.0863,-0.1605,0.9837,-0.1258,-0.2153,-0.0144,0.4791,0.4644,0.7474,1.2865,0.215,-0.0966,0.6128,0.3359,0.1194,0.386,0.1101,0.9348,0.6059,-0.6614,1.1322
0.4745,1.1081,1.1119,0.8344,0.7086,0.382,-0.3105,-0.6847,-0.1503,-0.0189,-0.1375,0.9794,0.0561,0.0207,0.0891,0.7352,0.6965,0.9056,1.5874,0.4641,0.12,0.8599,0.5092,0.3408,0.4374,0.1568,1.1158,0.6706,-0.6914,1.1872
0.6268,1.1655,1.2113,1.0046,0.8651,0.4636,-0.2057,-0.6927,-0.133,0.0654,-0.0911,0.9766,0.2341,0.2498,0.1699,0.9712,0.918,1.0357,1.873,0.7048,0.3306,1.0886,0.661,0.5313,0.4645,0.1914,1.2588,0.7272,-0.6974,1.2539
0.8085,1.1927,1.2945,1.1597,1.0004,0.5514,-0.0764,-0.6747,-0.1025,0.16,-0.034,0.9764,0.4035,0.4611,0.2351,1.1773,1.1126,1.1276,2.1241,0.929,0.5276,1.2848,0.7805,0.6751,0.4652,0.2122,1.3523,0.7732,-0.6819,1.3198
1.0039,1.2111,1.3604,1.2891,1.1108,0.6408,0.0713,-0.6366,-0.0653,0.256,0.0183,0.9787,0.5602,0.6459,0.299,1.3501,1.2705,1.1798,2.329,1.1335,0.7059,1.4407,0.8632,0.7642,0.4407,0.2193,1.3931,0.8072,-0.6512,1.3696
1.1917,1.2447,1.411,1.3877,1.1957,0.7267,0.2275,-0.587,-0.0287,0.3441,0.0523,0.9825,0.6994,0.7982,0.379,1.4926,1.3906,1.2,2.4848,1.319,0.863,1.5552,0.9113,0.7995,0.3949,0.2146,1.3861,0.8289,-0.6133,1.3891
1.3512,1.3132,1.4502,1.4571,1.2574,0.8037,0.3794,-0.5359,0.0008,0.416,0.0592,0.9863,0.8155,0.9144,0.4891,1.6112,1.4791,1.2017,2.5965,1.4882,0.9978,1.6328,0.9323,0.7891,0.3333,0.2005,1.3428,0.838,-0.5761,1.3701
1.4677,1.4267,1.4821,1.5041,1.2996,0.8667,0.513,-0.4939,0.0183,0.4656,0.037,0.9888,0.9031,0.9935,0.6352,1.7133,1.5474,1.2005,2.6739,1.644,1.1102,1.6818,0.936,0.7468,0.2615,0.1795,1.278,0.8344,-0.5462,1.3134
1.537,1.5832,1.5096,1.5389,1.3279,0.9119,0.6162,-0.4702,0.021,0.4903,-0.01,0.9886,0.958,1.0375,0.8121,1.8048,1.6078,1.2088,2.7288,1.7876,1.201,1.7119,0.9317,0.6883,0.1851,0.1535,1.2072,0.8185,-0.5278,1.2295
1.5657,1.7693,1.5342,1.5727,1.3488,0.938,0.6809,-0.4707,0.0089,0.4911,-0.0728,0.9848,0.9789,1.0513,1.0045,1.8884,1.6705,1.2331,2.7717,1.9189,1.2714,1.7317,0.9259,0.6292,0.1098,0.1237,1.1441,0.7915,-0.5226,1.1362
1.568,1.9637,1.5562,1.6154,1.3687,0.9473,0.7046,-0.4957,-0.0152,0.4719,-0.1402,0.9768,0.9688,1.0435,1.1909,1.9645,1.7416,1.2721,2.8102,2.0362,1.3239,1.7472,0.9208,0.5821,0.0406,0.0913,1.0982,0.7558,-0.5305,1.0538
1.5615,2.1423,1.5753,1.6731,1.3928,0.9454,0.6902,-0.5395,-0.0459,0.439,-0.2015,0.9645,0.9344,1.0246,1.3491,2.0319,1.823,1.3181,2.8481,2.1378,1.3619,1.7615,0.9144,0.5545,-0.0183,0.0575,1.0739,0.7151,-0.5495,1
1.5614,2.2836,1.5915,1.7464,1.4229,0.9396,0.6454,-0.5904,-0.0765,0.3996,-0.2478,0.9481,0.885,1.0059,1.4616,2.0897,1.9132,1.3594,2.886,2.2223,1.3896,1.7742,0.9021,0.5481,-0.0646,0.0235,1.0696,0.6735,-0.5764,0.9864
1.5762,2.3727,1.605,1.8302,1.4569,0.9364,0.5801,-0.6336,-0.0998,0.3606,-0.2733,0.9284,0.8305,0.9973,1.5193,2.1385,2.0088,1.3843,2.9228,2.2895,1.4113,1.7829,0.8784,0.5584,-0.0984,-0.0094,1.0785,0.6346,-0.607,1.015
1.6061,2.4046,1.6167,1.9139,1.4883,0.9386,0.5052,-0.6538,-0.1102,0.3275,-0.2754,0.9061,0.7793,1.0047,1.5229,2.1805,2.1048,1.3841,2.9565,2.3401,1.4306,1.7837,0.8388,0.5759,-0.123,-0.04,1.0902,0.601,-0.637,1.0791
1.6427,2.3846,1.6274,1.9837,1.5078,0.9442,0.4302,-0.6397,-0.1042,0.3034,-0.2553,0.8817,0.7368,1.0294,1.4813,2.2192,2.1952,1.3549,2.9851,2.3754,1.4496,1.7727,0.7814,0.5884,-0.1433,-0.0677,1.0932,0.5734,-0.6624,1.165
1.6727,2.3263,1.6376,2.0253,1.5054,0.9462,0.3624,-0.5867,-0.082,0.2891,-0.2174,0.8555,0.7047,1.0669,1.4081,2.2576,2.2733,1.2986,3.0068,2.3968,1.4682,1.7468,0.7074,0.5834,-0.165,-0.0914,1.0773,0.5511,-0.68,1.2559
1.682,2.2476,1.6471,2.0278,1.4733,0.9345,0.306,-0.4987,-0.0469,0.2824,-0.1693,0.8264,0.6809,1.1087,1.3188,2.2973,2.3325,1.2221,3.0205,2.4054,1.4839,1.7049,0.6211,0.5513,-0.192,-0.1105,1.0364,0.5327,-0.6876,1.3363
1.6609,2.1658,1.6547,1.9862,1.4075,0.8989,0.2621,-0.388,-0.0051,0.2793,-0.1205,0.793,0.6609,1.1435,1.2275,2.3378,2.3679,1.1365,3.0251,2.4017,1.4923,1.648,0.5292,0.4875,-0.2257,-0.1242,0.9697,0.5157,-0.6851,1.395
1.6072,2.093,1.6587,1.9038,1.3097,0.832,0.2283,-0.2726,0.0356,0.2738,-0.0817,0.7529,0.6388,1.1603,1.1454,2.3768,2.3774,1.0547,3.0197,2.3867,1.4886,1.5795,0.4399,0.3934,-0.2636,-0.1325,0.881,0.4975,-0.6735,1.4265
1.5267,2.0357,1.6576,1.7923,1.1878,0.7315,0.1998,-0.173,0.0671,0.2595,-0.0631,0.7035,0.6093,1.151,1.0815,2.4118,2.3629,0.9902,3.0037,2.3621,1.4696,1.5045,0.3617,0.2758,-0.2998,-0.1362,0.7782,0.475,-0.656,1.4306
1.4324,1.9953,1.65,1.6704,1.0553,0.602,0.1713,-0.1068,0.0826,0.2308,-0.0726,0.6425,0.5689,1.1124,1.043,2.4417,2.3314,0.955,2.9768,2.332,1.4355,1.4295,0.3014,0.1458,-0.3263,-0.1376,0.67,0.4452,-0.6364,1.4106
1.3412,1.9718,1.636,1.5611,0.9298,0.4553,0.1378,-0.0856,0.0782,0.1843,-0.1145,0.5689,0.5172,1.048,1.0358,2.4682,2.2934,0.9581,2.9407,2.303,1.3915,1.361,0.264,0.0165,-0.3353,-0.14,0.5647,0.405,-0.6188,1.3712
1.2705,1.966,1.6175,1.4866,0.8294,0.3088,0.0971,-0.1115,0.0536,0.1198,-0.1874,0.4837,0.4565,0.9667,1.0639,2.4954,2.2614,1.0041,2.8988,2.2838,1.3468,1.3043,0.2509,-0.0995,-0.3211,-0.148,0.4677,0.3524,-0.6065,1.3181
1.2344,1.9797,1.598,1.4642,0.769,0.1823,0.0498,-0.1768,0.0125,0.0415,-0.2843,0.3903,0.3916,0.8815,1.1278,2.5289,2.246,1.0919,2.8566,2.283,1.3134,1.2623,0.2599,-0.1922,-0.2826,-0.166,0.3816,0.2869,-0.601,1.2567
1.2408,2.014,1.5828,1.5011,0.7568,0.0945,-0.0004,-0.2659,-0.0375,-0.0432,-0.393,0.2945,0.3287,0.8056,1.2224,2.5729,2.2522,1.2137,2.8207,2.3069,1.3022,1.2344,0.2847,-0.2559,-0.2237,-0.1976,0.3067,0.2106,-0.6017,1.1929
1.2897,2.0664,1.5775,1.5925,0.7915,0.0595,-0.0474,-0.3587,-0.0873,-0.1242,-0.4975,0.2035,0.2741,0.7499,1.3365,2.6277,2.2772,1.3558,2.7963,2.3565,1.3202,1.2166,0.316,-0.2904,-0.1533,-0.2447,0.2419,0.1279,-0.606,1.1324
1.3737,2.1291,1.5871,1.7213,0.8633,0.0836,-0.0837,-0.4356,-0.1271,-0.1906,-0.5809,0.1246,0.2332,0.7206,1.4535,2.6886,2.3105,1.4997,2.786,2.4263,1.3684,1.2023,0.3429,-0.2997,-0.0827,-0.3067,0.1863,0.0455,-0.6101,1.0799
1.4802,2.1894,1.6144,1.8621,0.9567,0.1651,-0.1016,-0.4813,-0.1482,-0.232,-0.6285,0.0642,0.2105,0.7187,1.5549,2.7465,2.3369,1.6256,2.7892,2.5054,1.4414,1.185,0.3552,-0.291,-0.023,-0.3801,0.1405,-0.0285,-0.6102,1.0391
1.5945,2.2333,1.6592,1.9879,1.0555,0.2948,-0.0935,-0.4884,-0.1444,-0.2402,-0.6306,0.0274,0.2096,0.7411,1.6237,2.7908,2.3411,1.7159,2.8022,2.5801,1.5298,1.1609,0.3463,-0.2722,0.018,-0.459,0.1072,-0.0852,-0.603,1.0113
1.7016,2.2501,1.7185,2.0764,1.1477,0.4585,-0.053,-0.4575,-0.1123,-0.2098,-0.5838,0.0181,0.2337,0.7833,1.649,2.8127,2.3132,1.7593,2.8209,2.6386,1.623,1.1304,0.3149,-0.2488,0.0382,-0.5345,0.0913,-0.116,-0.5871,0.9953
1.7886,2.2363,1.7865,2.1167,1.2284,0.6391,0.0244,-0.3966,-0.0517,-0.1389,-0.4915,0.0392,0.2856,0.8411,1.6278,2.809,2.2521,1.7527,2.8419,2.6747,1.7127,1.099,0.2666,-0.2229,0.0409,-0.5965,0.0991,-0.1136,-0.5635,0.9882
1.8446,2.1975,1.855,2.1115,1.2995,0.8191,0.1396,-0.3175,0.0342,-0.029,-0.3626,0.0924,0.3672,0.9125,1.5639,2.783,2.1664,1.7022,2.8643,2.6898,1.7948,1.0755,0.213,-0.1931,0.0337,-0.6345,0.1367,-0.073,-0.5348,0.986
1.8611,2.1462,1.9144,2.075,1.3666,0.9822,0.2893,-0.2336,0.1386,0.114,-0.2099,0.1777,0.4782,0.9975,1.4658,2.7443,2.0722,1.6203,2.889,2.6925,1.8704,1.0696,0.1687,-0.1556,0.0254,-0.64,0.2078,0.0066,-0.5058,0.9849
1.8324,2.0981,1.9548,2.0288,1.436,1.115,0.4648,-0.1566,0.2518,0.2806,-0.0488,0.2918,0.6153,1.0977,1.3428,2.7057,1.9891,1.5229,2.9179,2.6962,1.944,1.0884,0.1478,-0.1064,0.024,-0.6084,0.3123,0.1207,-0.4821,0.9826
1.7568,2.0678,1.9685,1.994,1.5112,1.2089,0.6537,-0.0949,0.3622,0.458,0.1048,0.4282,0.7718,1.2152,1.2031,2.6803,1.9348,1.4252,2.9525,2.7157,2.0228,1.1353,0.1596,-0.0434,0.035,-0.5398,0.4455,0.2593,-0.4698,0.9783
1.639,2.065,1.9522,1.9862,1.5924,1.261,0.8415,-0.053,0.458,0.6318,0.2362,0.5765,0.938,1.3513,1.0548,2.6792,1.9206,1.3392,2.9936,2.7637,2.1144,1.2085,0.2063,0.0335,0.0605,-0.4396,0.599,0.4083,-0.4743,0.9716
1.4914,2.0935,1.9089,2.0125,1.6781,1.2754,1.0147,-0.0307,0.5298,0.7883,0.3338,0.724,1.104,1.5064,0.9073,2.7105,1.9498,1.273,3.0413,2.8487,2.2258,1.3035,0.2836,0.1228,0.1007,-0.3168,0.7623,0.552,-0.4993,0.9621
1.3346,2.1525,1.849,2.0711,1.7665,1.2631,1.1635,-0.0239,0.5725,0.917,0.3907,0.8576,1.261,1.6792,0.774,2.778,2.0175,1.2309,3.0961,2.974,2.362,1.4143,0.3822,0.2221,0.1545,-0.1833,0.9251,0.676,-0.5456,0.9481
1.1945,2.2386,1.7877,2.1549,1.8582,1.2406,1.2837,-0.0258,0.5869,1.0123,0.406,0.9659,1.4036,1.8668,0.6713,2.8822,2.1124,1.2152,3.1583,3.1373,2.5246,1.5353,0.4906,0.3291,0.2199,-0.0516,1.0783,0.7694,-0.6107,0.9263
1.0973,2.3487,1.7418,2.2548,1.9562,1.2282,1.3769,-0.0282,0.579,1.0745,0.3855,1.0415,1.5298,2.0638,0.6171,3.0195,2.2195,1.226,3.2278,3.3308,2.711,1.662,0.5981,0.441,0.2941,0.066,1.2147,0.8264,-0.6884,0.8927
1.0633,2.4803,1.7255,2.363,2.0646,1.2459,1.449,-0.0235,0.5587,1.1091,0.3406,1.0825,1.6402,2.2618,0.625,3.182,2.323,1.262,3.3019,3.5419,2.9132,1.7901,0.6954,0.5543,0.3722,0.159,1.3284,0.8465,-0.7699,0.8439
1.1016,2.6301,1.7465,2.4744,2.1863,1.3092,1.5076,-0.0065,0.537,1.1251,0.2866,1.0921,1.7355,2.4494,0.7001,3.3579,2.4083,1.3193,3.3749,3.7537,3.1177,1.9142,0.776,0.6634,0.4479,0.22,1.4153,0.8341,-0.8452,0.7787
1.2064,2.7915,1.8035,2.5857,2.3201,1.4242,1.559,0.0247,0.5236,1.132,0.2391,1.0785,1.8149,2.6125,0.8347,3.5315,2.4638,1.3912,3.4375,3.9468,3.3061,2.0273,0.8358,0.7609,0.5129,0.2451,1.4719,0.7971,-0.9054,0.7
1.3569,2.9528,1.8859,2.693,2.4581,1.5842,1.6057,0.0686,0.5245,1.1371,0.2108,1.0515,1.8737,2.7356,1.0063,3.685,2.4824,1.4673,3.4786,4.101,3.4575,2.1195,0.8734,0.8377,0.5591,0.2347,1.4959,0.7452,-0.9441,0.6153
1.5205,3.0962,1.9755,2.789,2.5855,1.7682,1.645,0.1202,0.5405,1.1432,0.208,1.0208,1.9031,2.8034,1.1798,3.7993,2.4621,1.5339,3.4871,4.1977,3.5509,2.1795,0.8892,0.8837,0.5802,0.1929,1.4849,0.6879,-0.9594,0.5367
1.6587,3.1998,2.0483,2.8616,2.6817,1.9421,1.6688,0.1724,0.567,1.1474,0.2293,0.9926,1.891,2.8024,1.3119,3.8569,2.4059,1.5751,3.4547,4.2216,3.5678,2.1955,0.8859,0.8889,0.5727,0.1269,1.4373,0.6327,-0.954,0.4794
1.7362,3.2407,2.0794,2.8934,2.7232,2.0643,1.6653,0.2164,0.5952,1.142,0.266,0.9686,1.8244,2.7228,1.3585,3.8437,2.3199,1.5752,3.3771,4.1631,3.4949,2.1577,0.8673,0.8454,0.5375,0.045,1.3514,0.5841,-0.9347,0.4595
1.7288,3.2002,2.0463,2.865,2.6885,2.0928,1.6211,0.2441,0.6136,1.1159,0.3042,0.946,1.6921,2.56,1.2824,3.7511,2.2121,1.5208,3.2552,4.0189,3.326,2.0599,0.8384,0.7486,0.4789,-0.0441,1.2266,0.543,-0.9111,0.4916
1.6285,3.0667,1.9334,2.7595,2.5628,1.9946,1.5244,0.2488,0.611,1.0584,0.3297,0.9187,1.4877,2.3157,1.0608,3.5776,2.0899,1.4038,3.0937,3.7927,3.0628,1.9009,0.8038,0.5982,0.4037,-0.1332,1.0636,0.5074,-0.8929,0.5863
1.4438,2.8397,1.735,2.5681,2.3419,1.7534,1.3689,0.2276,0.5799,0.9621,0.3312,0.8804,1.2121,1.9981,0.6897,3.329,1.9596,1.223,2.9005,3.4943,2.7151,1.6852,0.7675,0.399,0.3195,-0.2174,0.8653,0.474,-0.8884,0.7473
1.1951,2.5298,1.4577,2.2947,2.0348,1.3757,1.1568,0.1818,0.5185,0.8264,0.3039,0.8272,0.874,1.6213,0.1854,3.0187,1.8253,0.9852,2.6844,3.1391,2.2998,1.4224,0.7321,0.16,0.2328,-0.2944,0.6375,0.4396,-0.9018,0.9694
0.9071,2.1593,1.1203,1.9571,1.6632,0.8914,0.8998,0.1171,0.4316,0.6578,0.2503,0.7593,0.4903,1.205,-0.4171,2.666,1.6901,0.7051,2.4547,2.7471,1.8396,1.1271,0.6989,-0.1059,0.148,-0.3646,0.3888,0.402,-0.9326,1.2381
0.6031,1.7585,0.7513,1.5851,1.2586,0.3492,0.6181,0.0426,0.3292,0.47,0.1792,0.6814,0.0835,0.772,-1.0696,2.2949,1.5564,0.4035,2.2207,2.3408,1.3608,0.8169,0.6681,-0.3835,0.0669,-0.4301,0.1301,0.3609,-0.9753,1.531
