FP1,F3,F7,FC3,C3,C5,P3,P7,PO7,PO3,O1,Oz,Pz,CPz,FP2,Fz,F4,F8,FC4,FCz,Cz,C4,C6,P4,P8,PO8,PO4,O2,HEOG_left,HEOG_right
-0.906,-1.0263,-0.5847,-0.4701,0.9379,0.2968,1.5457,1.1207,1.1868,1.5278,1.2206,0.7309,0.8864,0.6991,-1.2207,-1.1704,-1.3771,-1.2109,-1.0197,-0.7642,0.2602,-0.2144,-0.4157,0.6158,0.5191,0.9376,1.045,1.1003,-0.7385,-0.7084
-0.7202,-0.738,-0.4568,-0.2845,0.8625,0.2678,1.233,0.7521,0.8543,1.2029,0.9418,0.5988,0.8644,0.7039,-0.9964,-0.8323,-1.0647,-0.9328,-0.7999,-0.5086,0.3526,-0.1771,-0.2601,0.6915,0.6047,0.9604,1.0538,1.0294,-0.6454,-0.5665
-0.5438,-0.4625,-0.3347,-0.1108,0.7882,0.2434,0.9352,0.4179,0.5451,0.8878,0.6746,0.4715,0.8314,0.6912,-0.7774,-0.5102,-0.7693,-0.6734,-0.5999,-0.2667,0.4287,-0.1542,-0.1226,0.7482,0.6751,0.9713,1.0492,0.9556,-0.5553,-0.4397
-0.3855,-0.2147,-0.2246,0.0368,0.7128,0.2274,0.6664,0.1482,0.2788,0.5936,0.4299,0.3534,0.7783,0.6454,-0.5719,-0.2234,-0.508,-0.4499,-0.4382,-0.0574,0.469,-0.1583,-0.0195,0.7692,0.717,0.9595,1.0206,0.8761,-0.4725,-0.3395
-0.2536,-0.0105,-0.1332,0.1434,0.6304,0.2204,0.4373,-0.0358,0.0699,0.3304,0.217,0.2463,0.6973,0.555,-0.3902,0.0077,-0.2962,-0.2765,-0.3292,0.098,0.4558,-0.1985,0.0365,0.7415,0.719,0.9158,0.958,0.7865,-0.4013,-0.2738
-0.1543,0.1353,-0.0668,0.1958,0.5327,0.2193,0.2546,-0.1249,-0.0736,0.1064,0.0426,0.1495,0.5837,0.4154,-0.2434,0.1645,-0.1459,-0.1615,-0.2807,0.1795,0.3757,-0.2784,0.038,0.6584,0.6731,0.834,0.8542,0.6827,-0.3455,-0.2456
-0.091,0.2121,-0.03,0.1856,0.4114,0.2191,0.1207,-0.1222,-0.1509,-0.0723,-0.0892,0.0615,0.4377,0.2298,-0.1411,0.2345,-0.0628,-0.1068,-0.292,0.173,0.2234,-0.3941,-0.0151,0.5207,0.5773,0.7127,0.7074,0.5622,-0.3075,-0.2524
-0.063,0.2168,-0.0253,0.1117,0.2618,0.214,0.0338,-0.0427,-0.1684,-0.202,-0.1768,-0.0188,0.2655,0.0101,-0.0892,0.2151,-0.0454,-0.1067,-0.3532,0.0761,0.0042,-0.534,-0.1151,0.3382,0.4366,0.5567,0.5234,0.4268,-0.2881,-0.2857
-0.0659,0.1556,-0.0518,-0.0181,0.0856,0.1991,-0.0106,0.0898,-0.1385,-0.2822,-0.2213,-0.0907,0.0794,-0.2249,-0.0883,0.1157,-0.0845,-0.1502,-0.447,-0.0992,-0.2645,-0.6797,-0.2468,0.1283,0.2638,0.3776,0.3167,0.2835,-0.2862,-0.3334
-0.0915,0.0444,-0.105,-0.186,-0.1076,0.1727,-0.0191,0.2469,-0.0776,-0.3147,-0.2261,-0.151,-0.1028,-0.4512,-0.1322,-0.0419,-0.1645,-0.2222,-0.551,-0.3258,-0.5544,-0.8087,-0.3896,-0.0851,0.0785,0.1926,0.1096,0.1437,-0.299,-0.3818
-0.1292,-0.0933,-0.1763,-0.3672,-0.3002,0.1363,0.0006,0.4002,-0.0036,-0.3039,-0.1968,-0.1947,-0.2605,-0.6436,-0.2083,-0.2266,-0.2654,-0.307,-0.6417,-0.5655,-0.83,-0.8978,-0.5209,-0.276,-0.0959,0.0216,-0.0719,0.0215,-0.3223,-0.4183
-0.1671,-0.2295,-0.2538,-0.5322,-0.4692,0.095,0.0415,0.5257,0.0678,-0.2567,-0.1408,-0.2166,-0.3739,-0.7789,-0.2993,-0.4028,-0.366,-0.3897,-0.6988,-0.7748,-1.0538,-0.9274,-0.62,-0.42,-0.2366,-0.1165,-0.2029,-0.0698,-0.3509,-0.4344
-0.1943,-0.3374,-0.324,-0.6528,-0.5907,0.0564,0.097,0.6073,0.1251,-0.1818,-0.0666,-0.2131,-0.4278,-0.8403,-0.3859,-0.5371,-0.4474,-0.4586,-0.7081,-0.9132,-1.193,-0.8849,-0.671,-0.499,-0.3261,-0.208,-0.2655,-0.121,-0.3788,-0.4264
-0.2028,-0.3958,-0.3744,-0.7068,-0.645,0.0282,0.1612,0.6382,0.1625,-0.0893,0.0166,-0.1845,-0.415,-0.8197,-0.4504,-0.6044,-0.4957,-0.5062,-0.6639,-0.9519,-1.2254,-0.7679,-0.6665,-0.5052,-0.3558,-0.2475,-0.2543,-0.1303,-0.3994,-0.3962
-0.1889,-0.3946,-0.3965,-0.6827,-0.6212,0.0161,0.2287,0.6206,0.1798,0.0091,0.0996,-0.1354,-0.3382,-0.7199,-0.4805,-0.593,-0.5043,-0.5289,-0.5702,-0.8799,-1.1441,-0.5859,-0.6077,-0.4424,-0.3286,-0.2395,-0.1775,-0.1036,-0.4068,-0.3492
-0.154,-0.3361,-0.3882,-0.5828,-0.5202,0.0224,0.2945,0.5642,0.1817,0.1023,0.1742,-0.0744,-0.2093,-0.5545,-0.471,-0.5074,-0.4744,-0.5271,-0.4397,-0.7074,-0.96,-0.3588,-0.5048,-0.3257,-0.2582,-0.1977,-0.0565,-0.0543,-0.3962,-0.2927
-0.1042,-0.2351,-0.3538,-0.4226,-0.3553,0.0452,0.3539,0.4827,0.1748,0.1797,0.2335,-0.013,-0.0474,-0.3449,-0.4249,-0.3661,-0.414,-0.5035,-0.2908,-0.4634,-0.6994,-0.1139,-0.3735,-0.1782,-0.1653,-0.1417,0.0789,-0.0005,-0.3654,-0.2333
-0.049,-0.1147,-0.3027,-0.2279,-0.1504,0.0785,0.4024,0.391,0.1649,0.2332,0.2712,0.0374,0.1244,-0.1176,-0.3525,-0.1982,-0.3356,-0.4629,-0.1447,-0.1897,-0.3996,0.1187,-0.2322,-0.0267,-0.0732,-0.0923,0.197,0.0388,-0.3147,-0.1758
0.0004,-0.0008,-0.2464,-0.0296,0.0645,0.1143,0.4359,0.3017,0.1553,0.2577,0.2825,0.0669,0.2831,0.1004,-0.2686,-0.0365,-0.2538,-0.411,-0.0213,0.0684,-0.1017,0.3112,-0.0985,0.1032,-0.0026,-0.0673,0.2703,0.0474,-0.2482,-0.1221
0.0342,0.0841,-0.195,0.143,0.2581,0.1444,0.4509,0.2236,0.1459,0.2515,0.2643,0.0697,0.4085,0.2856,-0.1896,0.0898,-0.1828,-0.3545,0.0636,0.2712,0.1567,0.4427,0.0131,0.1908,0.0318,-0.0777,0.2805,0.0156,-0.1725,-0.0731
0.0462,0.1262,-0.154,0.2679,0.4038,0.163,0.4447,0.1613,0.1339,0.2166,0.2161,0.0446,0.4858,0.4203,-0.1296,0.1605,-0.1344,-0.3008,0.1003,0.3928,0.3481,0.5014,0.092,0.2231,0.0234,-0.126,0.2212,-0.0587,-0.0959,-0.0293
0.0357,0.1242,-0.1227,0.3356,0.4843,0.1686,0.4162,0.1157,0.1154,0.158,0.1407,-0.0045,0.5068,0.4948,-0.0975,0.1682,-0.1166,-0.2578,0.0859,0.4253,0.459,0.4854,0.1317,0.1957,-0.0262,-0.2066,0.0981,-0.1685,-0.0259,0.0072
0.0079,0.0888,-0.094,0.3498,0.4955,0.1646,0.3666,0.0851,0.0874,0.0828,0.0447,-0.0699,0.4708,0.5081,-0.0953,0.1194,-0.1315,-0.2323,0.0246,0.3787,0.4912,0.4022,0.1302,0.1131,-0.1088,-0.3068,-0.0725,-0.2996,0.0326,0.0328
-0.0262,0.0403,-0.0569,0.3266,0.4471,0.159,0.2995,0.067,0.0494,-0.0011,-0.0618,-0.1414,0.3845,0.467,-0.1175,0.0325,-0.175,-0.2274,-0.0726,0.2779,0.4599,0.2678,0.0906,-0.0115,-0.2111,-0.4095,-0.2668,-0.4321,0.0791,0.0434
-0.0526,0.0028,0.0006,0.2894,0.3605,0.1616,0.2219,0.0586,0.004,-0.085,-0.1663,-0.208,0.2608,0.3851,-0.1521,-0.0672,-0.236,-0.2407,-0.1885,0.156,0.3894,0.1042,0.0214,-0.1583,-0.3168,-0.4965,-0.4571,-0.5448,0.1179,0.0369
-0.0575,-0.0021,0.087,0.2625,0.2636,0.1814,0.1422,0.0579,-0.0429,-0.1607,-0.2556,-0.2598,0.1167,0.2799,-0.1833,-0.1531,-0.2977,-0.2632,-0.3015,0.0469,0.3067,-0.0626,-0.0635,-0.3035,-0.4099,-0.5522,-0.6167,-0.6185,0.1564,0.0143
-0.0315,0.0382,0.2037,0.2638,0.1832,0.2229,0.0696,0.0635,-0.0832,-0.2209,-0.3177,-0.2894,-0.029,0.1692,-0.1957,-0.2042,-0.3415,-0.2805,-0.3885,-0.0229,0.2357,-0.2062,-0.1461,-0.4228,-0.4759,-0.5659,-0.7234,-0.6406,0.2028,-0.0186
0.0269,0.1226,0.3428,0.2995,0.1376,0.2835,0.0116,0.074,-0.109,-0.2595,-0.344,-0.2929,-0.159,0.0682,-0.178,-0.2099,-0.3504,-0.2761,-0.4295,-0.0401,0.1912,-0.3038,-0.2071,-0.496,-0.5049,-0.5338,-0.763,-0.6071,0.2624,-0.0522
0.1094,0.2351,0.487,0.3613,0.1313,0.3527,-0.0276,0.0871,-0.1153,-0.2733,-0.3315,-0.2703,-0.2601,-0.0132,-0.1264,-0.1722,-0.314,-0.2368,-0.4113,-0.0067,0.1772,-0.3399,-0.2302,-0.51,-0.492,-0.4596,-0.7313,-0.5236,0.3347,-0.0757
0.1987,0.3478,0.6121,0.4282,0.1536,0.4133,-0.0481,0.0992,-0.1022,-0.2625,-0.2843,-0.2253,-0.3251,-0.0721,-0.0453,-0.1043,-0.2305,-0.1558,-0.3301,0.0614,0.1862,-0.3087,-0.2053,-0.4617,-0.4389,-0.3528,-0.6342,-0.4042,0.412,-0.0797
0.2726,0.4276,0.6923,0.4717,0.1813,0.4444,-0.0542,0.1053,-0.0752,-0.2306,-0.2125,-0.1651,-0.3536,-0.1118,0.0541,-0.0263,-0.1074,-0.0354,-0.1924,0.1402,0.203,-0.2151,-0.1311,-0.3585,-0.3529,-0.2272,-0.4869,-0.2682,0.4806,-0.0586
0.309,0.4448,0.7064,0.4641,0.186,0.427,-0.0535,0.0999,-0.0444,-0.1849,-0.1314,-0.0982,-0.3518,-0.1403,0.1572,0.0412,0.0413,0.1139,-0.0132,0.2046,0.2092,-0.0732,-0.0154,-0.2171,-0.2451,-0.098,-0.3106,-0.1361,0.5235,-0.0121
0.2928,0.3815,0.643,0.386,0.142,0.3485,-0.0554,0.0776,-0.0213,-0.1341,-0.0572,-0.0337,-0.3301,-0.1679,0.2496,0.0827,0.1987,0.2755,0.1871,0.235,0.1882,0.0965,0.1267,-0.0603,-0.1284,0.0209,-0.1288,-0.0256,0.5254,0.0554
0.2197,0.2367,0.5045,0.2326,0.0334,0.2065,-0.0697,0.0349,-0.0161,-0.0879,-0.0044,0.0208,-0.3018,-0.2045,0.321,0.0915,0.3482,0.4312,0.3857,0.2213,0.1291,0.2706,0.2764,0.0877,-0.015,0.119,0.0365,0.0515,0.4764,0.1357
0.0978,0.0277,0.3074,0.016,-0.1412,0.01,-0.1051,-0.0297,-0.0349,-0.0547,0.0175,0.0602,-0.2798,-0.2573,0.3658,0.0699,0.4758,0.5636,0.5611,0.1638,0.0285,0.4267,0.414,0.2056,0.0861,0.1905,0.1686,0.0912,0.3759,0.2189
-0.0542,-0.2141,0.0792,-0.2373,-0.3684,-0.2218,-0.1673,-0.1146,-0.0787,-0.0399,0.0052,0.0824,-0.2744,-0.3286,0.3839,0.0272,0.5714,0.6594,0.6948,0.0714,-0.1088,0.5455,0.5226,0.2791,0.1697,0.2348,0.258,0.097,0.2334,0.2951
-0.2117,-0.4498,-0.147,-0.4917,-0.6222,-0.4631,-0.2576,-0.2153,-0.1427,-0.0453,-0.0375,0.0885,-0.2909,-0.4148,0.3785,-0.0242,0.6285,0.71,0.7736,-0.0416,-0.2703,0.6133,0.5901,0.3033,0.2347,0.2553,0.3031,0.0782,0.0675,0.3555
-0.3489,-0.6414,-0.3387,-0.7097,-0.8692,-0.6863,-0.371,-0.3245,-0.2174,-0.0674,-0.1006,0.0826,-0.3283,-0.5061,0.3552,-0.0719,0.6445,0.7129,0.7914,-0.1585,-0.4373,0.624,0.6105,0.2828,0.2822,0.258,0.309,0.0475,-0.0974,0.3939
-0.4437,-0.7588,-0.47,-0.8589,-1.0743,-0.8658,-0.4966,-0.4327,-0.2902,-0.0989,-0.1695,0.0707,-0.3787,-0.5868,0.3206,-0.1053,0.6209,0.6714,0.7503,-0.2616,-0.5857,0.5797,0.5847,0.2299,0.3147,0.2494,0.2847,0.0171,-0.2347,0.4069
-0.4802,-0.784,-0.5252,-0.9169,-1.2058,-0.9825,-0.6187,-0.5301,-0.348,-0.1301,-0.2288,0.0595,-0.4286,-0.6373,0.2829,-0.1156,0.5651,0.596,0.6625,-0.3333,-0.6885,0.492,0.5209,0.1613,0.3338,0.2343,0.2405,-0.0036,-0.3212,0.3952
-0.4504,-0.7129,-0.5002,-0.8739,-1.2406,-1.0253,-0.7202,-0.6079,-0.3804,-0.1519,-0.2651,0.0543,-0.462,-0.6377,0.2516,-0.0951,0.4909,0.5032,0.5494,-0.3566,-0.7193,0.3807,0.4333,0.0938,0.3394,0.2142,0.1844,-0.0104,-0.3402,0.3641
-0.3536,-0.5537,-0.4025,-0.7331,-1.1675,-0.9922,-0.7866,-0.6602,-0.3821,-0.1586,-0.2705,0.058,-0.4639,-0.5728,0.2381,-0.0365,0.418,0.4147,0.4392,-0.317,-0.6578,0.2709,0.3403,0.0395,0.3291,0.1863,0.1205,-0.0049,-0.2853,0.3236
-0.196,-0.324,-0.2489,-0.5091,-0.9885,-0.8896,-0.8093,-0.6851,-0.3539,-0.1499,-0.244,0.0702,-0.4252,-0.436,0.2544,0.066,0.3687,0.3535,0.3613,-0.2047,-0.4948,0.1876,0.2605,0.0034,0.299,0.1446,0.0487,0.0061,-0.161,0.2867
0.0097,-0.0475,-0.0613,-0.2248,-0.7187,-0.7302,-0.788,-0.6842,-0.3014,-0.1304,-0.1908,0.0873,-0.3453,-0.2333,0.3106,0.2145,0.3631,0.3393,0.3396,-0.0187,-0.2364,0.1505,0.2087,-0.0178,0.2443,0.0814,-0.0344,0.0126,0.0179,0.2678
0.2455,0.2496,0.1369,0.0925,-0.3832,-0.5302,-0.7304,-0.6617,-0.2331,-0.108,-0.121,0.1038,-0.2333,0.0167,0.4118,0.4046,0.4129,0.3828,0.3856,0.2307,0.0945,0.1685,0.1925,-0.0337,0.1617,-0.0104,-0.1328,0.004,0.2291,0.2787
0.4901,0.5423,0.3252,0.4152,-0.0133,-0.3064,-0.6503,-0.6225,-0.1578,-0.0913,-0.0457,0.1141,-0.1063,0.2848,0.5556,0.6233,0.5169,0.4826,0.4941,0.5213,0.4613,0.2374,0.2095,-0.0576,0.0503,-0.1344,-0.2484,-0.0278,0.4473,0.3263
0.7208,0.8088,0.4894,0.7187,0.358,-0.0743,-0.565,-0.571,-0.083,-0.0872,0.0246,0.1139,0.0135,0.536,0.7306,0.8497,0.66,0.6233,0.643,0.8212,0.819,0.3396,0.2483,-0.1019,-0.0875,-0.2891,-0.3796,-0.0867,0.6487,0.4098
0.9162,1.0321,0.6224,0.9834,0.6992,0.1532,-0.4921,-0.5112,-0.0149,-0.0999,0.0815,0.1005,0.1031,0.7348,0.9171,1.0566,0.8143,0.7786,0.7975,1.0925,1.1211,0.4478,0.2906,-0.1749,-0.2455,-0.4675,-0.5207,-0.171,0.8151,0.5201
1.0593,1.1997,0.7243,1.1947,0.9824,0.3648,-0.4467,-0.4471,0.0411,-0.1318,0.1188,0.073,0.1414,0.8502,1.0902,1.2153,0.9462,0.9164,0.9178,1.2977,1.3275,0.5304,0.3155,-0.2791,-0.4149,-0.6573,-0.6629,-0.2746,0.9361,0.6419
1.1392,1.3041,0.7996,1.3427,1.1847,0.5507,-0.44,-0.3838,0.0801,-0.1835,0.1321,0.032,0.1135,0.8602,1.2242,1.3,1.0231,1.0062,0.9683,1.4054,1.4095,0.5583,0.3049,-0.4105,-0.5848,-0.8431,-0.7961,-0.3877,1.0102,0.7562
1.1534,1.3416,0.8552,1.4211,1.2888,0.7016,-0.4769,-0.3277,0.0974,-0.2553,0.1182,-0.0212,0.0123,0.755,1.2977,1.2932,1.0216,1.0263,0.9264,1.395,1.3534,0.5119,0.2478,-0.559,-0.7435,-1.0091,-0.9105,-0.4991,1.0425,0.8451
1.1075,1.3134,0.8978,1.4274,1.284,0.8086,-0.5559,-0.2865,0.0895,-0.3462,0.0763,-0.0843,-0.1592,0.5382,1.298,1.189,0.9333,0.9693,0.7878,1.261,1.1619,0.3858,0.1439,-0.7108,-0.88,-1.1414,-0.998,-0.5983,1.0431,0.896
1.0144,1.2253,0.9324,1.3631,1.1691,0.8648,-0.6683,-0.2674,0.0551,-0.4535,0.0081,-0.1541,-0.3874,0.2273,1.2243,0.9952,0.7673,0.8437,0.5685,1.0138,0.8535,0.191,0.0043,-0.8499,-0.985,-1.2303,-1.0526,-0.6764,1.024,0.9043
0.893,1.0886,0.9619,1.2362,0.9541,0.8672,-0.7991,-0.2755,-0.004,-0.5717,-0.0812,-0.2262,-0.6496,-0.1476,1.0878,0.7338,0.5485,0.6727,0.3018,0.6799,0.46,-0.0463,-0.1497,-0.9613,-1.0519,-1.2717,-1.0714,-0.7281,0.9969,0.8747
0.7653,0.9211,0.9878,1.062,0.6621,0.8185,-0.9287,-0.3119,-0.0823,-0.692,-0.1829,-0.2956,-0.9162,-0.5472,0.9109,0.439,0.3136,0.4894,0.0323,0.2995,0.0243,-0.2884,-0.2908,-1.0329,-1.0779,-1.2679,-1.0546,-0.7513,0.972,0.8205
0.6535,0.7463,1.0114,0.8644,0.3297,0.7291,-1.0357,-0.3727,-0.1715,-0.8025,-0.2853,-0.357,-1.1551,-0.9269,0.7235,0.1535,0.1041,0.3305,-0.1922,-0.0773,-0.4042,-0.4931,-0.3902,-1.0578,-1.0642,-1.2263,-1.006,-0.7482,0.9577,0.7605
0.5778,0.5921,1.0347,0.6743,0.0035,0.6169,-1.0995,-0.449,-0.2607,-0.8899,-0.3759,-0.4057,-1.3359,-1.2425,0.559,-0.0772,-0.0404,0.2295,-0.3292,-0.3967,-0.7748,-0.6207,-0.4233,-1.0347,-1.0166,-1.1587,-0.9323,-0.7238,0.9602,0.7152
0.5535,0.4881,1.0616,0.5266,-0.2653,0.5055,-1.1037,-0.5284,-0.3381,-0.9412,-0.4423,-0.4379,-1.4343,-1.4555,0.4493,-0.2108,-0.0889,0.211,-0.3484,-0.6083,-1.0412,-0.6414,-0.3742,-0.9676,-0.9437,-1.0785,-0.8431,-0.6854,0.9836,0.7021
0.5895,0.4603,1.0966,0.4542,-0.4298,0.4206,-1.0391,-0.5975,-0.3922,-0.9456,-0.4747,-0.451,-1.4357,-1.5388,0.4196,-0.2163,-0.0241,0.2869,-0.237,-0.6732,-1.1674,-0.54,-0.2391,-0.8648,-0.8559,-0.9981,-0.748,-0.6404,1.0296,0.7323
0.6861,0.5259,1.1432,0.4814,-0.4563,0.3844,-0.9053,-0.6444,-0.414,-0.8974,-0.4677,-0.4434,-1.3363,-1.4798,0.4841,-0.0796,0.1553,0.4546,-0.0008,-0.5708,-1.1334,-0.3193,-0.0268,-0.7366,-0.7631,-0.9264,-0.6557,-0.5949,1.0964,0.8077
0.835,0.6883,1.2009,0.6172,-0.3323,0.4107,-0.7118,-0.6617,-0.3985,-0.7972,-0.4208,-0.4141,-1.1439,-1.2825,0.643,0.1924,0.434,0.6979,0.3366,-0.3038,-0.9389,0.0003,0.2422,-0.5939,-0.6739,-0.8676,-0.5715,-0.552,1.1781,0.9207
1.0195,0.9336,1.264,0.8518,-0.0705,0.5007,-0.4764,-0.647,-0.3459,-0.6529,-0.339,-0.3628,-0.876,-0.9675,0.8808,0.5712,0.7823,0.9899,0.7384,0.101,-0.6041,0.3841,0.5388,-0.4461,-0.5937,-0.8211,-0.4971,-0.5121,1.2645,1.0555
1.216,1.2306,1.3206,1.156,0.2919,0.642,-0.2229,-0.6033,-0.2611,-0.4787,-0.2312,-0.2896,-0.558,-0.569,1.1677,1.0096,1.1597,1.2963,1.1592,0.5953,-0.1681,0.788,0.83,-0.3017,-0.5258,-0.7831,-0.4313,-0.4732,1.3426,1.1915
1.3965,1.534,1.3542,1.4846,0.6991,0.8101,0.0225,-0.5371,-0.1527,-0.2937,-0.1092,-0.1965,-0.2201,-0.1311,1.4629,1.4476,1.5193,1.5791,1.5507,1.1153,0.3161,1.1648,1.0824,-0.1679,-0.4712,-0.7487,-0.372,-0.4333,1.398,1.3074
1.5312,1.7908,1.3467,1.7836,1.0865,0.9732,0.2352,-0.4566,-0.0309,-0.1187,0.0147,-0.0874,0.1053,0.2974,1.7194,1.8202,1.8121,1.8003,1.8663,1.5906,0.7877,1.4697,1.2666,-0.0518,-0.4301,-0.7148,-0.3179,-0.3919,1.4185,1.3848
1.5921,1.9486,1.2819,1.9989,1.3921,1.0975,0.3955,-0.3694,0.094,0.0268,0.1291,0.0308,0.3869,0.6689,1.8905,2.0664,1.9922,1.925,2.0645,1.9533,1.1862,1.6654,1.3603,0.0389,-0.4025,-0.681,-0.2709,-0.3512,1.3956,1.4105
1.5561,1.9638,1.1479,2.0858,1.5671,1.1534,0.4912,-0.2815,0.2122,0.1276,0.2243,0.1485,0.5976,0.9422,1.937,2.1376,2.0217,1.9245,2.1127,2.147,1.4585,1.7259,1.3495,0.0963,-0.3884,-0.65,-0.2352,-0.316,1.326,1.3778
1.4083,1.8091,0.9397,2.0153,1.583,1.1206,0.5183,-0.1971,0.3157,0.1747,0.2931,0.2544,0.7175,1.0876,1.834,2.0054,1.8762,1.7806,1.9909,2.1347,1.5658,1.639,1.2309,0.1136,-0.388,-0.6267,-0.217,-0.2922,1.2115,1.2861
1.1446,1.4784,0.6593,1.779,1.4355,0.9907,0.4807,-0.1196,0.3972,0.1663,0.3312,0.3376,0.7366,1.0909,1.5757,1.666,1.5501,1.4894,1.6949,1.9038,1.4891,1.408,1.0115,0.0869,-0.4003,-0.6152,-0.2214,-0.2841,1.0573,1.14
0.7736,0.9877,0.3152,1.3891,1.1425,0.7679,0.3884,-0.0527,0.4507,0.1075,0.337,0.3898,0.6561,0.9548,1.1783,1.1422,1.0599,1.0644,1.2398,1.4681,1.2315,1.0519,0.7096,0.0171,-0.4227,-0.6173,-0.2506,-0.2933,0.8705,0.9486
0.3163,0.3728,-0.0786,0.8757,0.7392,0.4668,0.2548,-0.0013,0.4721,0.0093,0.3126,0.4067,0.4885,0.6977,0.6779,0.4803,0.4443,0.537,0.6603,0.8662,0.8181,0.6038,0.3524,-0.0889,-0.4503,-0.6307,-0.3014,-0.317,0.6581,0.7243
-0.1952,-0.3159,-0.5041,0.2819,0.2701,0.1096,0.0939,0.0283,0.459,-0.1138,0.2629,0.3889,0.2552,0.3504,0.1252,-0.256,-0.2395,-0.046,0.0086,0.1566,0.2924,0.1076,-0.0253,-0.219,-0.4758,-0.6489,-0.3658,-0.3487,0.4262,0.4826
-0.7215,-1.0199,-0.9408,-0.3431,-0.2192,-0.2787,-0.0824,0.029,0.4119,-0.2472,0.1948,0.3413,-0.0175,-0.0497,-0.4222,-0.9944,-0.9225,-0.628,-0.6513,-0.5903,-0.2905,-0.3877,-0.3863,-0.3573,-0.4907,-0.6624,-0.4322,-0.3807,0.1806,0.2409
-1.2204,-1.6804,-1.3668,-0.95,-0.6898,-0.6737,-0.2667,-0.0055,0.334,-0.3796,0.1156,0.2718,-0.3036,-0.4653,-0.909,-1.6635,-1.5341,-1.1504,-1.2516,-1.3003,-0.8721,-0.8344,-0.6951,-0.4881,-0.4871,-0.6612,-0.4885,-0.4055,-0.0728,0.0176
-1.652,-2.2447,-1.76,-1.4947,-1.1134,-1.0548,-0.4567,-0.0792,0.2308,-0.5047,0.0314,0.189,-0.5817,-0.8647,-1.2895,-2.2022,-2.0123,-1.5616,-1.7312,-1.9053,-1.399,-1.1929,-0.9239,-0.598,-0.4595,-0.6375,-0.5248,-0.4184,-0.3265,-0.1707
-1.9844,-2.6725,-2.0999,-1.9426,-1.4743,-1.4073,-0.6546,-0.1924,0.1102,-0.6226,-0.0532,0.1015,-0.8377,-1.226,-1.5346,-2.567,-2.3131,-1.825,-2.0458,-2.3521,-1.8307,-1.4374,-1.0575,-0.6793,-0.4066,-0.5879,-0.5363,-0.4183,-0.571,-0.3112
-2.1976,-2.9395,-2.3698,-2.2716,-1.7683,-1.7224,-0.8648,-0.3405,-0.0189,-0.738,-0.1353,0.0166,-1.0651,-1.5385,-1.6343,-2.737,-2.4183,-1.9256,-2.1754,-2.6091,-2.1449,-1.5593,-1.0965,-0.7303,-0.3323,-0.5145,-0.5234,-0.4068,-0.795,-0.3974
-2.2866,-3.0399,-2.559,-2.4732,-1.9996,-1.9969,-1.0897,-0.5143,-0.1467,-0.8567,-0.2125,-0.059,-1.2632,-1.8009,-1.5985,-2.7169,-2.3382,-1.8722,-2.1293,-2.6714,-2.3394,-1.5688,-1.0574,-0.755,-0.2456,-0.4244,-0.4912,-0.3867,-0.9866,-0.4308
-2.2613,-2.9869,-2.6649,-2.5532,-2.1771,-2.2319,-1.3261,-0.7007,-0.2638,-0.9823,-0.2818,-0.1191,-1.4338,-2.0192,-1.4544,-2.5352,-2.1102,-1.6966,-1.9441,-2.5617,-2.4306,-1.4922,-0.9704,-0.7614,-0.1592,-0.3282,-0.4474,-0.3606,-1.1356,-0.4209
-2.1453,-2.8097,-2.6949,-2.5298,-2.3109,-2.4315,-1.5635,-0.8848,-0.362,-1.1131,-0.3394,-0.1579,-1.5782,-2.2016,-1.2421,-2.2394,-1.7921,-1.4474,-1.6776,-2.3259,-2.4478,-1.3667,-0.8737,-0.7585,-0.0866,-0.2371,-0.3998,-0.3285,-1.2366,-0.3834
-1.9715,-2.5496,-2.6659,-2.43,-2.4093,-2.6008,-1.7841,-1.0516,-0.4352,-1.241,-0.3806,-0.1698,-1.6948,-2.3552,-1.0071,-1.8885,-1.4516,-1.1814,-1.3974,-2.0247,-2.4258,-1.2335,-0.8062,-0.7541,-0.0398,-0.1604,-0.3538,-0.2885,-1.2905,-0.3379
-1.7773,-2.2531,-2.6021,-2.2858,-2.4769,-2.7449,-1.9661,-1.1884,-0.4798,-1.353,-0.4002,-0.1501,-1.7792,-2.4829,-0.7936,-1.5426,-1.1545,-0.9529,-1.1673,-1.7217,-2.3962,-1.1299,-0.7997,-0.7522,-0.026,-0.1028,-0.3114,-0.2364,-1.3049,-0.3033
-1.5986,-1.9656,-2.5303,-2.1285,-2.5147,-2.867,-2.0885,-1.2867,-0.495,-1.4344,-0.394,-0.0965,-1.8254,-2.5829,-0.6382,-1.2534,-0.9532,-0.8038,-1.036,-1.4713,-2.3811,-1.0825,-0.8727,-0.7527,-0.046,-0.0639,-0.2711,-0.168,-1.2934,-0.2945
-1.465,-1.7256,-2.475,-1.9847,-2.522,-2.9683,-2.1364,-1.3428,-0.4829,-1.4731,-0.3593,-0.0103,-1.829,-2.6502,-0.5655,-1.058,-0.8794,-0.758,-1.0291,-1.3094,-2.3903,-1.1046,-1.0277,-0.7534,-0.0941,-0.0388,-0.2301,-0.0816,-1.2724,-0.3193
-1.3963,-1.5601,-2.453,-1.8737,-2.4984,-3.0473,-2.106,-1.3586,-0.448,-1.4639,-0.2971,0.102,-1.7914,-2.6806,-0.5864,-0.9747,-0.9419,-0.8192,-1.1481,-1.2495,-2.4219,-1.1967,-1.2523,-0.7522,-0.1603,-0.0212,-0.1866,0.0204,-1.2574,-0.3775
-1.4011,-1.4829,-2.4701,-1.8067,-2.4468,-3.1016,-2.0065,-1.3404,-0.3974,-1.4106,-0.2123,0.2285,-1.7221,-2.6744,-0.6992,-1.0036,-1.1287,-0.9738,-1.3737,-1.2842,-2.4677,-1.3499,-1.5236,-0.7503,-0.2339,-0.0063,-0.1426,0.1289,-1.2601,-0.4622
-1.4769,-1.495,-2.5211,-1.787,-2.3749,-3.1285,-1.8596,-1.298,-0.3401,-1.3262,-0.1144,0.3522,-1.6393,-2.6396,-0.8914,-1.1306,-1.4125,-1.1963,-1.6739,-1.3914,-2.518,-1.5514,-1.8146,-0.755,-0.3066,0.0062,-0.1058,0.2293,-1.2858,-0.5623
-1.612,-1.5865,-2.5917,-1.8125,-2.2951,-3.1265,-1.6951,-1.2419,-0.2856,-1.2297,-0.0164,0.4538,-1.5681,-2.5917,-1.1435,-1.332,-1.758,-1.4562,-2.0127,-1.5427,-2.5669,-1.7881,-2.1,-0.7783,-0.3756,0.0105,-0.0891,0.3029,-1.3331,-0.6654
-1.7879,-1.7403,-2.6634,-1.8772,-2.2223,-3.0961,-1.5445,-1.1812,-0.2421,-1.1421,0.0676,0.5151,-1.5348,-2.5522,-1.4322,-1.5808,-2.1289,-1.7242,-2.3571,-1.7121,-2.6144,-2.0495,-2.3602,-0.8351,-0.4436,-0.0037,-0.108,0.3309,-1.3945,-0.7612
-1.9828,-1.9354,-2.7177,-1.9727,-2.1707,-3.0394,-1.4343,-1.1219,-0.2153,-1.0813,0.1246,0.5229,-1.5616,-2.5428,-1.7331,-1.8514,-2.4928,-1.9762,-2.6822,-1.8819,-2.6667,-2.3274,-2.5825,-0.9383,-0.5173,-0.0486,-0.1766,0.2989,-1.4586,-0.8426
-2.1735,-2.1497,-2.7402,-2.089,-2.1504,-2.9593,-1.3802,-1.0659,-0.2082,-1.0593,0.1447,0.4718,-1.6611,-2.5807,-2.0233,-2.1227,-2.8241,-2.1948,-2.9716,-2.0445,-2.7327,-2.6136,-2.7601,-1.0941,-0.6042,-0.1341,-0.3031,0.2009,-1.5126,-0.9058
-2.3387,-2.3616,-2.7224,-2.2143,-2.1641,-2.8588,-1.3847,-1.0121,-0.2209,-1.0805,0.1213,0.3645,-1.8325,-2.6731,-2.2829,-2.3782,-3.1044,-2.3693,-3.2156,-2.2004,-2.8202,-2.8966,-2.889,-1.2991,-0.7093,-0.2642,-0.4868,0.0405,-1.5444,-0.9493
-2.46,-2.5513,-2.6619,-2.3349,-2.2064,-2.7402,-1.4378,-0.9583,-0.2527,-1.1427,0.0514,0.2112,-2.061,-2.8146,-2.496,-2.6053,-3.3216,-2.4933,-3.4079,-2.3533,-2.931,-3.1603,-2.9649,-1.5392,-0.8323,-0.4355,-0.7172,-0.1699,-1.545,-0.973
-2.524,-2.7015,-2.5616,-2.4356,-2.2652,-2.6048,-1.5217,-0.9031,-0.3025,-1.2387,-0.0654,0.0256,-2.3215,-2.9878,-2.6515,-2.7938,-3.4679,-2.5633,-3.542,-2.5042,-3.0588,-3.3827,-2.9815,-1.7922,-0.9677,-0.6374,-0.9764,-0.4121,-1.5095,-0.9766
-2.5237,-2.7986,-2.4284,-2.5014,-2.3246,-2.4541,-1.6163,-0.8482,-0.3701,-1.3592,-0.2265,-0.1775,-2.5829,-3.1667,-2.7432,-2.9346,-3.5393,-2.577,-3.6099,-2.6475,-3.1883,-3.5393,-2.9306,-2.0322,-1.1052,-0.8548,-1.2422,-0.6669,-1.4385,-0.9593
-2.4594,-2.834,-2.2715,-2.5201,-2.3692,-2.2908,-1.7052,-0.7987,-0.4551,-1.4949,-0.4266,-0.3851,-2.8154,-3.3224,-2.7702,-3.0197,-3.5353,-2.5334,-3.6031,-2.77,-3.2982,-3.6063,-2.8041,-2.2345,-1.232,-1.0705,-1.4935,-0.9168,-1.3379,-0.9196
-2.3393,-2.8056,-2.102,-2.4849,-2.3883,-2.1197,-1.7794,-0.7623,-0.5568,-1.6378,-0.6566,-0.5875,-2.9956,-3.4297,-2.7368,-3.0439,-3.4592,-2.4335,-3.5152,-2.8537,-3.3666,-3.5671,-2.5982,-2.3808,-1.3352,-1.2684,-1.7132,-1.1483,-1.2187,-0.8562
-2.1787,-2.7189,-1.9314,-2.3968,-2.3788,-1.9487,-1.839,-0.7479,-0.6732,-1.782,-0.9045,-0.778,-3.1109,-3.4726,-2.6522,-3.0058,-3.3194,-2.2823,-3.3461,-2.8808,-3.3763,-3.4166,-2.3163,-2.4615,-1.4043,-1.4349,-1.8903,-1.3523,-1.0955,-0.7688
-1.9983,-2.5864,-1.7708,-2.2657,-2.3462,-1.7883,-1.8916,-0.7631,-0.8007,-1.9228,-1.1553,-0.9517,-3.1604,-3.4477,-2.5299,-2.9101,-3.1295,-2.0901,-3.1051,-2.8399,-3.3203,-3.1651,-1.9725,-2.4768,-1.4317,-1.56,-2.0201,-1.5225,-0.9835,-0.6593
-1.8205,-2.4256,-1.6304,-2.1083,-2.3028,-1.65,-1.9487,-0.8127,-0.9342,-2.0561,-1.393,-1.1038,-3.1529,-3.3636,-2.3851,-2.7675,-2.9077,-1.8724,-2.8114,-2.7295,-3.2035,-2.8374,-1.5907,-2.435,-1.4141,-1.6367,-2.1018,-1.6544,-0.8966,-0.5322
-1.666,-2.2559,-1.5181,-1.9446,-2.264,-1.5452,-2.0207,-0.8968,-1.0672,-2.1775,-1.6014,-1.2285,-3.1024,-3.238,-2.2331,-2.5931,-2.6744,-1.6486,-2.4927,-2.5598,-3.0415,-2.4699,-1.203,-2.3486,-1.3518,-1.6615,-2.137,-1.7434,-0.8448,-0.3939
-1.5495,-2.0947,-1.4391,-1.7941,-2.2441,-1.4825,-2.1128,-1.0113,-1.1921,-2.2814,-1.766,-1.3185,-3.0238,-3.0924,-2.0861,-2.4045,-2.4484,-1.4384,-2.1799,-2.3507,-2.8569,-2.1038,-0.8441,-2.2314,-1.2489,-1.6336,-2.1271,-1.7853,-0.8331,-0.2519
-1.4782,-1.9545,-1.3954,-1.6715,-2.2521,-1.4668,-2.2226,-1.1481,-1.3012,-2.3616,-1.8757,-1.3664,-2.9279,-2.9466,-1.9518,-2.2189,-2.2446,-1.258,-1.902,-2.1278,-2.6733,-1.7777,-0.5459,-2.0952,-1.1125,-1.5561,-2.0738,-1.7772,-0.8607,-0.1132
-1.4506,-1.842,-1.3857,-1.5846,-2.2893,-1.4984,-2.3401,-1.2967,-1.3874,-2.413,-1.9249,-1.3663,-2.8207,-2.8149,-1.8328,-2.0506,-2.0721,-1.1178,-1.6811,-1.9174,-2.5109,-1.5209,-0.3319,-1.9483,-0.9527,-1.4361,-1.979,-1.7191,-0.9216,0.0165
-1.4585,-1.7581,-1.4063,-1.5345,-2.3494,-1.5728,-2.45,-1.4461,-1.4461,-2.4332,-1.915,-1.3167,-2.7034,-2.7036,-1.7281,-1.9099,-1.934,-1.0207,-1.5291,-1.7418,-2.3828,-1.349,-0.214,-1.7959,-0.7824,-1.285,-1.8474,-1.6156,-1.0058,0.1327
-1.4894,-1.6998,-1.4508,-1.5164,-2.4197,-1.6817,-2.5355,-1.5861,-1.4756,-2.4231,-1.854,-1.2218,-2.5749,-2.6117,-1.6343,-1.8017,-1.8286,-0.9631,-1.447,-1.615,-2.2933,-1.2628,-0.1912,-1.6411,-0.6155,-1.1181,-1.6873,-1.4769,-1.1007,0.2321
-1.5297,-1.6615,-1.5113,-1.5215,-2.4839,-1.8127,-2.5821,-1.7079,-1.4779,-2.3871,-1.7558,-1.092,-2.4343,-2.5322,-1.5485,-1.7258,-1.7518,-0.9375,-1.4263,-1.5414,-2.2382,-1.2494,-0.2505,-1.4864,-0.4661,-0.9526,-1.5111,-1.3175,-1.193,0.3112
-1.567,-1.6375,-1.5786,-1.5399,-2.5258,-1.9513,-2.5798,-1.8047,-1.4575,-2.3314,-1.6368,-0.942,-2.2834,-2.4553,-1.4696,-1.6781,-1.6989,-0.9347,-1.4521,-1.5155,-2.2072,-1.2864,-0.3702,-1.3345,-0.346,-0.8045,-1.3331,-1.1537,-1.2709,0.3662
-1.5923,-1.6228,-1.6429,-1.5617,-2.5323,-2.0816,-2.525,-1.8719,-1.4204,-2.2618,-1.5123,-0.7878,-2.127,-2.3712,-1.399,-1.6516,-1.6661,-0.947,-1.5065,-1.5254,-2.1867,-1.3468,-0.5238,-1.1878,-0.2631,-0.6861,-1.1666,-1.0005,-1.3251,0.3929
-1.6013,-1.6141,-1.6952,-1.5789,-2.496,-2.1877,-2.4198,-1.9064,-1.372,-2.1816,-1.3934,-0.6436,-1.9718,-2.2725,-1.3398,-1.6385,-1.6508,-0.9692,-1.5726,-1.556,-2.1634,-1.4049,-0.6852,-1.0484,-0.2191,-0.6025,-1.0204,-0.868,-1.3501,0.3876
-1.5935,-1.6098,-1.728,-1.5858,-2.4159,-2.2561,-2.2706,-1.9065,-1.3155,-2.0905,-1.2841,-0.5183,-1.8251,-2.1559,-1.2966,-1.6325,-1.6514,-0.9992,-1.6371,-1.5938,-2.1274,-1.4403,-0.8321,-0.9164,-0.2098,-0.5507,-0.8963,-0.7589,-1.3446,0.3482
-1.5723,-1.6096,-1.7364,-1.5802,-2.2978,-2.2766,-2.0869,-1.8717,-1.2509,-1.9844,-1.1818,-0.4146,-1.692,-2.0229,-1.2734,-1.6299,-1.6668,-1.037,-1.6922,-1.6303,-2.0745,-1.4421,-0.9498,-0.791,-0.2248,-0.5203,-0.7882,-0.6688,-1.3109,0.2757
-1.5436,-1.6154,-1.7196,-1.5631,-2.1527,-2.2446,-1.88,-1.8024,-1.1758,-1.8582,-1.079,-0.3293,-1.5749,-1.8802,-1.2732,-1.6312,-1.6966,-1.0842,-1.7367,-1.664,-2.0072,-1.4097,-1.0323,-0.6704,-0.2509,-0.4958,-0.6851,-0.5873,-1.2546,0.1747
-1.5155,-1.6309,-1.6806,-1.5404,-1.9959,-2.1621,-1.6629,-1.7009,-1.0878,-1.7095,-0.9681,-0.2565,-1.4744,-1.7393,-1.2987,-1.6422,-1.7413,-1.1428,-1.7756,-1.7021,-1.9358,-1.3534,-1.0825,-0.5549,-0.2746,-0.4617,-0.5748,-0.5024,-1.1834,0.0534
-1.4976,-1.6632,-1.6266,-1.5221,-1.8453,-2.0389,-1.4512,-1.572,-0.9872,-1.5424,-0.8467,-0.1913,-1.3916,-1.6169,-1.3519,-1.6739,-1.8036,-1.2147,-1.8193,-1.7587,-1.8775,-1.2919,-1.111,-0.4492,-0.2862,-0.4068,-0.4507,-0.4058,-1.1063,-0.077
-1.5003,-1.7214,-1.5675,-1.5218,-1.7206,-1.8913,-1.2628,-1.4239,-0.8798,-1.3705,-0.7214,-0.1338,-1.3307,-1.5332,-1.4351,-1.7416,-1.8883,-1.3009,-1.8814,-1.853,-1.8544,-1.2496,-1.1323,-0.364,-0.2827,-0.3293,-0.3161,-0.297,-1.0325,-0.2038
-1.533,-1.8153,-1.5136,-1.5539,-1.6402,-1.7403,-1.1172,-1.2679,-0.7766,-1.2165,-0.609,-0.0914,-1.3,-1.509,-1.5495,-1.8611,-2.001,-1.4008,-1.975,-2.004,-1.889,-1.2511,-1.1612,-0.3156,-0.2688,-0.2378,-0.1865,-0.1865,-0.9704,-0.314
-1.6023,-1.952,-1.4729,-1.6296,-1.6184,-1.6078,-1.034,-1.1179,-0.693,-1.1086,-0.5334,-0.0775,-1.311,-1.5615,-1.6939,-2.044,-2.1454,-1.511,-2.1089,-2.2242,-1.9989,-1.3152,-1.2084,-0.3228,-0.2552,-0.1507,-0.0875,-0.0946,-0.9263,-0.3961
-1.7091,-2.1321,-1.449,-1.7531,-1.6614,-1.5116,-1.0284,-0.9877,-0.6445,-1.074,-0.5196,-0.1082,-1.3744,-1.6986,-1.8624,-2.292,-2.32,-1.6248,-2.283,-2.5137,-2.1903,-1.4492,-1.277,-0.4011,-0.2556,-0.0914,-0.0488,-0.0469,-0.9034,-0.4413
-1.8476,-2.3477,-1.4406,-1.9184,-1.7643,-1.4617,-1.1083,-0.8892,-0.643,-1.1318,-0.5861,-0.1971,-1.4949,-1.9139,-2.0433,-2.5935,-2.5159,-1.7316,-2.4866,-2.8568,-2.4535,-1.6457,-1.3612,-0.5572,-0.2815,-0.082,-0.096,-0.0679,-0.9019,-0.4446
-2.0047,-2.5822,-1.4422,-2.1098,-1.9107,-1.4582,-1.2702,-0.8303,-0.6933,-1.287,-0.7384,-0.3498,-1.6677,-2.1858,-2.2199,-2.9236,-2.7164,-1.819,-2.699,-3.2223,-2.7623,-1.8817,-1.4469,-0.7842,-0.3386,-0.1373,-0.2419,-0.1729,-0.9189,-0.4055
-2.1631,-2.8136,-1.4466,-2.3044,-2.0742,-1.4913,-1.4981,-0.8125,-0.7912,-1.5276,-0.9659,-0.5603,-1.8764,-2.479,-2.3732,-3.2479,-2.8998,-1.8749,-2.893,-3.5697,-3.0775,-2.1236,-1.5159,-1.0603,-0.424,-0.2594,-0.4814,-0.363,-0.9494,-0.3286
-2.3039,-3.0191,-1.4475,-2.4778,-2.2243,-1.5447,-1.7644,-0.8313,-0.9237,-1.8254,-1.2418,-0.8101,-2.0948,-2.7517,-2.4858,-3.5301,-3.0444,-1.89,-3.0417,-3.8577,-3.3555,-2.3333,-1.5499,-1.3522,-0.5267,-0.4366,-0.7898,-0.622,-0.9877,-0.2234
-2.4112,-3.1802,-1.4412,-2.6098,-2.3326,-1.5998,-2.0342,-0.876,-1.0713,-2.1396,-1.5277,-1.07,-2.292,-2.9637,-2.5456,-3.7399,-3.1329,-1.8612,-3.124,-4.0548,-3.558,-2.4775,-1.5359,-1.6207,-0.6295,-0.6446,-1.1269,-0.9183,-1.0275,-0.1027
-2.4748,-3.2863,-1.4284,-2.6893,-2.3796,-1.6403,-2.2704,-0.9318,-1.2105,-2.4242,-1.7803,-1.3053,-2.4387,-3.0856,-2.5483,-3.86,-3.1571,-1.7921,-3.1306,-4.1458,-3.6607,-2.5348,-1.4698,-1.8286,-0.7133,-0.8511,-1.4435,-1.2105,-1.0634,0.0185
-2.4924,-3.3364,-1.4137,-2.7165,-2.3593,-1.6566,-2.4411,-0.9833,-1.3186,-2.6355,-1.9593,-1.4813,-2.5138,-3.1052,-2.4984,-3.8884,-3.1193,-1.6934,-3.0651,-4.1353,-3.6595,-2.5001,-1.3577,-1.9488,-0.7616,-1.0228,-1.6916,-1.4547,-1.0908,0.126
-2.469,-3.3383,-1.4049,-2.7026,-2.2806,-1.6476,-2.5262,-1.018,-1.378,-2.7409,-2.0355,-1.5711,-2.5099,-3.0309,-2.4077,-3.8382,-3.0318,-1.5805,-2.9441,-4.0453,-3.571,-2.3864,-1.2152,-1.9699,-0.7648,-1.1321,-1.8344,-1.6141,-1.1074,0.208
-2.4155,-3.3054,-1.4111,-2.6666,-2.1658,-1.6214,-2.5224,-1.0298,-1.3796,-2.7255,-1.9968,-1.5607,-2.436,-2.8906,-2.2927,-3.7332,-2.914,-1.4707,-2.7931,-3.9094,-3.429,-2.222,-1.0651,-1.8991,-0.7225,-1.1632,-1.8539,-1.6661,-1.1133,0.2574
-2.346,-3.2535,-1.44,-2.631,-2.046,-1.5927,-2.4446,-1.0204,-1.3257,-2.5954,-1.8507,-1.4524,-2.3163,-2.726,-2.1717,-3.6019,-2.7885,-1.3802,-2.6422,-3.7649,-3.2766,-2.0451,-0.9331,-1.7607,-0.644,-1.1152,-1.7546,-1.6075,-1.111,0.2717
-2.2753,-3.198,-1.4966,-2.6164,-1.9539,-1.5796,-2.3232,-0.9991,-1.2289,-2.3767,-1.6225,-1.2647,-2.1847,-2.5841,-2.0612,-3.4719,-2.6768,-1.3217,-2.5202,-3.6454,-3.1575,-1.8961,-0.8434,-1.5908,-0.5457,-1.0018,-1.5618,-1.454,-1.1056,0.2533
-2.2163,-3.1507,-1.581,-2.6379,-1.9179,-1.5991,-2.1974,-0.9795,-1.1095,-2.1096,-1.3498,-1.0279,-2.077,-2.5069,-1.9748,-3.3652,-2.597,-1.303,-2.4504,-3.5749,-3.107,-1.8098,-0.814,-1.4282,-0.4467,-0.8471,-1.3147,-1.236,-1.1035,0.2078
-2.1786,-3.1197,-1.6886,-2.7018,-1.9553,-1.6632,-2.1059,-0.9758,-0.9905,-1.8399,-1.0737,-0.7771,-2.0215,-2.5223,-1.9211,-3.2965,-2.5613,-1.3269,-2.4471,-3.5659,-3.1455,-1.8082,-0.8532,-1.3055,-0.3642,-0.6795,-1.0566,-0.991,-1.1109,0.1424
-2.1672,-3.1086,-1.8104,-2.8055,-2.0694,-1.7756,-2.0782,-0.998,-0.8917,-1.6094,-0.8307,-0.5451,-2.0323,-2.637,-1.9049,-3.2726,-2.5764,-1.3923,-2.5147,-3.6196,-3.2753,-1.8966,-0.9578,-1.2413,-0.3085,-0.5243,-0.8247,-0.755,-1.1323,0.0646
-2.1831,-3.1178,-1.9351,-2.9389,-2.2488,-1.9308,-2.1269,-1.0487,-0.8255,-1.448,-0.6455,-0.3557,-2.1048,-2.8354,-1.9267,-3.2945,-2.6435,-1.495,-2.6478,-3.7288,-3.4816,-2.0632,-1.1141,-1.2364,-0.2821,-0.3988,-0.6428,-0.5558,-1.1695,-0.0196
-2.2237,-3.1455,-2.0519,-3.0868,-2.4703,-2.1147,-2.2459,-1.1217,-0.794,-1.3688,-0.5281,-0.2206,-2.2179,-3.0827,-1.9843,-3.3593,-2.7591,-1.6294,-2.8337,-3.8813,-3.7364,-2.2823,-1.3011,-1.2749,-0.2795,-0.3099,-0.518,-0.4086,-1.2217,-0.1059
-2.2841,-3.1889,-2.1526,-3.2331,-2.7034,-2.3072,-2.4116,-1.2029,-0.7901,-1.3671,-0.474,-0.1391,-2.3389,-3.3326,-2.0726,-3.462,-2.9162,-1.7884,-3.0548,-4.0633,-4.0046,-2.5206,-1.4948,-1.3296,-0.2906,-0.2552,-0.4429,-0.3159,-1.2858,-0.1918
-2.3585,-3.2445,-2.2335,-3.3632,-2.9164,-2.4862,-2.5898,-1.2738,-0.7998,-1.4239,-0.4678,-0.1012,-2.4323,-3.5375,-2.1843,-3.5956,-3.104,-1.9642,-3.2909,-4.2608,-4.2511,-2.7438,-1.6733,-1.3704,-0.3045,-0.2266,-0.4009,-0.27,-1.3583,-0.2761
-2.4411,-3.3086,-2.2962,-3.4663,-3.082,-2.6312,-2.7434,-1.3154,-0.807,-1.5113,-0.4889,-0.0921,-2.4686,-3.6588,-2.3094,-3.7509,-3.3087,-2.1477,-3.5221,-4.4597,-4.446,-2.9235,-1.8205,-1.3728,-0.3135,-0.2143,-0.3734,-0.2575,-1.4358,-0.3584
-2.5262,-3.3772,-2.3462,-3.5365,-3.1812,-2.7273,-2.8415,-1.3129,-0.7974,-1.5992,-0.5172,-0.097,-2.4312,-3.6742,-2.4363,-3.9157,-3.5138,-2.329,-3.7299,-4.6451,-4.5686,-3.0419,-1.9281,-1.3248,-0.3153,-0.211,-0.3463,-0.264,-1.5162,-0.4383
-2.6087,-3.4448,-2.3907,-3.5717,-3.2051,-2.7664,-2.8646,-1.2585,-0.7622,-1.6614,-0.5369,-0.1045,-2.3194,-3.5811,-2.5521,-4.0742,-3.7015,-2.4969,-3.8989,-4.8009,-4.6086,-3.093,-1.9964,-1.2294,-0.3134,-0.2145,-0.3144,-0.2785,-1.5978,-0.5149
-2.6828,-3.5048,-2.435,-3.5722,-3.1539,-2.7479,-2.8079,-1.1525,-0.699,-1.6794,-0.5388,-0.1084,-2.1475,-3.3947,-2.644,-4.2082,-3.8541,-2.6397,-4.0167,-4.9099,-4.5651,-3.0821,-2.0314,-1.1038,-0.316,-0.2275,-0.2818,-0.2949,-1.6785,-0.5862
-2.7416,-3.5487,-2.4797,-3.539,-3.0344,-2.6762,-2.6796,-1.0027,-0.6119,-1.6444,-0.5208,-0.1078,-1.9399,-3.1427,-2.7006,-4.2988,-3.9555,-2.7455,-4.0744,-4.9552,-4.4444,-3.0218,-2.0427,-0.9738,-0.333,-0.2565,-0.2598,-0.3134,-1.7533,-0.6489
-2.7765,-3.5673,-2.5186,-3.4727,-2.8566,-2.559,-2.4977,-0.822,-0.509,-1.5572,-0.486,-0.1056,-1.7253,-2.8582,-2.7134,-4.3296,-3.9938,-2.8039,-4.0667,-4.9232,-4.257,-2.9279,-2.0394,-0.8665,-0.3734,-0.3089,-0.2629,-0.3384,-1.8142,-0.6982
-2.7787,-3.5518,-2.5404,-3.3737,-2.6323,-2.4047,-2.2854,-0.626,-0.4009,-1.4274,-0.4416,-0.1071,-1.5302,-2.5727,-2.6786,-4.2904,-3.9632,-2.808,-3.9932,-4.8072,-4.0169,-2.8153,-2.0288,-0.8038,-0.4417,-0.3901,-0.3038,-0.3767,-1.8501,-0.7293
-2.7403,-3.4968,-2.531,-3.2433,-2.3742,-2.2217,-2.0663,-0.4302,-0.2979,-1.2714,-0.3961,-0.1174,-1.375,-2.3118,-2.5982,-4.1802,-3.8658,-2.7561,-3.859,-4.6108,-3.7404,-2.6953,-2.0144,-0.7967,-0.5368,-0.5012,-0.389,-0.4339,-1.849,-0.7386
-2.6572,-3.4023,-2.4789,-3.0857,-2.0968,-2.019,-1.8616,-0.249,-0.2083,-1.1103,-0.3578,-0.1403,-1.2708,-2.0926,-2.48,-4.0093,-3.7119,-2.6537,-3.6756,-4.35,-3.4464,-2.5752,-1.9966,-0.8431,-0.6512,-0.6366,-0.5162,-0.5128,-1.8011,-0.7252
-2.5308,-3.2745,-2.3789,-2.9097,-1.8176,-1.807,-1.6892,-0.0944,-0.138,-0.9664,-0.3334,-0.1769,-1.2199,-1.9238,-2.3375,-3.7974,-3.5191,-2.5126,-3.4602,-4.0513,-3.1558,-2.4581,-1.9737,-0.9291,-0.7719,-0.784,-0.6733,-0.6103,-1.7015,-0.6925
-2.3689,-3.126,-2.2356,-2.7285,-1.5572,-1.599,-1.5625,0.0241,-0.0902,-0.8605,-0.3267,-0.2252,-1.2163,-1.8073,-2.1868,-3.5706,-3.309,-2.3506,-3.2334,-3.748,-2.89,-2.3443,-1.9425,-1.0323,-0.882,-0.9257,-0.8404,-0.718,-1.5529,-0.6476
-2.1853,-2.9734,-2.0633,-2.5591,-1.3378,-1.4114,-1.4914,0.0989,-0.0666,-0.8084,-0.3393,-0.2804,-1.2487,-1.7397,-2.0449,-3.3559,-3.1042,-2.1878,-3.0166,-3.4741,-2.6686,-2.2328,-1.9003,-1.1267,-0.9642,-1.0411,-0.993,-0.8225,-1.3657,-0.6004
-1.998,-2.8352,-1.885,-2.42,-1.18,-1.2629,-1.4815,0.125,-0.0674,-0.8181,-0.3695,-0.3357,-1.3024,-1.7146,-1.9266,-3.1759,-2.9247,-2.0449,-2.8287,-3.257,-2.5062,-2.123,-1.8457,-1.1885,-1.0031,-1.1106,-1.1061,-0.908,-1.1581,-0.5621
-1.8267,-2.7279,-1.7278,-2.3277,-1.099,-1.1713,-1.5326,0.1002,-0.0922,-0.8878,-0.4132,-0.3828,-1.3623,-1.7233,-1.8428,-3.0452,-2.7852,-1.9388,-2.683,-3.1132,-2.4098,-2.015,-1.7789,-1.2002,-0.988,-1.1188,-1.1588,-0.9589,-0.9529,-0.5423
-1.6895,-2.6638,-1.6179,-2.2935,-1.1008,-1.1497,-1.6378,0.0268,-0.1388,-1.0054,-0.4638,-0.4126,-1.4143,-1.7561,-1.7987,-2.9687,-2.6931,-1.8801,-2.5858,-3.045,-2.3774,-1.9102,-1.7023,-1.153,-0.9155,-1.058,-1.138,-0.9629,-0.7747,-0.5474
-1.5994,-2.6489,-1.575,-2.3208,-1.1795,-1.2028,-1.7826,-0.0877,-0.203,-1.1509,-0.5127,-0.4166,-1.4473,-1.8029,-1.7933,-2.9419,-2.648,-1.8705,-2.5352,-3.0417,-2.3984,-1.8109,-1.619,-1.0476,-0.7893,-0.9299,-1.0405,-0.9133,-0.6458,-0.5781
-1.5623,-2.6812,-1.6075,-2.4037,-1.318,-1.3239,-1.9462,-0.2306,-0.2789,-1.2999,-0.5511,-0.3882,-1.454,-1.8537,-1.8187,-2.9525,-2.6409,-1.9012,-2.5213,-3.0823,-2.4555,-1.7186,-1.5322,-0.8934,-0.6208,-0.7457,-0.8738,-0.811,-0.5817,-0.6289
-1.5754,-2.7511,-1.7101,-2.527,-1.4902,-1.4944,-2.1048,-0.3851,-0.3586,-1.4294,-0.5713,-0.3247,-1.4317,-1.8999,-1.8611,-2.9836,-2.6561,-1.9538,-2.5278,-3.1411,-2.5286,-1.6334,-1.444,-0.706,-0.4266,-0.5252,-0.6544,-0.665,-0.5882,-0.6882
-1.6276,-2.8419,-1.8638,-2.6687,-1.6663,-1.6866,-2.2355,-0.533,-0.4339,-1.5224,-0.5687,-0.2287,-1.3819,-1.9348,-1.9019,-3.0161,-2.6728,-2.003,-2.5345,-3.1927,-2.598,-1.5527,-1.3542,-0.5046,-0.2266,-0.2932,-0.4052,-0.4915,-0.66,-0.741
-1.7009,-2.9323,-2.0396,-2.8033,-1.8176,-1.8679,-2.3209,-0.6574,-0.4967,-1.5707,-0.5429,-0.1083,-1.3096,-1.9535,-1.9211,-3.0312,-2.6687,-2.022,-2.5204,-3.2164,-2.6477,-1.471,-1.2608,-0.3077,-0.0397,-0.0756,-0.151,-0.3106,-0.7814,-0.7712
-1.7737,-2.9995,-2.2038,-2.9053,-1.9213,-2.007,-2.351,-0.7454,-0.5403,-1.5758,-0.4971,0.0238,-1.221,-1.9527,-1.9003,-3.0126,-2.6236,-1.9872,-2.4674,-3.1983,-2.6663,-1.3802,-1.16,-0.1307,0.1193,0.1058,0.0861,-0.1423,-0.9289,-0.7659
-1.8239,-3.0225,-2.3243,-2.9536,-1.9634,-2.0796,-2.3243,-0.7897,-0.5596,-1.5461,-0.4372,0.153,-1.1217,-1.9292,-1.8273,-2.948,-2.523,-1.8845,-2.3626,-3.1314,-2.6471,-1.2706,-1.047,0.0175,0.2423,0.2371,0.2904,-0.0027,-1.0754,-0.718
-1.8329,-2.9855,-2.3765,-2.934,-1.9388,-2.072,-2.2462,-0.7888,-0.5516,-1.4939,-0.3695,0.2659,-1.0146,-1.8793,-1.698,-2.83,-2.3604,-1.7114,-2.2007,-3.0149,-2.5866,-1.1332,-0.9182,0.1347,0.3295,0.3145,0.4548,0.1,-1.1952,-0.6279
-1.7883,-2.8796,-2.3469,-2.8408,-1.8511,-1.983,-2.1266,-0.7458,-0.5151,-1.4308,-0.2997,0.3528,-0.8998,-1.7986,-1.5185,-2.6572,-2.1394,-1.4788,-1.9849,-2.8516,-2.4835,-0.9626,-0.7726,0.2246,0.3872,0.3441,0.58,0.1658,-1.2683,-0.5036
-1.6861,-2.7049,-2.2345,-2.6769,-1.7103,-1.8232,-1.9777,-0.6672,-0.4511,-1.3651,-0.2314,0.4095,-0.7752,-1.6829,-1.3034,-2.4338,-1.8726,-1.2087,-1.7272,-2.6465,-2.3378,-0.7603,-0.6141,0.2941,0.4254,0.3384,0.6719,0.2015,-1.2832,-0.3595
-1.531,-2.4698,-2.0501,-2.4536,-1.5307,-1.6122,-1.8118,-0.561,-0.3633,-1.3012,-0.1669,0.4373,-0.6383,-1.5301,-1.0738,-2.1701,-1.5809,-0.9301,-1.447,-2.4062,-2.151,-0.5362,-0.4523,0.3496,0.4537,0.3129,0.738,0.2175,-1.2387,-0.2138
-1.3361,-2.1907,-1.8136,-2.1885,-1.3291,-1.3745,-1.6406,-0.4358,-0.2577,-1.2396,-0.1079,0.442,-0.4879,-1.342,-0.8529,-1.8815,-1.2894,-0.6738,-1.1684,-2.139,-1.9274,-0.3093,-0.3023,0.394,0.4776,0.2807,0.784,0.2244,-1.1431,-0.0855
-1.1212,-1.8902,-1.5508,-1.9034,-1.122,-1.1353,-1.4742,-0.3001,-0.1427,-1.1791,-0.0561,0.4315,-0.3265,-1.1257,-0.6625,-1.5879,-1.0246,-0.467,-0.9179,-1.8566,-1.6754,-0.1055,-0.1821,0.4259,0.4973,0.2502,0.8117,0.2291,-1.0119,0.0089
-0.9105,-1.5958,-1.2894,-1.6227,-0.9254,-0.9167,-1.3211,-0.1626,-0.0281,-1.1183,-0.0135,0.4134,-0.1609,-0.8946,-0.519,-1.3132,-0.8108,-0.3288,-0.7205,-1.576,-1.4097,0.047,-0.1098,0.4389,0.5079,0.2236,0.8188,0.2339,-0.8652,0.0585
-0.7292,-1.337,-1.0554,-1.3712,-0.7531,-0.7355,-1.1877,-0.032,0.0758,-1.058,0.0174,0.3933,-0.0027,-0.6679,-0.4326,-1.0831,-0.6668,-0.2675,-0.5967,-1.3199,-1.1516,0.1223,-0.0993,0.4239,0.5014,0.1977,0.8005,0.236,-0.7237,0.0597
-0.6003,-1.1424,-0.8704,-1.172,-0.6171,-0.6015,-1.0796,0.0827,0.1599,-1.0016,0.034,0.3728,0.1326,-0.4692,-0.4061,-0.9229,-0.6045,-0.2813,-0.5599,-1.1158,-0.9281,0.1022,-0.1575,0.3716,0.4696,0.1661,0.7512,0.2286,-0.605,0.0162
-0.54,-1.0355,-0.7486,-1.0442,-0.5265,-0.5183,-1.0006,0.1729,0.2168,-0.9549,0.0339,0.3497,0.2275,-0.3237,-0.4368,-0.8537,-0.6277,-0.3595,-0.6148,-0.9922,-0.7686,-0.0202,-0.2826,0.2751,0.4068,0.1215,0.6669,0.2039,-0.5203,-0.0622
-0.555,-1.0308,-0.6953,-0.9998,-0.4866,-0.483,-0.9529,0.2316,0.2422,-0.9257,0.015,0.3191,0.2656,-0.2536,-0.5171,-0.8882,-0.7322,-0.4865,-0.7566,-0.9722,-0.6994,-0.2379,-0.4637,0.1322,0.3113,0.0583,0.547,0.1543,-0.4728,-0.1618
-0.6399,-1.1294,-0.7063,-1.0408,-0.497,-0.488,-0.9361,0.2537,0.235,-0.9211,-0.0238,0.2753,0.2351,-0.2737,-0.6363,-1.0264,-0.9054,-0.6442,-0.9704,-1.0665,-0.7368,-0.5305,-0.6819,-0.0524,0.186,-0.0263,0.3944,0.0754,-0.4572,-0.2681
-0.7774,-1.3178,-0.7684,-1.1577,-0.5509,-0.522,-0.9471,0.2372,0.1966,-0.9461,-0.083,0.2134,0.1328,-0.387,-0.7812,-1.2531,-1.1278,-0.814,-1.2328,-1.2683,-0.882,-0.8658,-0.9131,-0.268,0.0382,-0.1321,0.216,-0.0336,-0.4613,-0.3674
-0.9407,-1.5681,-0.8617,-1.3292,-0.6347,-0.5715,-0.9803,0.183,0.1307,-1.002,-0.1615,0.1318,-0.0344,-0.5834,-0.9365,-1.5384,-1.3737,-0.9782,-1.5141,-1.5522,-1.1188,-1.2046,-1.1311,-0.4983,-0.1222,-0.2562,0.0212,-0.169,-0.469,-0.4485
-1.099,-1.8423,-0.9632,-1.5255,-0.7307,-0.6235,-1.0291,0.0946,0.0427,-1.0865,-0.2567,0.0327,-0.2501,-0.8401,-1.0855,-1.8418,-1.6141,-1.12,-1.7816,-1.8769,-1.4151,-1.5065,-1.3107,-0.7242,-0.2842,-0.3938,-0.1791,-0.3234,-0.4649,-0.5032
-1.2223,-2.0987,-1.051,-1.7132,-0.8204,-0.6673,-1.0876,-0.0226,-0.0614,-1.1946,-0.3644,-0.078,-0.4907,-1.1258,-1.2114,-2.1187,-1.8198,-1.2245,-2.0053,-2.194,-1.7296,-1.7367,-1.4317,-0.9269,-0.4372,-0.5389,-0.3736,-0.4866,-0.4374,-0.5263
-1.2879,-2.299,-1.1077,-1.8613,-0.8885,-0.6957,-1.1518,-0.1613,-0.1744,-1.3192,-0.4782,-0.1916,-0.7298,-1.4064,-1.2986,-2.3291,-1.966,-1.2798,-2.1615,-2.4571,-2.0196,-1.8722,-1.4819,-1.0906,-0.572,-0.6847,-0.552,-0.647,-0.3822,-0.5161
-1.284,-2.4151,-1.1235,-1.9472,-0.9261,-0.7061,-1.2201,-0.3128,-0.2884,-1.4528,-0.5897,-0.2977,-0.9424,-1.6506,-1.3351,-2.4447,-2.0359,-1.2788,-2.237,-2.6324,-2.2494,-1.9055,-1.4588,-1.2048,-0.6819,-0.8242,-0.705,-0.7933,-0.3021,-0.4739
-1.2108,-2.4338,-1.0964,-1.9597,-0.932,-0.6992,-1.2924,-0.4673,-0.3945,-1.5879,-0.6888,-0.3862,-1.1085,-1.8345,-1.3143,-2.4542,-2.0233,-1.2207,-2.2309,-2.704,-2.3967,-1.845,-1.3702,-1.2649,-0.7629,-0.9501,-0.8252,-0.9153,-0.2063,-0.4041
-1.0794,-2.3577,-1.0317,-1.901,-0.9115,-0.6782,-1.3689,-0.6145,-0.4842,-1.7171,-0.7657,-0.4484,-1.2152,-1.9443,-1.2358,-2.3636,-1.9335,-1.1119,-2.1531,-2.6753,-2.4541,-1.7124,-1.2321,-1.2722,-0.8137,-1.0557,-0.9073,-1.0052,-0.1075,-0.314
-0.9088,-2.2035,-0.9393,-1.7837,-0.8734,-0.6467,-1.4483,-0.7442,-0.5505,-1.8333,-0.8127,-0.4794,-1.2572,-1.9761,-1.1062,-2.1931,-1.7809,-0.9652,-2.0215,-2.5649,-2.4277,-1.5365,-1.066,-1.2323,-0.8351,-1.1349,-0.9485,-1.0584,-0.0188,-0.2128
-0.7206,-1.9967,-0.8308,-1.6271,-0.8263,-0.6068,-1.5263,-0.8479,-0.5898,-1.93,-0.8263,-0.4781,-1.2361,-1.9341,-0.9375,-1.9703,-1.5861,-0.7983,-1.8569,-2.3987,-2.3314,-1.3458,-0.8939,-1.1535,-0.8295,-1.1836,-0.9487,-1.0741,0.0498,-0.1108
-0.5343,-1.7657,-0.7165,-1.4517,-0.775,-0.5584,-1.5958,-0.9191,-0.6019,-2.0005,-0.8081,-0.4476,-1.1587,-1.8279,-0.7458,-1.7228,-1.3712,-0.6304,-1.6782,-2.2008,-2.1814,-1.1621,-0.7344,-1.0446,-0.8004,-1.1996,-0.9105,-1.0547,0.093,-0.0188
-0.3641,-1.5356,-0.6038,-1.2747,-0.7192,-0.4989,-1.6468,-0.9539,-0.5895,-2.0391,-0.7636,-0.3941,-1.035,-1.6695,-0.5486,-1.4722,-1.1561,-0.4794,-1.4988,-1.9876,-1.9907,-0.9965,-0.5997,-0.9142,-0.7518,-1.1836,-0.8387,-1.0055,0.1111,0.0531
-0.2171,-1.3248,-0.4963,-1.1077,-0.6538,-0.4242,-1.6683,-0.9514,-0.5564,-2.0407,-0.7003,-0.3254,-0.8774,-1.4723,-0.363,-1.2323,-0.956,-0.3592,-1.3264,-1.766,-1.7686,-0.8498,-0.4942,-0.7694,-0.688,-1.1384,-0.7396,-0.9329,0.1097,0.0964
-0.0945,-1.1441,-0.395,-0.9564,-0.5724,-0.3309,-1.6513,-0.9128,-0.5055,-2.0023,-0.6251,-0.2487,-0.7,-1.2511,-0.2044,-1.01,-0.7821,-0.2785,-1.1646,-1.5363,-1.5224,-0.7157,-0.4165,-0.6172,-0.6135,-1.0689,-0.6204,-0.8435,0.0977,0.105
0.0053,-0.9985,-0.2999,-0.8233,-0.4714,-0.2191,-1.5911,-0.8418,-0.4383,-1.9244,-0.5427,-0.1697,-0.519,-1.0234,-0.0857,-0.8105,-0.643,-0.2414,-1.0166,-1.2993,-1.2619,-0.5871,-0.3619,-0.4652,-0.5331,-0.9804,-0.4885,-0.7428,0.085,0.0759
0.0835,-0.891,-0.2115,-0.7109,-0.3543,-0.0942,-1.491,-0.7441,-0.3548,-1.8123,-0.4549,-0.092,-0.3532,-0.8107,-0.0172,-0.6419,-0.5467,-0.248,-0.8895,-1.0636,-1.0044,-0.4623,-0.3268,-0.3227,-0.4521,-0.8788,-0.3516,-0.6351,0.0809,0.0103
0.1387,-0.8246,-0.1324,-0.6238,-0.2333,0.032,-1.3627,-0.6276,-0.255,-1.6766,-0.362,-0.017,-0.2236,-0.6378,-0.0054,-0.5179,-0.5019,-0.296,-0.7949,-0.8491,-0.7762,-0.3487,-0.3116,-0.2018,-0.3766,-0.7693,-0.218,-0.5241,0.0918,-0.0866
0.1665,-0.8035,-0.0669,-0.5691,-0.1281,0.143,-1.2259,-0.5021,-0.1412,-1.5327,-0.2646,0.0545,-0.1517,-0.5307,-0.0522,-0.4565,-0.5163,-0.3812,-0.748,-0.6857,-0.6096,-0.2626,-0.3212,-0.1166,-0.313,-0.6575,-0.0969,-0.4141,0.1207,-0.2053
0.1622,-0.831,-0.0202,-0.5546,-0.0609,0.2207,-1.1047,-0.3791,-0.0192,-1.3986,-0.1654,0.1216,-0.1566,-0.5111,-0.1528,-0.4745,-0.5931,-0.4966,-0.7619,-0.6052,-0.5361,-0.2243,-0.3634,-0.0814,-0.2674,-0.5493,0.0014,-0.3107,0.167,-0.3329
0.1238,-0.906,0.0042,-0.5847,-0.0504,0.2504,-1.0222,-0.2706,0.1008,-1.2921,-0.0707,0.182,-0.2503,-0.5913,-0.2945,-0.5802,-0.7273,-0.6311,-0.8417,-0.6313,-0.5769,-0.2515,-0.4444,-0.1077,-0.2448,-0.4516,0.0669,-0.2218,0.2273,-0.4533
0.0556,-1.0202,0.0054,-0.6565,-0.1045,0.2247,-0.995,-0.1882,0.2049,-1.2278,0.0103,0.2322,-0.4344,-0.769,-0.4568,-0.7663,-0.9023,-0.7689,-0.9793,-0.7691,-0.7346,-0.3516,-0.5648,-0.2006,-0.248,-0.3721,0.0912,-0.1565,0.2963,-0.5501
-0.031,-1.156,-0.0127,-0.7571,-0.2161,0.1469,-1.0294,-0.1414,0.278,-1.215,0.0668,0.2682,-0.6971,-1.025,-0.6128,-1.0074,-1.0902,-0.8891,-1.1514,-0.9994,-0.9884,-0.5165,-0.7154,-0.3561,-0.2759,-0.3182,0.07,-0.1236,0.3677,-0.6077
-0.1179,-1.2882,-0.0424,-0.8639,-0.3623,0.0306,-1.119,-0.136,0.3069,-1.2555,0.0887,0.286,-1.0133,-1.3244,-0.7333,-1.2621,-1.2552,-0.9683,-1.3226,-1.2796,-1.2953,-0.7216,-0.8767,-0.5593,-0.3235,-0.2953,0.005,-0.1292,0.4357,-0.6145
-0.1838,-1.3877,-0.0728,-0.9476,-0.5079,-0.1022,-1.2459,-0.173,0.2836,-1.3438,0.0697,0.2835,-1.3471,-1.621,-0.7924,-1.4804,-1.3602,-0.9848,-1.4517,-1.5512,-1.5965,-0.9294,-1.0212,-0.7851,-0.3824,-0.3055,-0.0955,-0.1746,0.4953,-0.5653
-0.2086,-1.4275,-0.0922,-0.9783,-0.6115,-0.2252,-1.3839,-0.2477,0.2077,-1.4668,0.0093,0.2606,-1.6562,-1.8649,-0.7723,-1.6145,-1.3749,-0.9228,-1.5006,-1.7515,-1.8286,-1.0961,-1.1182,-1.0015,-0.4412,-0.3461,-0.2174,-0.2552,0.5434,-0.4622
-0.1789,-1.3895,-0.0906,-0.9326,-0.6353,-0.313,-1.5037,-0.3497,0.0873,-1.6064,-0.0873,0.2198,-1.8989,-2.0108,-0.6686,-1.6301,-1.2829,-0.7774,-1.4433,-1.8285,-1.9362,-1.1812,-1.1408,-1.174,-0.4887,-0.41,-0.343,-0.3606,0.5781,-0.3154
-0.0915,-1.2694,-0.0625,-0.8001,-0.5533,-0.3465,-1.5773,-0.464,-0.0623,-1.741,-0.209,0.1658,-2.0404,-2.027,-0.4915,-1.5144,-1.0867,-0.5566,-1.272,-1.7525,-1.8843,-1.1558,-1.0716,-1.2719,-0.5147,-0.4865,-0.4541,-0.4763,0.5995,-0.1413
0.0456,-1.0786,-0.0083,-0.5872,-0.3581,-0.3158,-1.5832,-0.5728,-0.2205,-1.8487,-0.3411,0.1048,-2.0585,-1.9005,-0.2644,-1.2793,-0.8074,-0.2811,-0.999,-1.523,-1.6654,-1.0091,-0.908,-1.2736,-0.513,-0.5635,-0.5351,-0.5861,0.6083,0.0401
0.2142,-0.842,0.0654,-0.3166,-0.0627,-0.2224,-1.5083,-0.6576,-0.3649,-1.91,-0.4667,0.0442,-1.9467,-1.6397,-0.0192,-0.959,-0.4804,0.0195,-0.6543,-1.1688,-1.3015,-0.7506,-0.6628,-1.1703,-0.4822,-0.6301,-0.5757,-0.6753,0.6058,0.2089
0.3903,-0.5922,0.1473,-0.0225,0.3014,-0.0779,-1.35,-0.7018,-0.4741,-1.9098,-0.5687,-0.008,-1.7142,-1.2716,0.2106,-0.6009,-0.1477,0.3124,-0.2782,-0.7404,-0.8384,-0.4073,-0.362,-0.9679,-0.4265,-0.6786,-0.5718,-0.7336,0.5933,0.3486
0.549,-0.3621,0.2237,0.2567,0.691,0.0979,-1.1149,-0.6931,-0.5305,-1.8391,-0.6321,-0.0441,-1.3836,-0.8368,0.3968,-0.2552,0.1509,0.5681,0.0868,-0.2986,-0.336,-0.0184,-0.0398,-0.6853,-0.3542,-0.7056,-0.5252,-0.7562,0.5717,0.4495
0.6698,-0.1778,0.282,0.4866,1.0593,0.2813,-0.8186,-0.6263,-0.5234,-1.6965,-0.6455,-0.0571,-0.9868,-0.382,0.5219,0.0359,0.3852,0.7655,0.4046,0.0991,0.1441,0.3733,0.2681,-0.3511,-0.2765,-0.712,-0.4425,-0.744,0.5409,0.5086
0.74,-0.0535,0.3129,0.644,1.3644,0.4486,-0.4833,-0.5044,-0.4504,-1.4884,-0.6033,-0.0416,-0.5603,0.0473,0.5814,0.246,0.5392,0.8943,0.6508,0.4094,0.5492,0.7281,0.5305,0.0011,-0.2046,-0.7015,-0.3325,-0.7021,0.5004,0.5297
0.7567,0.0099,0.3127,0.7196,1.576,0.5802,-0.1357,-0.3386,-0.3187,-1.2295,-0.5076,0.0046,-0.1415,0.4122,0.5827,0.367,0.6118,0.9552,0.8147,0.6091,0.8437,1.0152,0.7249,0.3376,-0.1482,-0.6794,-0.2054,-0.6384,0.4499,0.5215
0.7261,0.0226,0.2839,0.719,1.6793,0.663,0.1949,-0.1478,-0.1445,-0.9422,-0.368,0.08,0.2355,0.6847,0.5425,0.4078,0.6141,0.9576,0.8978,0.6958,1.0113,1.2152,0.8397,0.6286,-0.114,-0.6522,-0.0719,-0.5623,0.3897,0.495
0.6619,0.002,0.2348,0.6589,1.6758,0.6927,0.4797,0.0444,0.0491,-0.6544,-0.2021,0.1782,0.5417,0.8488,0.4818,0.3888,0.5653,0.916,0.9101,0.6839,1.0539,1.3206,0.8739,0.8506,-0.1056,-0.6262,0.0565,-0.4838,0.3227,0.4616
0.5822,-0.0323,0.1777,0.5627,1.5806,0.6732,0.6926,0.2125,0.2351,-0.3982,-0.0325,0.2879,0.7556,0.9005,0.4221,0.3358,0.4875,0.847,0.8661,0.5982,0.9872,1.3335,0.8352,0.9879,-0.1241,-0.6082,0.1668,-0.4134,0.2543,0.4316
0.506,-0.0626,0.1263,0.4544,1.4181,0.6149,0.8128,0.3327,0.3863,-0.2056,0.1159,0.394,0.8639,0.8461,0.3815,0.2735,0.4016,0.7667,0.7814,0.4669,0.8351,1.2635,0.7375,1.0332,-0.1686,-0.6047,0.2455,-0.3616,0.1935,0.4125
0.4499,-0.0769,0.0929,0.3541,1.2161,0.5317,0.8263,0.3867,0.4797,-0.1051,0.2196,0.4796,0.8619,0.6999,0.3717,0.221,0.3244,0.6889,0.6706,0.3158,0.6239,1.1252,0.5983,0.9868,-0.2368,-0.6215,0.279,-0.3385,0.1508,0.4095
0.4258,-0.0703,0.0856,0.2741,1.0006,0.4379,0.7273,0.3643,0.5003,-0.1165,0.2611,0.5288,0.7538,0.4809,0.3972,0.1885,0.2666,0.6238,0.5457,0.1645,0.3778,0.9355,0.4357,0.8562,-0.3253,-0.6626,0.2563,-0.3522,0.1366,0.4247
0.4388,-0.0449,0.1069,0.2174,0.7911,0.3447,0.519,0.2657,0.4443,-0.2478,0.232,0.5302,0.5514,0.2105,0.455,0.1774,0.2324,0.5779,0.4164,0.0247,0.1163,0.7124,0.2667,0.6547,-0.429,-0.7291,0.1714,-0.4074,0.1582,0.4573
0.487,-0.0085,0.1529,0.1791,0.5994,0.2589,0.2144,0.1009,0.32,-0.492,0.1354,0.4793,0.2738,-0.09,0.5357,0.1813,0.2206,0.5532,0.2897,-0.0995,-0.1471,0.4731,0.1057,0.4006,-0.5414,-0.8183,0.0256,-0.5033,0.2175,0.5045
0.5621,0.0281,0.2142,0.1487,0.4295,0.1821,-0.165,-0.1113,0.1465,-0.8269,-0.0149,0.3793,-0.0547,-0.4005,0.6254,0.1897,0.2253,0.5478,0.1707,-0.2091,-0.4029,0.234,-0.036,0.1155,-0.654,-0.9233,-0.1713,-0.6334,0.3087,0.5615
0.6514,0.0539,0.2778,0.114,0.2804,0.1116,-0.5897,-0.3474,-0.0505,-1.2182,-0.1972,0.2412,-0.4066,-0.7029,0.7097,0.1917,0.2393,0.5569,0.0635,-0.3074,-0.644,0.0098,-0.1505,-0.1771,-0.7564,-1.0336,-0.4012,-0.7855,0.4192,0.6225
0.7407,0.0608,0.33,0.0656,0.1499,0.0429,-1.0255,-0.5826,-0.2436,-1.6242,-0.3862,0.0818,-0.7527,-0.9801,0.7758,0.1802,0.2559,0.5743,-0.0276,-0.3957,-0.8619,-0.1858,-0.2323,-0.4537,-0.8377,-1.1364,-0.6401,-0.943,0.5309,0.6817
0.8169,0.0459,0.3591,-0.0001,0.0382,-0.0278,-1.4359,-0.7943,-0.4088,-2.0015,-0.5577,-0.0792,-1.0644,-1.2159,0.8164,0.1548,0.2717,0.5948,-0.0971,-0.4705,-1.0453,-0.341,-0.2787,-0.6928,-0.8881,-1.219,-0.8611,-1.0876,0.6238,0.7344
0.8708,0.0125,0.3582,-0.0789,-0.0504,-0.1013,-1.7864,-0.9648,-0.5289,-2.3115,-0.6924,-0.2219,-1.3153,-1.3945,0.8308,0.1227,0.2872,0.6149,-0.1388,-0.5231,-1.1795,-0.446,-0.2894,-0.8765,-0.9006,-1.2706,-1.0385,-1.2018,0.6798,0.7776
0.898,-0.0306,0.3269,-0.1598,-0.107,-0.1742,-2.0473,-1.0818,-0.5948,-2.5255,-0.7779,-0.3289,-1.4838,-1.5015,0.8245,0.0964,0.3064,0.634,-0.147,-0.5416,-1.2491,-0.4943,-0.267,-0.9925,-0.8729,-1.2846,-1.1514,-1.2717,0.6867,0.8104
0.8994,-0.071,0.2703,-0.2276,-0.1205,-0.2394,-2.1985,-1.1387,-0.6058,-2.6279,-0.81,-0.388,-1.5551,-1.5264,0.8074,0.0904,0.3349,0.6535,-0.1182,-0.5147,-1.2418,-0.4848,-0.2177,-1.0357,-0.8083,-1.2591,-1.1873,-1.2891,0.6403,0.8334
0.8802,-0.0962,0.1986,-0.2672,-0.0815,-0.2882,-2.232,-1.1347,-0.568,-2.6179,-0.7923,-0.3938,-1.5237,-1.465,0.7907,0.1162,0.377,0.6753,-0.0536,-0.4369,-1.1532,-0.4222,-0.1512,-1.0083,-0.7151,-1.197,-1.1434,-1.2529,0.5455,0.8474
0.8486,-0.0969,0.1243,-0.2679,0.0141,-0.3128,-2.1546,-1.0743,-0.4932,-2.5089,-0.7351,-0.3484,-1.3957,-1.3228,0.7836,0.1782,0.434,0.7002,0.0403,-0.3117,-0.9902,-0.3177,-0.08,-0.9201,-0.606,-1.1054,-1.0273,-1.1691,0.4161,0.8534
0.8142,-0.0694,0.06,-0.2261,0.162,-0.3084,-1.9877,-0.9677,-0.3967,-2.326,-0.6539,-0.2607,-1.1892,-1.1162,0.7908,0.2718,0.5024,0.727,0.1512,-0.1535,-0.7723,-0.1873,-0.0175,-0.7867,-0.4952,-0.9943,-0.8558,-1.0495,0.2727,0.8518
0.7856,-0.0174,0.0161,-0.1476,0.3483,-0.2751,-1.7644,-0.8301,-0.2952,-2.1019,-0.566,-0.1446,-0.9327,-0.8722,0.8118,0.3827,0.5733,0.7518,0.2633,0.014,-0.5293,-0.0496,0.0249,-0.6269,-0.396,-0.8744,-0.6513,-0.9094,0.1388,0.843
0.7685,0.0486,-0.0019,-0.0466,0.5509,-0.2188,-1.5242,-0.6807,-0.2046,-1.8713,-0.4875,-0.0162,-0.6619,-0.6253,0.8402,0.4897,0.6343,0.769,0.3589,0.162,-0.297,0.0768,0.0403,-0.4598,-0.318,-0.756,-0.4386,-0.7652,0.036,0.8274
0.7635,0.1126,0.0054,0.0562,0.7428,-0.1507,-1.3065,-0.5407,-0.138,-1.6653,-0.4309,0.1095,-0.414,-0.412,0.8658,0.569,0.6712,0.7726,0.4216,0.2619,-0.1108,0.1762,0.0277,-0.3027,-0.266,-0.647,-0.24,-0.6312,-0.0213,0.8055
0.7657,0.1562,0.0305,0.1379,0.8968,-0.0857,-1.1434,-0.4303,-0.1037,-1.5073,-0.403,0.2205,-0.2218,-0.2647,0.8765,0.5989,0.6711,0.7572,0.4388,0.2922,0.0011,0.2374,-0.0081,-0.1686,-0.2395,-0.5523,-0.0724,-0.5181,-0.03,0.7779
0.7647,0.1626,0.0596,0.1779,0.9908,-0.0396,-1.0547,-0.3652,-0.105,-1.41,-0.4046,0.3093,-0.109,-0.2056,0.8608,0.565,0.6251,0.7201,0.4036,0.2422,0.0227,0.2548,-0.0582,-0.0669,-0.2332,-0.4738,0.0548,-0.4319,-0.0002,0.745
0.7472,0.12,0.0757,0.1625,1.0123,-0.0267,-1.0463,-0.3539,-0.1396,-1.3747,-0.4316,0.3728,-0.086,-0.2431,0.8109,0.4622,0.5304,0.6612,0.3157,0.1147,-0.0472,0.2277,-0.1128,-0.003,-0.2397,-0.4108,0.1393,-0.374,0.0473,0.707
0.6997,0.0243,0.0621,0.0875,0.9597,-0.0566,-1.1103,-0.3955,-0.2006,-1.3935,-0.477,0.4106,-0.1499,-0.3709,0.7239,0.2963,0.3908,0.5832,0.1812,-0.076,-0.1959,0.1594,-0.1641,0.02,-0.2518,-0.3616,0.184,-0.3432,0.086,0.664
0.6127,-0.1196,0.0067,-0.0409,0.8426,-0.1322,-1.229,-0.4799,-0.2779,-1.4516,-0.5332,0.4237,-0.2862,-0.5706,0.6024,0.0817,0.2159,0.4906,0.0109,-0.3072,-0.4011,0.0555,-0.209,0.0007,-0.264,-0.3247,0.194,-0.336,0.0916,0.6165
0.4831,-0.2988,-0.0943,-0.2078,0.6776,-0.2492,-1.379,-0.59,-0.36,-1.5317,-0.5933,0.4131,-0.4733,-0.8164,0.4541,-0.1616,0.0194,0.3888,-0.1809,-0.5533,-0.6359,-0.0774,-0.2488,-0.0612,-0.2744,-0.3001,0.1746,-0.3493,0.0477,0.5657
0.3161,-0.4953,-0.2355,-0.394,0.4849,-0.397,-1.5367,-0.7049,-0.4364,-1.6171,-0.653,0.3795,-0.6867,-1.0805,0.2898,-0.4118,-0.1834,0.2831,-0.379,-0.7902,-0.8739,-0.232,-0.2888,-0.1649,-0.2845,-0.2892,0.1288,-0.3802,-0.0494,0.5131
0.1239,-0.6891,-0.4036,-0.5798,0.2829,-0.5613,-1.6832,-0.8048,-0.4994,-1.6949,-0.711,0.3236,-0.904,-1.3381,0.1218,-0.6491,-0.3774,0.1785,-0.5686,-0.9987,-1.0939,-0.4001,-0.335,-0.3074,-0.2981,-0.2945,0.058,-0.4267,-0.1915,0.4612
-0.0763,-0.8629,-0.5811,-0.7495,0.0859,-0.7269,-1.8064,-0.875,-0.5458,-1.7568,-0.7681,0.2466,-1.1073,-1.5707,-0.0383,-0.8576,-0.5491,0.0797,-0.7368,-1.1663,-1.2815,-0.5726,-0.3918,-0.4826,-0.3193,-0.3184,-0.0371,-0.4871,-0.3612,0.4126
-0.2659,-1.0046,-0.7502,-0.8939,-0.098,-0.8812,-1.9026,-0.9089,-0.5761,-1.7999,-0.8266,0.1513,-1.2853,-1.7669,-0.1803,-1.0259,-0.6874,-0.0076,-0.872,-1.2866,-1.4287,-0.7383,-0.4586,-0.6806,-0.3508,-0.3621,-0.1549,-0.5597,-0.5373,0.3698
-0.4284,-1.1083,-0.8965,-1.0096,-0.2655,-1.0156,-1.9749,-0.9083,-0.5941,-1.8254,-0.8884,0.0429,-1.4319,-1.922,-0.2961,-1.1464,-0.7828,-0.0765,-0.9643,-1.3574,-1.533,-0.8843,-0.5297,-0.8877,-0.3926,-0.4242,-0.2911,-0.6421,-0.6999,0.3357
-0.5516,-1.1733,-1.0116,-1.0975,-0.4163,-1.1266,-2.0304,-0.8819,-0.6045,-1.8371,-0.9537,-0.0721,-1.5457,-2.036,-0.3787,-1.214,-0.8276,-0.1182,-1.0053,-1.3787,-1.5946,-0.9972,-0.5943,-1.0878,-0.442,-0.5016,-0.4387,-0.7314,-0.8344,0.3128
-0.6291,-1.2021,-1.0926,-1.1599,-0.5511,-1.2147,-2.0771,-0.8417,-0.611,-1.8389,-1.0196,-0.1855,-1.6278,-2.1116,-0.4232,-1.2253,-0.816,-0.1231,-0.989,-1.3517,-1.6155,-1.0653,-0.6395,-1.2649,-0.4941,-0.5897,-0.5891,-0.8243,-0.9328,0.3036
-0.66,-1.1985,-1.1408,-1.1979,-0.6689,-1.2822,-2.12,-0.7989,-0.6139,-1.8335,-1.08,-0.2894,-1.6814,-2.1526,-0.4261,-1.1789,-0.7457,-0.0825,-0.9134,-1.2785,-1.5988,-1.0809,-0.6541,-1.4059,-0.5438,-0.6842,-0.7333,-0.918,-0.9936,0.3096
-0.6479,-1.165,-1.1596,-1.2102,-0.7661,-1.3312,-2.1596,-0.7607,-0.6098,-1.8209,-1.1265,-0.3768,-1.7103,-2.1634,-0.3873,-1.0767,-0.6196,0.0081,-0.7822,-1.1627,-1.5489,-1.0429,-0.6314,-1.5034,-0.5873,-0.7816,-0.8644,-1.0106,-1.0201,0.3314
-0.5992,-1.1023,-1.1515,-1.1926,-0.8367,-1.361,-2.1914,-0.7291,-0.5929,-1.7994,-1.1509,-0.4434,-1.7188,-2.1488,-0.3104,-0.9242,-0.4469,0.1466,-0.6058,-1.0103,-1.4716,-0.9579,-0.5719,-1.5569,-0.6234,-0.8799,-0.9788,-1.1011,-1.0176,0.3674
-0.5209,-1.0096,-1.1171,-1.1391,-0.8728,-1.3676,-2.2079,-0.7015,-0.5584,-1.7662,-1.1481,-0.4879,-1.7113,-2.1134,-0.2035,-0.7319,-0.2438,0.3224,-0.4008,-0.8295,-1.3737,-0.8397,-0.4834,-1.5723,-0.6533,-0.9778,-1.0759,-1.1886,-0.9916,0.4137
-0.4198,-0.8858,-1.0548,-1.0443,-0.8671,-1.3441,-2.2013,-0.6731,-0.5051,-1.7205,-1.1187,-0.5127,-1.6922,-2.0621,-0.0794,-0.5138,-0.0319,0.5175,-0.1881,-0.6301,-1.2619,-0.7065,-0.3794,-1.5603,-0.6804,-1.0741,-1.1572,-1.272,-0.9462,0.4645
-0.3019,-0.732,-0.963,-0.906,-0.8153,-1.2834,-2.1671,-0.6402,-0.4383,-1.6646,-1.0697,-0.523,-1.6653,-1.9996,0.0461,-0.2872,0.1648,0.7084,0.0107,-0.423,-1.1425,-0.5774,-0.2759,-1.5331,-0.7084,-1.1666,-1.2257,-1.3491,-0.8836,0.5128
-0.1738,-0.554,-0.8422,-0.7281,-0.7188,-1.182,-2.1061,-0.6026,-0.3688,-1.6054,-1.0137,-0.5264,-1.6341,-1.9304,0.1562,-0.0705,0.3235,0.8705,0.1758,-0.2197,-1.0211,-0.4694,-0.1879,-1.5018,-0.74,-1.2517,-1.2834,-1.4166,-0.8054,0.5519
-0.0437,-0.3643,-0.6976,-0.5231,-0.5867,-1.0428,-2.0257,-0.5647,-0.3118,-1.5537,-0.9664,-0.5306,-1.6018,-1.8595,0.2355,0.1181,0.4262,0.983,0.2922,-0.0325,-0.9032,-0.394,-0.1267,-1.4741,-0.776,-1.3248,-1.3316,-1.4702,-0.7138,0.5765
0.078,-0.182,-0.5398,-0.3114,-0.4355,-0.8775,-1.9393,-0.5347,-0.2834,-1.5231,-0.9435,-0.5423,-1.5712,-1.7927,0.2723,0.2617,0.4621,1.032,0.3507,0.125,-0.7955,-0.3569,-0.0978,-1.4537,-0.8144,-1.3806,-1.3702,-1.5063,-0.6135,0.5842
0.1779,-0.0314,-0.3837,-0.1194,-0.2874,-0.7059,-1.8638,-0.5231,-0.2978,-1.5266,-0.9584,-0.5656,-1.5453,-1.7368,0.2606,0.346,0.4291,1.0132,0.3477,0.2378,-0.7066,-0.3579,-0.101,-1.44,-0.8508,-1.4143,-1.3979,-1.522,-0.5122,0.576
0.2415,0.062,-0.2463,0.0248,-0.1667,-0.5524,-1.8169,-0.5403,-0.3654,-1.5742,-1.0199,-0.6012,-1.5265,-1.6994,0.2003,0.3602,0.3326,0.9317,0.2846,0.2906,-0.6465,-0.3928,-0.1312,-1.43,-0.8798,-1.4222,-1.4125,-1.5162,-0.4202,0.5559
0.2553,0.0757,-0.143,0.0972,-0.0952,-0.4416,-1.8129,-0.5939,-0.4914,-1.6707,-1.1312,-0.6464,-1.5168,-1.6874,0.0967,0.2984,0.1842,0.8003,0.1668,0.2697,-0.6255,-0.4551,-0.1804,-1.4188,-0.8952,-1.4017,-1.4117,-1.4891,-0.3482,0.5306
0.2101,-0.0044,-0.0841,0.0825,-0.0876,-0.3919,-1.8602,-0.6874,-0.675,-1.8141,-1.2898,-0.6955,-1.517,-1.7057,-0.0411,0.1604,-0.001,0.6362,0.0023,0.1664,-0.6515,-0.5376,-0.2394,-1.4017,-0.892,-1.352,-1.3929,-1.4419,-0.3052,0.5075
0.1032,-0.1808,-0.0728,-0.0222,-0.149,-0.412,-1.9593,-0.8197,-0.91,-1.9971,-1.4889,-0.7427,-1.5266,-1.7558,-0.2023,-0.0473,-0.2079,0.4568,-0.1992,-0.0198,-0.7272,-0.6332,-0.3001,-1.3749,-0.8676,-1.2745,-1.3551,-1.3766,-0.2955,0.4932
-0.0592,-0.4425,-0.1044,-0.2064,-0.2732,-0.498,-2.1032,-0.9849,-1.1859,-2.2088,-1.7182,-0.7833,-1.5436,-1.8346,-0.3763,-0.3116,-0.4234,0.2764,-0.4267,-0.2793,-0.8486,-0.7359,-0.3563,-1.3371,-0.8225,-1.173,-1.2993,-1.2966,-0.3179,0.4913
-0.2628,-0.7665,-0.1674,-0.4484,-0.4442,-0.6347,-2.279,-1.1734,-1.4886,-2.4374,-1.966,-0.8159,-1.5654,-1.9347,-0.5547,-0.6137,-0.6381,0.1038,-0.6688,-0.592,-1.0042,-0.8404,-0.4054,-1.289,-0.7612,-1.0545,-1.2296,-1.2067,-0.3651,0.5017
-0.487,-1.1213,-0.2462,-0.7187,-0.6393,-0.7985,-2.4705,-1.3734,-1.8023,-2.672,-2.2204,-0.8424,-1.5891,-2.0452,-0.7309,-0.9311,-0.8466,-0.058,-0.914,-0.9301,-1.1768,-0.9425,-0.4471,-1.2339,-0.6908,-0.9285,-1.1526,-1.1128,-0.4255,0.5208
