FP1,F3,F7,FC3,C3,C5,P3,P7,PO7,PO3,O1,Oz,Pz,CPz,FP2,Fz,F4,F8,FC4,FCz,Cz,C4,C6,P4,P8,PO8,PO4,O2,(corr) HEOG,(corr) VEOG
2.3957,2.6474,1.8018,2.5555,1.6004,0.9584,0.354,0.0482,-0.2913,0.3247,-0.0037,-0.0383,0.5547,1.1806,2.3888,2.6448,2.2308,1.7167,1.8045,2.2834,1.8355,1.287,0.8939,0.2426,0.0995,-0.4184,-0.083,-0.2515,-0.7299,-0.5229
2.2033,2.488,1.7061,2.463,1.5611,0.9773,0.3676,0.1362,-0.2371,0.3632,0.0663,0.0061,0.4972,1.0348,2.1678,2.4091,2.0629,1.6558,1.6208,2.094,1.689,1.1522,0.7912,0.1671,0.0522,-0.4199,-0.1153,-0.2516,-0.7323,-0.3966
1.9708,2.2806,1.5857,2.321,1.5103,0.9912,0.3997,0.2299,-0.1739,0.4272,0.1557,0.0921,0.4752,0.922,1.942,2.1501,1.878,1.5972,1.4432,1.8918,1.5556,1.0369,0.6914,0.134,0.0252,-0.3916,-0.0935,-0.2027,-0.7032,-0.28
1.735,2.058,1.4607,2.1566,1.4619,1.0012,0.4477,0.3129,-0.1099,0.5093,0.251,0.208,0.4964,0.8649,1.7497,1.9083,1.7076,1.5548,1.3047,1.7139,1.465,0.9676,0.6171,0.1555,0.0291,-0.3306,-0.0185,-0.1087,-0.6472,-0.1952
1.5313,1.8536,1.351,2,1.4267,1.0073,0.5042,0.3693,-0.0534,0.5971,0.3383,0.3377,0.5586,0.8745,1.6185,1.7168,1.5774,1.5371,1.2289,1.5896,1.4356,0.9612,0.5863,0.2348,0.0701,-0.238,0.1009,0.0202,-0.5734,-0.1563
1.3882,1.698,1.2737,1.8797,1.4114,1.0105,0.5602,0.3877,-0.01,0.6768,0.407,0.4636,0.6524,0.9499,1.5608,1.5981,1.504,1.5466,1.2271,1.5377,1.4738,1.0226,0.6106,0.3662,0.1492,-0.1182,0.2499,0.1699,-0.4938,-0.1681
1.3236,1.615,1.2418,1.8199,1.4202,1.0147,0.6077,0.3648,0.0184,0.7366,0.4512,0.5706,0.7646,1.081,1.5747,1.5624,1.4953,1.5818,1.2992,1.5658,1.5746,1.1467,0.6946,0.5374,0.2636,0.0217,0.4115,0.3247,-0.4203,-0.2259
1.3434,1.6205,1.264,1.8374,1.4556,1.0272,0.6425,0.3062,0.0342,0.7697,0.4703,0.6479,0.8818,1.2522,1.6475,1.6097,1.5524,1.6398,1.4376,1.6723,1.7265,1.3222,0.8376,0.7325,0.4074,0.1738,0.5696,0.4702,-0.3637,-0.3181
1.4418,1.7202,1.3431,1.9406,1.519,1.058,0.6658,0.2258,0.0428,0.7756,0.4684,0.6899,0.9937,1.4471,1.7615,1.733,1.6732,1.7202,1.6311,1.8492,1.9148,1.5354,1.0347,0.9352,0.5733,0.3296,0.7107,0.594,-0.3327,-0.4298
1.6038,1.9102,1.4761,2.1274,1.611,1.1167,0.6829,0.1429,0.0514,0.7606,0.452,0.6962,1.0941,1.6509,1.8998,1.921,1.8542,1.8261,1.8686,2.0848,2.1259,1.7731,1.2776,1.1309,0.7536,0.4809,0.8252,0.6869,-0.334,-0.5454
1.8089,2.1765,1.6542,2.3862,1.7298,1.2093,0.7012,0.0776,0.067,0.7349,0.428,0.6708,1.1809,1.8515,2.0498,2.1609,2.0915,1.9642,2.1401,2.3654,2.3484,2.0233,1.5541,1.3068,0.9396,0.62,0.9069,0.743,-0.3719,-0.6512
2.035,2.4976,1.8631,2.6964,1.8706,1.3352,0.7281,0.0467,0.0953,0.7107,0.4026,0.6202,1.2542,2.0397,2.205,2.4388,2.3794,2.142,2.4364,2.6752,2.5731,2.275,1.8475,1.4528,1.1212,0.7394,0.9529,0.7589,-0.4478,-0.7359
2.262,2.8465,2.085,3.031,2.025,1.4861,0.7681,0.06,0.14,0.6985,0.3798,0.5525,1.3154,2.2079,2.3641,2.7396,2.7077,2.3646,2.7461,2.9965,2.7921,2.5166,2.1357,1.5604,1.2864,0.8324,0.9624,0.7343,-0.5591,-0.7905
2.4741,3.1939,2.3006,3.3587,2.1814,1.6466,0.8221,0.1194,0.2014,0.7045,0.3619,0.4753,1.3652,2.3497,2.5268,3.0456,3.059,2.6293,3.0523,3.308,2.996,2.7344,2.3919,1.6233,1.4214,0.8933,0.937,0.6717,-0.6978,-0.8075
2.6591,3.5096,2.4902,3.6466,2.3248,1.796,0.8858,0.2182,0.2769,0.7295,0.3487,0.3955,1.4025,2.4581,2.6901,3.3342,3.4055,2.9216,3.3303,3.584,3.1729,2.9115,2.5856,1.637,1.5116,0.9187,0.8799,0.5762,-0.8499,-0.7807
2.8073,3.7643,2.6345,3.8619,2.437,1.9107,0.9501,0.3423,0.3601,0.7672,0.3385,0.3171,1.4231,2.525,2.8437,3.5764,3.7093,3.2131,3.5471,3.7937,3.3058,3.0271,2.6858,1.599,1.5432,0.9071,0.7954,0.4549,-0.9962,-0.7058
2.9082,3.9298,2.7151,3.9738,2.4967,1.9658,1.0001,0.472,0.4403,0.8051,0.3272,0.2409,1.4185,2.5395,2.9688,3.7377,3.9249,3.4625,3.6643,3.9031,3.3734,3.0582,2.6654,1.508,1.5063,0.8596,0.6872,0.3159,-1.1145,-0.5818
2.9485,3.9806,2.7139,3.9555,2.4802,1.9386,1.0166,0.5842,0.5036,0.8255,0.3085,0.1639,1.3758,2.4885,3.0388,3.7813,4.0052,3.6213,3.6438,3.8789,3.3511,2.9817,2.5055,1.3638,1.3969,0.7793,0.5577,0.167,-1.1833,-0.412
2.9118,3.8949,2.6146,3.7873,2.3646,1.8111,0.9782,0.6556,0.5343,0.8085,0.2746,0.0801,1.2798,2.3584,3.024,3.6735,3.9107,3.6437,3.4556,3.6935,3.2152,2.7806,2.2017,1.168,1.2199,0.6716,0.4073,0.015,-1.1862,-0.2047
2.7805,3.6587,2.4057,3.4604,2.1326,1.5745,0.8661,0.6665,0.5186,0.7364,0.2173,-0.0171,1.1165,2.1386,2.8974,3.3912,3.6184,3.4971,3.0875,3.3325,2.9488,2.4495,1.768,0.9254,0.9906,0.5444,0.2364,-0.1341,-1.1159,0.0277
2.5408,3.2691,2.0841,2.9813,1.779,1.2331,0.6694,0.6052,0.4485,0.5986,0.1309,-0.132,0.8791,1.827,2.6425,2.9293,3.1298,3.1724,2.5512,2.8003,2.5482,2.0015,1.239,0.6458,0.7339,0.409,0.0473,-0.2742,-0.9769,0.2692
2.1884,2.7399,1.6598,2.3754,1.3164,0.8082,0.391,0.4718,0.325,0.3956,0.0144,-0.2639,0.5723,1.4341,2.2591,2.3063,2.4754,2.6891,1.8861,2.1246,2.0284,1.4708,0.6677,0.3462,0.4816,0.2796,-0.153,-0.3983,-0.7865,0.5024
1.7339,2.104,1.1588,1.6877,0.778,0.3379,0.0499,0.2794,0.1603,0.1415,-0.1265,-0.4056,0.2155,0.9862,1.7669,1.5663,1.7133,2.0953,1.1568,1.3571,1.4255,0.9115,0.1191,0.0496,0.2676,0.1721,-0.3518,-0.4986,-0.5714,0.7095
1.2047,1.4129,0.6228,0.9799,0.2152,-0.1263,-0.3192,0.0537,-0.0234,-0.1376,-0.2797,-0.544,-0.1584,0.5231,1.2046,0.7754,0.9216,1.4607,0.4439,0.5685,0.7941,0.39,-0.3399,-0.2165,0.121,0.101,-0.5316,-0.5676,-0.364,0.8746
0.6437,0.7323,0.1045,0.3229,-0.3089,-0.5269,-0.6714,-0.1711,-0.1976,-0.4068,-0.4275,-0.6629,-0.5076,0.0934,0.6241,0.0132,0.1863,0.8645,-0.1694,-0.1604,0.2005,-0.0267,-0.6527,-0.4252,0.0609,0.0756,-0.6732,-0.6003,-0.1955,0.9853
0.1034,0.1333,-0.3396,-0.2133,-0.7303,-0.8105,-0.9588,-0.3585,-0.3322,-0.6289,-0.5503,-0.7459,-0.7887,-0.2535,0.0832,-0.6392,-0.414,0.3814,-0.6127,-0.7511,-0.2884,-0.2844,-0.7833,-0.5544,0.0916,0.0982,-0.7594,-0.5951,-0.0901,1.0342
-0.3613,-0.3179,-0.6584,-0.5703,-0.9947,-0.9372,-1.1393,-0.4765,-0.4018,-0.7701,-0.629,-0.7795,-0.964,-0.4752,-0.3637,-1.112,-0.8202,0.0682,-0.8407,-1.1401,-0.6155,-0.3514,-0.7231,-0.5905,0.2034,0.1628,-0.778,-0.5539,-0.0602,1.0194
-0.7005,-0.5691,-0.8132,-0.7097,-1.066,-0.8867,-1.1828,-0.5027,-0.3894,-0.8051,-0.6476,-0.7545,-1.0063,-0.5416,-0.6715,-1.3567,-1.0008,-0.045,-0.8389,-1.287,-0.7415,-0.2235,-0.4912,-0.5298,0.3746,0.258,-0.7235,-0.4807,-0.1044,0.9436
-0.8749,-0.5887,-0.7821,-0.6163,-0.9299,-0.6609,-1.0752,-0.4276,-0.2891,-0.7195,-0.595,-0.6664,-0.9018,-0.4377,-0.808,-1.3502,-0.9514,0.0429,-0.6223,-1.1786,-0.6483,0.0786,-0.1286,-0.377,0.5772,0.3703,-0.5959,-0.379,-0.2078,0.8117
-0.8597,-0.3683,-0.5613,-0.298,-0.5923,-0.2809,-0.8179,-0.2546,-0.1058,-0.5104,-0.4658,-0.5142,-0.6499,-0.1621,-0.7546,-1.0946,-0.69,0.3079,-0.2265,-0.8265,-0.3377,0.5165,0.3115,-0.1427,0.7829,0.4892,-0.3993,-0.2496,-0.3456,0.6283
-0.646,0.0776,-0.1635,0.2189,-0.0756,0.2187,-0.4262,0.0014,0.1468,-0.1857,-0.2603,-0.2998,-0.2604,0.2751,-0.5056,-0.6122,-0.2476,0.7084,0.3033,-0.2609,0.1726,1.0449,0.7747,0.1603,0.968,0.6097,-0.1397,-0.0903,-0.488,0.3963
-0.2409,0.7155,0.3857,0.8953,0.5875,0.797,0.0749,0.3182,0.4492,0.2378,0.0151,-0.0278,0.2484,0.8556,-0.0676,0.0602,0.3399,1.1955,0.9229,0.4772,0.8541,1.621,1.2158,0.5189,1.1176,0.733,0.1762,0.1039,-0.6057,0.1167
0.334,1.4974,1.0511,1.6853,1.3587,1.4128,0.6538,0.6693,0.7798,0.7363,0.3486,0.2944,0.8523,1.5541,0.5401,0.8776,1.0368,1.7216,1.5958,1.3422,1.6715,2.2105,1.605,0.9205,1.2267,0.8654,0.5407,0.3373,-0.6753,-0.2096
1.0432,2.3665,1.7915,2.5402,2.1968,2.0291,1.2749,1.0278,1.1171,1.2806,0.7232,0.6557,1.5217,2.3391,1.2853,1.7902,1.8087,2.2461,2.2939,2.2879,2.5847,2.7896,1.9288,1.3524,1.2993,1.0148,0.944,0.6109,-0.6828,-0.5782
1.8397,3.2621,2.5614,3.4107,3.0589,2.6143,1.9012,1.369,1.4414,1.8381,1.118,1.0401,2.2223,3.1725,2.1219,2.7453,2.6202,2.7377,2.9941,3.2682,3.5485,3.3415,2.1879,1.8002,1.3457,1.1866,1.3726,0.9189,-0.6246,-0.9786
2.6668,4.1232,3.3134,4.2484,3.9001,3.1418,2.4954,1.6722,1.7362,2.3746,1.5095,1.4272,2.9159,4.0093,2.9909,3.6876,3.4309,3.1733,3.673,4.2357,4.5126,3.8526,2.3907,2.2459,1.379,1.3813,1.8077,1.2479,-0.5071,-1.3927
3.4613,4.8924,3.9992,5.0051,4.6734,3.5888,3.0223,1.9218,1.988,2.8572,1.8737,1.7931,3.5615,4.7996,3.824,4.559,4.1932,3.5347,4.301,5.14,5.4216,4.3068,2.5479,2.6677,1.4116,1.5926,2.226,1.5774,-0.3442,-1.7952
4.1572,5.5167,4.5717,5.6328,5.3305,3.9343,3.4501,2.108,2.1859,3.2558,2.1874,2.1127,4.1185,5.4916,4.5489,5.3,4.8517,3.806,4.8402,5.9267,6.217,4.6835,2.666,3.0413,1.4526,1.809,2.6013,1.8825,-0.1544,-2.1558
4.6903,5.949,4.9864,6.0847,5.8239,4.1587,3.7524,2.225,2.3214,3.5462,2.4302,2.3626,4.55,6.0356,5.0962,5.8511,5.347,3.9706,5.2452,6.5384,6.8405,4.9575,2.745,3.3416,1.506,2.0153,2.907,2.138,0.0434,-2.4434
5.0033,6.1482,5.2039,6.3164,6.1097,4.2431,3.9093,2.2706,2.3875,3.7105,2.5859,2.5242,4.8257,6.389,5.4058,6.1568,5.6209,4.0103,5.4682,6.918,7.2386,5.1011,2.7771,3.5458,1.571,2.196,3.1201,2.3224,0.2322,-2.63
5.0505,6.0812,5.1926,6.2897,6.1526,4.1713,3.9087,2.2439,2.3784,3.7388,2.6437,2.5856,4.9246,6.52,5.434,6.1708,5.625,3.9069,5.4659,7.0148,7.3685,5.0894,2.7487,3.6362,1.6426,2.3376,3.2234,2.4211,0.3996,-2.6961
4.8039,5.7262,4.9331,5.978,5.9309,3.9326,3.7471,2.1452,2.2903,3.6288,2.5989,2.5425,4.837,6.4121,5.1584,5.863,5.3285,3.6452,5.2088,6.7919,7.2043,4.9052,2.6448,3.6025,1.7135,2.4302,3.2082,2.4284,0.539,-2.6333
4.2576,5.0776,4.4214,5.3722,5.4415,3.525,3.4303,1.976,2.1222,3.3861,2.4538,2.398,4.5651,6.0653,4.5815,5.2262,4.7256,3.2181,4.6883,6.2344,6.7416,4.5446,2.454,3.444,1.7763,2.4675,3.0749,2.3466,0.6486,-2.4463
3.431,4.1503,3.673,4.4857,4.7028,2.959,2.9737,1.7411,1.8783,3.0236,2.2177,2.1621,4.123,5.4973,3.7322,4.2804,3.8393,2.6311,3.9214,5.3554,6.0004,4.0194,2.1737,3.1697,1.825,2.4472,2.8324,2.1849,0.7307,-2.1516
2.3692,2.9817,2.7232,3.3565,3.7554,2.2588,2.4024,1.4499,1.569,2.5612,1.906,1.8496,3.5361,4.7417,2.6635,3.0742,2.7206,1.9062,2.9508,4.1974,5.0246,3.3578,1.8125,2.7974,1.855,2.3698,2.4968,1.9565,0.7899,-1.7748
1.1397,1.6314,1.6258,2.0457,2.6587,1.4619,1.749,1.1179,1.2117,2.0248,1.5392,1.4792,2.8381,3.8448,1.4468,1.6807,1.4434,1.0812,1.8401,2.8297,3.8775,2.6008,1.3899,2.3515,1.8634,2.2381,2.089,1.6765,0.8317,-1.3454
-0.1741,0.1755,0.4475,0.6314,1.4847,0.6155,1.0517,0.7655,0.83,1.4441,1.1403,1.071,2.0684,2.8609,0.1648,0.1897,0.0948,0.2068,0.6652,1.3407,2.6352,1.7963,0.9327,1.8597,1.8471,2.057,1.632,1.3593,0.8615,-0.8929
-1.4826,-1.3002,-0.7381,-0.7994,0.3093,-0.2286,0.3501,0.4166,0.4516,0.8508,0.7332,0.6459,1.2686,1.8469,-1.0984,-1.3028,-1.2361,-0.6609,-0.4957,-0.1728,1.3766,0.9921,0.47,1.3488,1.802,1.8329,1.1491,1.0182,0.8838,-0.4435
-2.6995,-2.7095,-1.8593,-2.1609,-0.7958,-1.0201,-0.3181,0.0944,0.1049,0.2762,0.3403,0.2235,0.4785,0.8571,-2.2656,-2.7059,-2.4688,-1.4686,-1.5725,-1.6173,0.1756,0.2295,0.0271,0.8425,1.722,1.573,0.6612,0.6644,0.9026,-0.019
-3.7517,-3.9739,-2.8527,-3.3774,-1.7708,-1.716,-0.9204,-0.181,-0.1845,-0.2507,-0.018,-0.1781,-0.2658,-0.0606,-3.2744,-3.9427,-3.5393,-2.1743,-2.5103,-2.9121,-0.9066,-0.4608,-0.3783,0.3584,1.5994,1.2848,0.1866,0.3072,0.9214,0.3629
-4.5854,-5.0288,-3.6685,-4.3888,-2.5718,-2.2836,-1.4317,-0.3943,-0.3974,-0.7049,-0.3248,-0.5434,-0.9341,-0.8678,-4.0809,-4.9565,-4.4046,-2.7516,-3.273,-3.9965,-1.8248,-1.0598,-0.7371,-0.0912,1.4266,0.975,-0.2603,-0.0453,0.9441,0.6876
-5.1698,-5.8276,-4.2735,-5.1547,-3.1728,-2.7022,-1.8348,-0.5369,-0.5233,-1.0672,-0.5665,-0.8602,-1.503,-1.5363,-4.6612,-5.7128,-5.0425,-3.1902,-3.8431,-4.832,-2.5513,-1.5579,-1.0479,-0.4992,1.1985,0.6502,-0.668,-0.3856,0.9751,0.9445
-5.4967,-6.3433,-4.6516,-5.6542,-3.5651,-2.9634,-2.1211,-0.6059,-0.5623,-1.3252,-0.7347,-1.1197,-1.9557,-2.0483,-5.0102,-6.1989,-5.4486,-3.4922,-4.2182,-5.4014,-3.0736,-1.9513,-1.3133,-0.8609,0.917,0.3176,-1.0279,-0.7058,1.0196,1.1273
-5.5771,-6.5681,-4.8031,-5.8845,-3.7544,-3.0696,-2.2898,-0.6057,-0.5249,-1.475,-0.8262,-1.3171,-2.2822,-2.396,-5.1375,-6.42,-5.6314,-3.6662,-4.4063,-5.7055,-3.3923,-2.2384,-1.5355,-1.1724,0.5927,-0.0132,-1.3328,-0.9973,1.0831,1.2359
-5.4367,-6.5129,-4.7431,-5.8592,-3.7585,-3.0325,-2.3476,-0.5472,-0.4314,-1.5215,-0.8446,-1.4506,-2.4795,-2.5804,-5.0638,-6.3955,-5.6082,-3.7215,-4.4215,-5.7591,-3.5173,-2.417,-1.7133,-1.4285,0.2466,-0.3287,-1.5758,-1.2497,1.17,1.2776
-5.1107,-6.2053,-4.4983,-5.605,-3.6032,-2.8716,-2.3075,-0.4484,-0.3087,-1.4787,-0.7995,-1.5212,-2.5505,-2.6107,-4.8166,-6.1546,-5.4013,-3.6656,-4.2804,-5.5866,-3.4657,-2.4842,-1.8409,-1.6218,-0.092,-0.6112,-1.7506,-1.4513,1.2816,1.2658
-4.6392,-5.687,-4.1048,-5.1591,-3.3199,-2.6127,-2.1882,-0.3335,-0.1872,-1.3678,-0.7066,-1.5324,-2.5047,-2.5025,-4.4279,-5.7324,-5.0359,-3.5036,-4.0009,-5.2189,-3.2594,-2.4377,-1.9086,-1.7442,-0.3897,-0.8405,-1.8517,-1.5904,1.4145,1.2174
-4.0643,-5.0104,-3.6046,-4.5666,-2.9427,-2.2863,-2.0125,-0.2304,-0.0958,-1.2147,-0.586,-1.4899,-2.3571,-2.2771,-3.9313,-5.1675,-4.54,-3.2414,-3.6023,-4.6916,-2.9239,-2.2788,-1.9059,-1.7878,-0.6147,-0.997,-1.8755,-1.6579,1.5596,1.1488
-3.427,-4.2332,-3.0421,-3.8766,-2.5059,-1.9249,-1.8053,-0.1665,-0.0587,-1.0467,-0.4593,-1.4022,-2.1277,-1.9603,-3.3614,-4.4999,-3.9442,-2.8888,-3.1058,-4.0438,-2.4882,-2.015,-1.8248,-1.7482,-0.7434,-1.0663,-1.8229,-1.6501,1.7029,1.0719
-2.7662,-3.4139,-2.4601,-3.1394,-2.0423,-1.5605,-1.591,-0.1641,-0.0913,-0.8886,-0.3478,-1.2813,-1.8408,-1.5805,-2.7526,-3.7695,-3.2819,-2.4626,-2.5362,-3.3174,-1.9842,-1.6615,-1.6635,-1.6266,-0.7643,-1.0428,-1.7008,-1.5711,1.8272,0.9923
-2.1174,-2.6066,-1.8977,-2.4028,-1.5815,-1.2217,-1.391,-0.2361,-0.1987,-0.7604,-0.2695,-1.1429,-1.5231,-1.1677,-2.1388,-3.0161,-2.5893,-1.9872,-1.9221,-2.5564,-1.4461,-1.2414,-1.4275,-1.4316,-0.6805,-0.9324,-1.5229,-1.434,1.9159,0.91
-1.5126,-1.8582,-1.3871,-1.7094,-1.1485,-0.931,-1.2217,-0.3834,-0.3756,-0.675,-0.2373,-1.0055,-1.202,-0.7522,-1.5522,-2.2787,-1.9038,-1.4938,-1.2957,-1.8067,-0.9098,-0.7843,-1.1307,-1.1795,-0.5084,-0.752,-1.3096,-1.2602,1.9557,0.821
-0.98,-1.2056,-0.9531,-1.0947,-0.7634,-0.7031,-1.0932,-0.5944,-0.6075,-0.6374,-0.2573,-0.8889,-0.9038,-0.3624,-1.0233,-1.5954,-1.2633,-1.0173,-0.6921,-1.1136,-0.4107,-0.3235,-0.7942,-0.8935,-0.2743,-0.5266,-1.0848,-1.0758,1.9394,0.7208
-0.5437,-0.6751,-0.6124,-0.5854,-0.4409,-0.5443,-1.0084,-0.8471,-0.8729,-0.6448,-0.3279,-0.81,-0.6508,-0.0231,-0.5798,-1.0018,-0.7035,-0.593,-0.1472,-0.5193,0.0184,0.1071,-0.4438,-0.6,-0.0089,-0.2852,-0.8727,-0.907,1.8671,0.6072
-0.2232,-0.283,-0.3734,-0.1984,-0.1898,-0.4524,-0.9635,-1.1117,-1.1454,-0.6871,-0.4393,-0.7798,-0.4589,0.2466,-0.2456,-0.5296,-0.2563,-0.2523,0.3057,-0.0597,0.3508,0.4767,-0.1075,-0.326,0.2577,-0.055,-0.6936,-0.7752,1.746,0.4827
-0.032,-0.0357,-0.2368,0.0589,-0.0134,-0.418,-0.9484,-1.3557,-1.3959,-0.7489,-0.5745,-0.8,-0.3362,0.4343,-0.04,-0.2036,0.0529,-0.0189,0.6379,0.2394,0.5677,0.7601,0.1881,-0.0944,0.5006,0.142,-0.5601,-0.6927,1.589,0.3547
0.023,0.0688,-0.1971,0.1882,0.0896,-0.4269,-0.9499,-1.5482,-1.5966,-0.812,-0.7116,-0.8623,-0.2824,0.5357,0.0242,-0.0394,0.2069,0.093,0.829,0.3651,0.6609,0.9405,0.4203,0.0787,0.7025,0.2919,-0.4763,-0.661,1.4137,0.2349
-0.0564,0.04,-0.2432,0.1991,0.1247,-0.4632,-0.9542,-1.6657,-1.7241,-0.8591,-0.8274,-0.9507,-0.2898,0.5535,-0.0579,-0.0411,0.1989,0.0803,0.869,0.3182,0.6321,1.0103,0.5731,0.1851,0.8551,0.3886,-0.4378,-0.6721,1.2389,0.1368
-0.2596,-0.1064,-0.3607,0.1076,0.0994,-0.5122,-0.9508,-1.6955,-1.7635,-0.8774,-0.9025,-1.0451,-0.3461,0.4961,-0.2816,-0.1999,0.0344,-0.0497,0.7597,0.1134,0.4929,0.9714,0.6389,0.2249,0.9572,0.4327,-0.4346,-0.7118,1.0829,0.0732
-0.5673,-0.3499,-0.5331,-0.0668,0.0228,-0.5628,-0.9349,-1.6378,-1.7116,-0.8608,-0.9253,-1.1267,-0.4368,0.376,-0.6313,-0.4946,-0.2685,-0.2801,0.5153,-0.2225,0.2622,0.8349,0.619,0.205,1.0139,0.4296,-0.4545,-0.7637,0.96,0.0529
-0.9529,-0.6671,-0.7438,-0.303,-0.0964,-0.6087,-0.9089,-1.505,-1.5778,-0.8117,-0.8939,-1.1823,-0.548,0.2077,-1.0807,-0.894,-0.6803,-0.5867,0.1615,-0.654,-0.0361,0.619,0.5233,0.1371,1.0336,0.3878,-0.4864,-0.8141,0.8786,0.0793
-1.3857,-1.034,-0.9777,-0.5813,-0.2501,-0.6489,-0.8811,-1.3183,-1.3826,-0.74,-0.8164,-1.2061,-0.6687,0.0058,-1.5946,-1.3601,-1.1625,-0.9405,-0.2677,-1.1412,-0.3762,0.3468,0.3685,0.0355,1.0266,0.3179,-0.5219,-0.8535,0.8402,0.149
-1.8343,-1.4279,-1.2225,-0.8855,-0.4322,-0.6865,-0.8635,-1.1035,-1.1541,-0.6611,-0.7084,-1.1999,-0.7919,-0.2165,-2.1321,-1.8535,-1.673,-1.3114,-0.7338,-1.6445,-0.7336,0.0434,0.1755,-0.0856,1.0029,0.2316,-0.5571,-0.8777,0.8384,0.2523
-2.2702,-1.8296,-1.4692,-1.2038,-0.6381,-0.7278,-0.8691,-0.8866,-0.9231,-0.5933,-0.59,-1.1716,-0.9142,-0.4483,-2.6516,-2.3381,-2.1713,-1.6717,-1.1991,-2.1294,-1.0878,-0.2676,-0.0339,-0.2133,0.9717,0.1414,-0.5913,-0.8874,0.8614,0.3745
-2.6706,-2.2239,-1.7122,-1.5289,-0.8647,-0.7802,-0.9085,-0.6902,-0.7185,-0.5539,-0.482,-1.1325,-1.0358,-0.6812,-3.1162,-2.7856,-2.6238,-1.9998,-1.6316,-2.5703,-1.4231,-0.5659,-0.2396,-0.3375,0.9407,0.0589,-0.6269,-0.8868,0.8941,0.4992
-3.0196,-2.5993,-1.948,-1.8563,-1.1091,-0.8505,-0.9871,-0.5305,-0.5631,-0.5561,-0.4027,-1.0944,-1.1576,-0.9086,-3.4975,-3.1773,-3.0074,-2.282,-2.0085,-2.9517,-1.7295,-0.8362,-0.4256,-0.4507,0.9164,-0.0066,-0.667,-0.8819,0.9218,0.6108
-3.3087,-2.9473,-2.1742,-2.182,-1.3676,-0.9427,-1.1041,-0.4165,-0.4705,-0.6068,-0.3651,-1.0676,-1.2804,-1.1246,-3.7796,-3.5046,-3.3113,-2.5132,-2.318,-3.2685,-2.0014,-1.0685,-0.5806,-0.548,0.9038,-0.0489,-0.7147,-0.8796,0.9332,0.6974
-3.536,-3.2621,-2.388,-2.5005,-1.6342,-1.0567,-1.2516,-0.3494,-0.4438,-0.7048,-0.375,-1.0588,-1.4027,-1.3236,-3.96,-3.7673,-3.5362,-2.6958,-2.5588,-3.524,-2.2366,-1.2581,-0.6991,-0.6266,0.9057,-0.0656,-0.771,-0.8857,0.9225,0.7526
-3.706,-3.5393,-2.5863,-2.8043,-1.9011,-1.1883,-1.4167,-0.324,-0.4758,-0.8413,-0.43,-1.0698,-1.5205,-1.4996,-4.0493,-3.9719,-3.6925,-2.8383,-2.7388,-3.7272,-2.4351,-1.405,-0.7813,-0.6852,0.9229,-0.0584,-0.8351,-0.9041,0.8894,0.7754
-3.8278,-3.7772,-2.7656,-3.0845,-2.1596,-1.3303,-1.5839,-0.3304,-0.5515,-1.002,-0.5207,-1.0985,-1.6287,-1.6481,-4.0691,-4.1281,-3.7973,-2.9521,-2.8718,-3.8902,-2.5994,-1.5141,-0.8328,-0.725,0.9535,-0.0323,-0.9038,-0.9361,0.8384,0.7701
-3.9147,-3.9764,-2.924,-3.3325,-2.4014,-1.474,-1.739,-0.3571,-0.6526,-1.17,-0.6331,-1.1399,-1.7227,-1.7674,-4.0474,-4.2476,-3.8701,-3.0489,-2.9745,-4.0256,-2.7347,-1.5943,-0.8642,-0.7499,0.9923,0.0045,-0.9733,-0.9806,0.7761,0.7455
-3.9817,-4.1405,-3.0613,-3.5426,-2.6208,-1.612,-1.8722,-0.3934,-0.7622,-1.3303,-0.7519,-1.1888,-1.801,-1.8603,-4.0137,-4.3419,-3.9305,-3.1381,-3.0638,-4.1454,-2.849,-1.6586,-0.8895,-0.7671,1.0318,0.0413,-1.0408,-1.0356,0.7097,0.7132
-4.0434,-4.2757,-3.1804,-3.7134,-2.8154,-1.7388,-1.9801,-0.4313,-0.8685,-1.4721,-0.8645,-1.2416,-1.8671,-1.9354,-3.9937,-4.4217,-3.9945,-3.2256,-3.1548,-4.26,-2.954,-1.7227,-0.9242,-0.7867,1.0626,0.0654,-1.1059,-1.0993,0.646,0.6866
-4.1114,-4.3896,-3.2859,-3.8488,-2.9864,-1.8518,-2.0659,-0.4665,-0.9668,-1.591,-0.9633,-1.2975,-1.9293,-2.0058,-4.0056,-4.4965,-4.0738,-3.3127,-3.2582,-4.3777,-3.0628,-1.8023,-0.9821,-0.8205,1.0748,0.0642,-1.172,-1.1715,0.5911,0.6792
-4.1916,-4.4895,-3.3829,-3.9564,-3.1369,-1.9497,-2.1367,-0.4985,-1.0585,-1.6877,-1.0459,-1.3579,-1.9989,-2.0869,-4.0576,-4.5734,-4.1738,-3.3969,-3.3793,-4.5043,-3.1883,-1.9106,-1.0726,-0.8797,1.0598,0.027,-1.2448,-1.2533,0.5509,0.7035
-4.2829,-4.5798,-3.4743,-4.0451,-3.2706,-2.0313,-2.2008,-0.5287,-1.1481,-1.7664,-1.1146,-1.425,-2.0868,-2.1922,-4.1476,-4.657,-4.2934,-3.4721,-3.517,-4.6421,-3.34,-2.0543,-1.1977,-0.9724,1.0118,-0.0523,-1.3315,-1.3462,0.5314,0.7696
-4.3773,-4.6612,-3.5599,-4.1227,-3.3893,-2.0946,-2.2639,-0.5589,-1.2391,-1.8317,-1.1741,-1.5003,-2.2006,-2.3298,-4.2646,-4.7481,-4.4251,-3.5304,-3.6635,-4.7898,-3.5211,-2.232,-1.3512,-1.1014,0.9292,-0.1739,-1.4377,-1.451,0.5383,0.8835
-4.4621,-4.7309,-3.6357,-4.1945,-3.4932,-2.1359,-2.328,-0.5901,-1.3319,-1.8875,-1.2298,-1.5831,-2.3417,-2.5006,-4.3916,-4.8443,-4.5566,-3.5633,-3.8061,-4.9422,-3.7277,-2.4332,-1.5197,-1.2637,0.8147,-0.332,-1.5664,-1.5669,0.5756,1.0455
-4.5236,-4.7835,-3.6962,-4.2622,-3.5806,-2.152,-2.3913,-0.6211,-1.4225,-1.9356,-1.2858,-1.6702,-2.5053,-2.6976,-4.5101,-4.9404,-4.6739,-3.565,-3.9302,-5.0914,-3.9495,-2.6411,-1.686,-1.4514,0.6742,-0.5155,-1.7169,-1.6912,0.6444,1.2496
-4.5513,-4.8143,-3.7356,-4.3256,-3.6499,-2.141,-2.4494,-0.6489,-1.5029,-1.9771,-1.3444,-1.7566,-2.6819,-2.9088,-4.6045,-5.0306,-4.7641,-3.5329,-4.0231,-5.2289,-4.1723,-2.8354,-1.8334,-1.6538,0.5156,-0.7111,-1.8846,-1.82,0.7409,1.4842
-4.5399,-4.8206,-3.7508,-4.3832,-3.7004,-2.1041,-2.4978,-0.6692,-1.564,-2.0121,-1.4053,-1.8358,-2.8587,-3.119,-4.6646,-5.1095,-4.8186,-3.4695,-4.0771,-5.3471,-4.3807,-2.9978,-1.9494,-1.8593,0.3475,-0.9046,-2.0621,-1.9483,0.857,1.7333
-4.4909,-4.8031,-3.7415,-4.4332,-3.7322,-2.0455,-2.5326,-0.6773,-1.5973,-2.0403,-1.4653,-1.9006,-3.0223,-3.3134,-4.6878,-5.1732,-4.8342,-3.3809,-4.0907,-5.4407,-4.561,-3.1145,-2.0278,-2.057,0.1781,-1.0833,-2.2396,-2.0699,0.9808,1.9798
-4.4111,-4.7655,-3.7099,-4.4728,-3.7458,-1.9714,-2.5511,-0.6694,-1.5977,-2.0604,-1.5189,-1.9438,-3.16,-3.4786,-4.6775,-5.2191,-4.8126,-3.276,-4.0683,-5.5069,-4.702,-3.1789,-2.0688,-2.2369,0.0147,-1.2364,-2.4056,-2.1782,1.099,2.2079
-4.3101,-4.713,-3.66,-4.4987,-3.7408,-1.888,-2.5513,-0.6443,-1.564,-2.0696,-1.5587,-1.9591,-3.2605,-3.6041,-4.641,-5.2454,-4.7584,-3.1635,-4.0175,-5.544,-4.796,-3.1913,-2.0776,-2.3902,-0.1363,-1.3553,-2.5478,-2.2659,1.1994,2.4047
-4.198,-4.6505,-3.5955,-4.5057,-3.7148,-1.8007,-2.531,-0.6034,-1.4994,-2.0638,-1.5766,-1.9408,-3.3146,-3.6821,-4.5862,-5.2494,-4.6766,-3.0506,-3.9461,-5.5509,-4.8382,-3.1574,-2.0611,-2.508,-0.269,-1.4334,-2.653,-2.3244,1.2729,2.5608
-4.083,-4.5807,-3.5187,-4.4871,-3.6638,-1.713,-2.4876,-0.5507,-1.4105,-2.0375,-1.5649,-1.8849,-3.3151,-3.7073,-4.5184,-5.2267,-4.5704,-2.94,-3.8593,-5.5251,-4.8261,-3.0851,-2.0253,-2.5812,-0.3771,-1.4649,-2.7085,-2.3446,1.3139,2.6705
-3.9696,-4.5025,-3.4301,-4.4348,-3.5831,-1.6262,-2.4176,-0.4921,-1.3059,-1.9855,-1.5178,-1.7886,-3.2574,-3.6759,-4.4379,-5.1707,-4.4394,-2.8298,-3.7575,-5.4617,-4.7589,-2.9816,-1.973,-2.6006,-0.4534,-1.4447,-2.7028,-2.3171,1.3205,2.7304
-3.8579,-4.4105,-3.328,-4.3402,-3.4677,-1.5396,-2.3179,-0.4342,-1.1947,-1.9036,-1.4327,-1.6517,-3.1394,-3.5859,-4.3399,-5.0723,-4.2799,-2.7131,-3.6357,-5.3537,-4.6368,-2.8513,-1.9031,-2.5581,-0.4899,-1.369,-2.6274,-2.234,1.2934,2.7392
-3.7439,-4.2948,-3.2084,-4.1951,-3.3146,-1.4514,-2.1868,-0.3831,-1.0849,-1.7904,-1.311,-1.477,-2.9629,-3.4362,-4.2154,-4.9216,-4.0857,-2.5804,-3.4852,-5.1929,-4.4609,-2.6953,-1.812,-2.4487,-0.4793,-1.2373,-2.4794,-2.0914,1.2352,2.6967
-3.6202,-4.1431,-3.0668,-3.9942,-3.1231,-1.3592,-2.0255,-0.3431,-0.9825,-1.648,-1.1584,-1.2717,-2.7337,-3.2286,-4.0539,-4.7092,-3.8506,-2.4224,-3.2958,-4.9714,-4.233,-2.5125,-1.6952,-2.2731,-0.4175,-1.0541,-2.263,-1.8921,1.1503,2.6038
-3.478,-3.9438,-2.8987,-3.7364,-2.8964,-1.261,-1.8391,-0.3166,-0.8912,-1.4829,-0.9849,-1.0468,-2.462,-2.9676,-3.8462,-4.4297,-3.5706,-2.2336,-3.0598,-4.6846,-3.9567,-2.3024,-1.5507,-2.0396,-0.3057,-0.8308,-1.9907,-1.6467,1.0441,2.4626
-3.3097,-3.6897,-2.7025,-3.4267,-2.6415,-1.1561,-1.6367,-0.3035,-0.8122,-1.3046,-0.8027,-0.8169,-2.1623,-2.6627,-3.5883,-4.0837,-3.2468,-2.0148,-2.7751,-4.3336,-3.6386,-2.0673,-1.3807,-1.7638,-0.1521,-0.5842,-1.6826,-1.3732,0.9239,2.2773
-3.1108,-3.3818,-2.4805,-3.0779,-2.3699,-1.0466,-1.4309,-0.3026,-0.745,-1.1248,-0.6251,-0.5978,-1.8522,-2.3276,-3.2836,-3.6806,-2.8868,-1.774,-2.4478,-3.9276,-3.289,-1.8143,-1.1928,-1.4674,0.029,-0.3351,-1.3636,-1.0943,0.7974,2.0555
-2.8818,-3.0315,-2.2401,-2.7096,-2.0964,-0.9373,-1.236,-0.3113,-0.6885,-0.9555,-0.464,-0.4043,-1.5505,-1.9805,-2.9435,-3.2388,-2.5051,-1.5249,-2.0921,-3.484,-2.9222,-1.555,-0.9992,-1.175,0.2191,-0.1039,-1.0594,-0.8342,0.6728,1.8093
-2.6289,-2.6592,-1.9935,-2.3465,-1.8375,-0.835,-1.0659,-0.3269,-0.6407,-0.8068,-0.3288,-0.2475,-1.2756,-1.6421,-2.5869,-2.7843,-2.1218,-1.2844,-1.7289,-3.0272,-2.5557,-1.3042,-0.8148,-0.9096,0.3984,0.0925,-0.7931,-0.6135,0.557,1.5551
-2.3628,-2.2917,-1.7549,-2.0142,-1.6088,-0.7474,-0.9315,-0.3455,-0.5997,-0.6848,-0.2245,-0.1328,-1.0423,-1.3323,-2.2372,-2.3465,-1.7597,-1.0681,-1.3818,-2.5852,-2.2079,-1.077,-0.6537,-0.6893,0.5494,0.2432,-0.5809,-0.4464,0.4554,1.3121
-2.0963,-1.9561,-1.5383,-1.7344,-1.422,-0.6798,-0.8379,-0.3627,-0.563,-0.5915,-0.1517,-0.0593,-0.8601,-1.0674,-1.918,-1.9538,-1.4396,-0.8874,-1.0727,-2.1846,-1.8949,-0.8855,-0.5265,-0.5244,0.66,0.3448,-0.4306,-0.3386,0.3716,1.1001
-1.8426,-1.6748,-1.3542,-1.5213,-1.2826,-0.6341,-0.7835,-0.373,-0.528,-0.5245,-0.107,-0.0203,-0.7319,-0.8574,-1.6493,-1.6274,-1.1768,-0.7468,-0.8177,-1.8454,-1.6283,-0.7373,-0.4382,-0.4169,0.7246,0.4002,-0.3411,-0.287,0.307,0.9358
-1.6117,-1.4601,-1.2072,-1.3783,-1.1883,-0.6068,-0.7609,-0.371,-0.4926,-0.4791,-0.0844,-0.006,-0.6546,-0.7049,-1.4435,-1.3781,-0.9786,-0.644,-0.6245,-1.5777,-1.413,-0.6346,-0.3879,-0.3621,0.7441,0.4164,-0.3046,-0.2822,0.2617,0.8303
-1.4096,-1.3123,-1.0957,-1.298,-1.1301,-0.5896,-0.7585,-0.3521,-0.4557,-0.4505,-0.0772,-0.0064,-0.6209,-0.6056,-1.3039,-1.2046,-0.8428,-0.5709,-0.4924,-1.3801,-1.2477,-0.5753,-0.3703,-0.3511,0.7238,0.4014,-0.3101,-0.3119,0.2349,0.787
-1.2369,-1.2197,-1.0121,-1.264,-1.0941,-0.5711,-0.7635,-0.3144,-0.4182,-0.4358,-0.0799,-0.0148,-0.621,-0.5503,-1.2242,-1.0944,-0.7595,-0.5163,-0.4131,-1.2406,-1.1257,-0.554,-0.3772,-0.3735,0.6719,0.3612,-0.3462,-0.3646,0.2255,0.8013
-1.0889,-1.1608,-0.9445,-1.254,-1.0635,-0.5389,-0.7652,-0.2588,-0.3825,-0.4345,-0.0891,-0.0284,-0.6445,-0.5267,-1.1892,-1.0259,-0.7119,-0.4672,-0.3725,-1.1396,-1.0368,-0.563,-0.3992,-0.4194,0.5969,0.2987,-0.4039,-0.4318,0.2319,0.8612
-0.9569,-1.1089,-0.8791,-1.2439,-1.022,-0.4816,-0.7561,-0.1895,-0.3519,-0.4483,-0.1037,-0.0488,-0.6815,-0.5218,-1.1762,-0.9723,-0.6787,-0.4105,-0.3523,-1.0534,-0.9686,-0.5931,-0.4259,-0.4803,0.5074,0.2137,-0.4772,-0.5096,0.2517,0.9497
-0.8295,-1.0366,-0.8028,-1.2114,-0.956,-0.3917,-0.7332,-0.1129,-0.3297,-0.4795,-0.1247,-0.0798,-0.7231,-0.523,-1.1587,-0.9058,-0.6365,-0.3338,-0.3324,-0.9587,-0.9081,-0.6331,-0.4473,-0.5491,0.4112,0.1047,-0.563,-0.5975,0.2817,1.0471
-0.695,-0.9209,-0.705,-1.1392,-0.8568,-0.2663,-0.6978,-0.0364,-0.3181,-0.5295,-0.1537,-0.1248,-0.7615,-0.5196,-1.1102,-0.8019,-0.563,-0.2267,-0.2931,-0.8364,-0.843,-0.6708,-0.4535,-0.6192,0.3164,-0.0286,-0.6592,-0.697,0.3175,1.1342
-0.5439,-0.7475,-0.5798,-1.0178,-0.7226,-0.1091,-0.6544,0.032,-0.3183,-0.5978,-0.1919,-0.185,-0.7901,-0.5032,-1.0092,-0.6439,-0.4408,-0.0831,-0.2191,-0.6754,-0.7632,-0.6933,-0.4366,-0.6847,0.2311,-0.1823,-0.7629,-0.8083,0.3531,1.1953
-0.3709,-0.5136,-0.4272,-0.8465,-0.5582,0.0705,-0.6095,0.0851,-0.3301,-0.6813,-0.2393,-0.2575,-0.8041,-0.4689,-0.8443,-0.4258,-0.2614,0.0971,-0.1018,-0.4745,-0.6618,-0.6896,-0.3916,-0.74,0.1629,-0.3468,-0.8688,-0.928,0.3821,1.2206
-0.1768,-0.2282,-0.2532,-0.6333,-0.3752,0.2576,-0.5697,0.1166,-0.3531,-0.7744,-0.2933,-0.3357,-0.8006,-0.4151,-0.6171,-0.1544,-0.0282,0.3066,0.0571,-0.2428,-0.5368,-0.6521,-0.3183,-0.7804,0.1184,-0.507,-0.9692,-1.048,0.398,1.2074
0.031,0.0883,-0.0688,-0.3938,-0.1894,0.4352,-0.54,0.1224,-0.3854,-0.8689,-0.3492,-0.4102,-0.7785,-0.3435,-0.3437,0.1508,0.2421,0.5302,0.2451,0.0017,-0.3916,-0.5792,-0.2222,-0.8028,0.1009,-0.6451,-1.0543,-1.1563,0.3955,1.161
0.2391,0.408,0.1115,-0.1488,-0.0183,0.5863,-0.5225,0.1013,-0.4233,-0.9551,-0.3997,-0.4712,-0.7388,-0.2588,-0.0522,0.4607,0.5214,0.7465,0.4402,0.2348,-0.2354,-0.4766,-0.1145,-0.8067,0.1093,-0.7446,-1.1153,-1.2396,0.3722,1.0923
0.4302,0.6997,0.2722,0.0788,0.1225,0.6977,-0.5155,0.0566,-0.46,-1.0227,-0.4361,-0.5101,-0.6839,-0.1676,0.2218,0.7406,0.7741,0.9306,0.6141,0.4303,-0.0815,-0.3565,-0.0107,-0.7948,0.1371,-0.7949,-1.1464,-1.287,0.3298,1.0156
0.5867,0.9338,0.3995,0.2671,0.2218,0.7616,-0.5145,-0.004,-0.485,-1.0621,-0.4499,-0.522,-0.6174,-0.0773,0.4426,0.9563,0.9639,1.0582,0.7382,0.5645,0.0547,-0.2362,0.0722,-0.7725,0.1731,-0.7947,-1.1472,-1.2929,0.2746,0.9447
0.6934,1.0874,0.4833,0.3982,0.2742,0.7774,-0.5131,-0.0689,-0.4855,-1.0668,-0.4346,-0.5059,-0.5433,0.0053,0.5816,1.0794,1.0609,1.1101,0.7891,0.6196,0.1585,-0.1346,0.1191,-0.7471,0.2035,-0.7518,-1.123,-1.2595,0.2169,0.8903
0.7409,1.1476,0.5188,0.4609,0.2812,0.7504,-0.5045,-0.1246,-0.4486,-1.034,-0.3873,-0.4643,-0.4657,0.0752,0.6225,1.0924,1.0473,1.0764,0.754,0.5869,0.219,-0.0683,0.12,-0.7256,0.2151,-0.6815,-1.0836,-1.1949,0.1695,0.8578
0.7267,1.1138,0.5071,0.4528,0.2502,0.6912,-0.4835,-0.1587,-0.3642,-0.9655,-0.3095,-0.4018,-0.3873,0.1301,0.5651,0.9917,0.9221,0.9599,0.6337,0.4685,0.2316,-0.0476,0.0724,-0.7129,0.1989,-0.6012,-1.0398,-1.1112,0.1442,0.8474
0.6558,0.999,0.4555,0.382,0.194,0.6138,-0.4471,-0.1621,-0.2283,-0.8667,-0.2071,-0.3234,-0.3097,0.1708,0.4242,0.789,0.7007,0.7759,0.4429,0.2775,0.1994,-0.0745,-0.0183,-0.7097,0.1528,-0.5259,-1.0004,-1.0206,0.1495,0.8545
0.5398,0.8275,0.3767,0.2667,0.1289,0.5334,-0.3949,-0.13,-0.0451,-0.7457,-0.0889,-0.2332,-0.2326,0.2015,0.2267,0.5093,0.4132,0.5511,0.2077,0.0369,0.1331,-0.1416,-0.1393,-0.712,0.0825,-0.4646,-0.9694,-0.932,0.1885,0.8716
0.3957,0.6323,0.2877,0.1339,0.0727,0.4657,-0.3283,-0.0626,0.1731,-0.6114,0.0351,-0.1342,-0.1541,0.229,0.0054,0.1881,0.0983,0.3184,-0.039,-0.2231,0.0498,-0.2342,-0.2733,-0.7124,0,-0.4192,-0.9456,-0.8508,0.2581,0.8911
0.2438,0.4497,0.2074,0.0153,0.043,0.4241,-0.2501,0.0359,0.4074,-0.4718,0.1549,-0.0293,-0.0718,0.2615,-0.2061,-0.1342,-0.2028,0.1121,-0.2638,-0.4692,-0.0299,-0.3336,-0.4018,-0.7022,-0.0796,-0.3858,-0.9236,-0.7783,0.3499,0.9066
0.1062,0.3139,0.1541,-0.0582,0.0537,0.4189,-0.164,0.1576,0.6353,-0.3339,0.2621,0.0779,0.0162,0.3072,-0.3797,-0.4181,-0.4536,-0.0389,-0.4382,-0.6696,-0.0864,-0.4217,-0.5082,-0.6738,-0.1419,-0.3575,-0.8968,-0.7145,0.4519,0.915
0.0037,0.2511,0.1425,-0.0623,0.1129,0.4549,-0.0742,0.2918,0.834,-0.203,0.3497,0.1824,0.1103,0.3716,-0.4957,-0.6306,-0.627,-0.1155,-0.5431,-0.7992,-0.1041,-0.4841,-0.5806,-0.6236,-0.1762,-0.3269,-0.859,-0.6586,0.5515,0.9165
-0.0464,0.2758,0.1813,0.0157,0.2208,0.5306,0.0149,0.426,0.9841,-0.083,0.4131,0.2776,0.2092,0.4576,-0.5444,-0.7497,-0.7094,-0.1114,-0.5707,-0.8425,-0.0744,-0.513,-0.6128,-0.5525,-0.1772,-0.2885,-0.8069,-0.6106,0.6375,0.9141
-0.0324,0.3884,0.2717,0.1746,0.3699,0.6389,0.0995,0.5476,1.0729,0.0241,0.45,0.3576,0.3107,0.5648,-0.5254,-0.767,-0.7,-0.0324,-0.524,-0.7958,0.0041,-0.507,-0.6041,-0.4651,-0.1453,-0.2386,-0.7398,-0.5707,0.7022,0.9118
0.0495,0.5771,0.4082,0.4004,0.5473,0.7682,0.1778,0.6461,1.0964,0.1188,0.4622,0.4186,0.4129,0.6911,-0.4457,-0.687,-0.6096,0.1055,-0.4145,-0.6665,0.1273,-0.4687,-0.5577,-0.3671,-0.0842,-0.1748,-0.6586,-0.5373,0.7427,0.913
0.1946,0.8208,0.5798,0.6697,0.7379,0.9057,0.2507,0.7154,1.06,0.2049,0.4557,0.4615,0.5164,0.8342,-0.3173,-0.5258,-0.4568,0.2811,-0.2579,-0.4705,0.2875,-0.4031,-0.4786,-0.2628,0.0008,-0.0947,-0.5639,-0.5062,0.76,0.9186
0.3899,1.094,0.7725,0.9552,0.9276,1.0395,0.322,0.7551,0.9778,0.2892,0.4408,0.4926,0.624,0.9926,-0.1547,-0.3071,-0.2637,0.4719,-0.0716,-0.2292,0.4768,-0.3146,-0.3723,-0.1536,0.1049,0.0044,-0.4549,-0.47,0.7581,0.9269
0.616,1.371,0.9715,1.2305,1.1059,1.161,0.3973,0.7708,0.8699,0.3808,0.4304,0.5224,0.7404,1.165,0.0268,-0.0586,-0.0529,0.6586,0.1285,0.0339,0.6873,-0.2069,-0.2444,-0.0377,0.2246,0.1244,-0.3298,-0.4191,0.7424,0.9335
0.8496,1.6297,1.1628,1.4734,1.266,1.2648,0.4819,0.7721,0.7592,0.4883,0.4377,0.5622,0.8692,1.3489,0.2123,0.1923,0.1556,0.8267,0.3281,0.2964,0.9115,-0.0833,-0.1012,0.0876,0.3569,0.2646,-0.187,-0.3446,0.7178,0.9333
1.0669,1.8533,1.3343,1.6681,1.4042,1.3488,0.5786,0.7701,0.6675,0.6168,0.4722,0.6205,1.0107,1.5382,0.3876,0.4218,0.3453,0.9677,0.5154,0.539,1.1407,0.0518,0.0494,0.2233,0.4976,0.4193,-0.0279,-0.2418,0.6881,0.9214
1.2473,2.0317,1.4768,1.8064,1.5184,1.4127,0.6852,0.7743,0.6114,0.765,0.5367,0.6989,1.1591,1.7226,0.54,0.6121,0.5046,1.0782,0.6802,0.7476,1.3642,0.1922,0.1966,0.3655,0.6402,0.5767,0.1409,-0.1129,0.6553,0.8955
1.377,2.1612,1.5839,1.8871,1.6069,1.4574,0.7948,0.79,0.5997,0.9232,0.6254,0.7898,1.3024,1.8873,0.659,0.7536,0.6269,1.1589,0.8142,0.9141,1.5694,0.3296,0.3278,0.5044,0.7753,0.7194,0.3066,0.0314,0.6201,0.8565
1.4507,2.2444,1.6534,1.9157,1.668,1.4841,0.8957,0.8175,0.632,1.0743,0.7245,0.8772,1.4241,2.016,0.7383,0.8455,0.7113,1.2133,0.912,1.0369,1.7431,0.4543,0.4301,0.6255,0.891,0.8273,0.4519,0.1731,0.5822,0.8085
1.4726,2.2887,1.6866,1.903,1.7004,1.4947,0.9749,0.8531,0.6994,1.1966,0.8151,0.94,1.5071,2.0943,0.7768,0.8951,0.7621,1.2467,0.971,1.1198,1.8736,0.5572,0.4925,0.7124,0.975,0.8818,0.5578,0.2899,0.5409,0.7579
1.4552,2.3048,1.6894,1.8633,1.7047,1.492,1.0212,0.8907,0.7884,1.2691,0.8777,0.9577,1.5379,2.1136,0.7792,0.9155,0.7875,1.2654,0.9933,1.1705,1.9537,0.6313,0.5088,0.751,1.0172,0.8697,0.6079,0.3604,0.4957,0.7118
1.4165,2.3049,1.6706,1.8123,1.6841,1.4806,1.0287,0.9246,0.8844,1.2768,0.8975,0.9162,1.5112,2.0745,0.7558,0.9223,0.7985,1.2757,0.985,1.1983,1.9824,0.6734,0.4789,0.7336,1.0115,0.7872,0.593,0.3685,0.4467,0.6762
1.376,2.3004,1.6414,1.7644,1.6456,1.4665,0.9989,0.9511,0.9756,1.215,0.8681,0.8125,1.4321,1.9879,0.7205,0.9304,0.8059,1.2836,0.9559,1.2123,1.9659,0.6854,0.4102,0.6614,0.957,0.6412,0.5133,0.3076,0.3953,0.6542
1.3508,2.3003,1.6135,1.7314,1.5996,1.4578,0.9412,0.9701,1.055,1.0911,0.7929,0.6565,1.3164,1.8741,0.6884,0.9506,0.8189,1.2938,0.9182,1.2198,1.9172,0.6744,0.3161,0.5459,0.8588,0.4488,0.3799,0.1831,0.3446,0.6452
1.3527,2.3108,1.5977,1.7213,1.559,1.463,0.8712,0.9837,1.1211,0.9241,0.685,0.4696,1.1882,1.7596,0.6732,0.9885,0.8438,1.3104,0.8856,1.2267,1.8545,0.6523,0.2143,0.4067,0.7266,0.2347,0.2132,0.0115,0.299,0.6449
1.3862,2.335,1.6024,1.7379,1.5374,1.4896,0.8079,0.9956,1.1763,0.7408,0.5641,0.2809,1.0753,1.6728,0.6852,1.0447,0.8832,1.3364,0.8708,1.2373,1.7987,0.6337,0.1235,0.268,0.5741,0.0267,0.0396,-0.1816,0.2629,0.6455
1.4484,2.3735,1.6321,1.7819,1.5468,1.5424,0.7696,1.0086,1.2244,0.5707,0.4522,0.1209,1.0045,1.6389,0.7303,1.1164,0.9372,1.3739,0.8845,1.2558,1.7701,0.634,0.0604,0.1548,0.4168,-0.1487,-0.113,-0.3659,0.2397,0.6372
1.5311,2.4259,1.6872,1.8517,1.5953,1.6213,0.7695,1.0231,1.268,0.44,0.3686,0.016,0.9956,1.6749,0.81,1.1997,1.0049,1.4246,0.9344,1.2872,1.7857,0.6661,0.0372,0.0875,0.2704,-0.2716,-0.2201,-0.5117,0.2301,0.609
1.6234,2.4914,1.7649,1.9454,1.6854,1.7218,0.8132,1.0362,1.3058,0.3665,0.3261,-0.0176,1.0577,1.7862,0.9225,1.2924,1.086,1.4891,1.0241,1.3372,1.8558,0.7383,0.0597,0.0788,0.1495,-0.3315,-0.2653,-0.5957,0.2309,0.5514
1.7162,2.5707,1.8597,2.0611,1.8133,1.8348,0.8967,1.0418,1.3321,0.3558,0.3279,0.0233,1.1871,1.9659,1.0643,1.3951,1.1817,1.5676,1.1533,1.4126,1.9831,0.8527,0.1273,0.1312,0.0656,-0.3295,-0.2429,-0.6053,0.2353,0.4577
1.8042,2.6659,1.9655,2.1973,1.9696,1.9488,1.0073,1.0324,1.3382,0.4011,0.3672,0.1283,1.3676,2.1951,1.2307,1.5119,1.2956,1.6597,1.3182,1.5192,2.1613,1.0049,0.2344,0.2369,0.0251,-0.2775,-0.1595,-0.5417,0.2339,0.3268
1.8877,2.7794,2.0763,2.3524,2.1399,2.0518,1.1258,1.0011,1.314,0.4842,0.429,0.2758,1.5733,2.4461,1.4163,1.6488,1.4312,1.7649,1.5112,1.66,2.3759,1.1842,0.3712,0.379,0.0279,-0.1959,-0.0321,-0.4196,0.2167,0.1645
1.9715,2.9121,2.1863,2.5228,2.3072,2.1334,1.2309,0.9438,1.252,0.5806,0.494,0.4382,1.7733,2.6868,1.6145,1.8107,1.5908,1.8818,1.722,1.8326,2.6054,1.3758,0.5255,0.535,0.0678,-0.1088,0.115,-0.2636,0.1761,-0.0161
2.0618,3.0613,2.2904,2.7014,2.4531,2.186,1.3028,0.8606,1.1496,0.6644,0.544,0.5877,1.937,2.8857,1.8166,1.9981,1.7724,2.008,1.9379,2.0281,2.8248,1.5629,0.6845,0.6811,0.133,-0.0391,0.2551,-0.1036,0.1085,-0.1961
2.1629,3.219,2.3826,2.8769,2.56,2.205,1.3267,0.7559,1.0104,0.7135,0.5654,0.7021,2.0393,3.0167,2.0123,2.2049,1.9694,2.1401,2.146,2.2305,3.008,1.7292,0.8361,0.7961,0.2089,-0.0041,0.3642,0.0324,0.0161,-0.3535
2.2745,3.3718,2.4561,3.0337,2.613,2.1885,1.2953,0.6372,0.8436,0.7135,0.552,0.7674,2.064,3.063,2.1905,2.4179,2.1707,2.274,2.3343,2.419,3.1326,1.8621,0.9703,0.8651,0.2813,-0.0125,0.4248,0.1223,-0.0937,-0.4681
2.3909,3.5028,2.5033,3.1546,2.6021,2.1372,1.2087,0.513,0.6618,0.6591,0.5051,0.7786,2.0059,3.0193,2.3417,2.6187,2.3628,2.4049,2.4936,2.5717,3.1834,1.9542,1.0798,0.8817,0.3392,-0.0642,0.428,0.1531,-0.21,-0.525
2.5013,3.5947,2.5172,3.2234,2.5238,2.0541,1.0744,0.3911,0.4785,0.5542,0.4312,0.7386,1.8707,2.8921,2.4594,2.7874,2.5328,2.5291,2.6186,2.6706,3.155,2.0043,1.1616,0.8473,0.3765,-0.1521,0.3745,0.1219,-0.3207,-0.5181
2.5935,3.6343,2.4932,3.2292,2.3827,1.9448,0.9055,0.2777,0.3051,0.4099,0.3401,0.6552,1.6733,2.698,2.5426,2.9073,2.6711,2.6448,2.7085,2.7051,3.053,2.017,1.2158,0.7708,0.3923,-0.2647,0.2724,0.0339,-0.4155,-0.4505
2.6571,3.6158,2.4312,3.1702,2.192,1.8179,0.7184,0.1767,0.1499,0.2425,0.2417,0.5391,1.435,2.4609,2.5952,2.9688,2.7729,2.7523,2.7662,2.6756,2.8936,2.0014,1.246,0.6656,0.3899,-0.3894,0.1356,-0.0994,-0.4872,-0.3329
2.686,3.5431,2.3367,3.0546,1.9722,1.6851,0.53,0.0906,0.0169,0.0702,0.1447,0.4017,1.1805,2.2076,2.625,2.9712,2.838,2.8532,2.7965,2.5924,2.6994,1.9678,1.2567,0.5467,0.3749,-0.5143,-0.0193,-0.2627,-0.5321,-0.1812
2.6799,3.4282,2.2203,2.8995,1.7477,1.5596,0.3555,0.0207,-0.0935,-0.0891,0.0547,0.2537,0.9335,1.9628,2.6409,2.9211,2.8683,2.9479,2.8038,2.4725,2.4955,1.9248,1.2522,0.4279,0.3535,-0.6297,-0.1756,-0.4398,-0.5502,-0.0124
2.6427,3.2883,2.0951,2.7268,1.5424,1.4539,0.2057,-0.0329,-0.1839,-0.2212,-0.0252,0.1053,0.7139,1.7451,2.6492,2.8288,2.8654,3.0327,2.7894,2.3343,2.3027,1.8765,1.2342,0.3192,0.3309,-0.728,-0.319,-0.6145,-0.5438,0.1571
2.5804,3.1406,1.9734,2.5577,1.3742,1.3765,0.0855,-0.0712,-0.2585,-0.3172,-0.0941,-0.0341,0.5346,1.5636,2.6513,2.7046,2.8281,3.0989,2.751,2.1921,2.1336,1.8211,1.2012,0.2255,0.3105,-0.8035,-0.4392,-0.7723,-0.5177,0.3144
2.4983,2.9981,1.8633,2.4072,1.2524,1.3294,-0.0062,-0.0967,-0.3222,-0.3746,-0.1519,-0.1558,0.4001,1.4178,2.6427,2.555,2.7523,3.1334,2.683,2.0524,1.9898,1.7513,1.1493,0.1467,0.2938,-0.8515,-0.5305,-0.901,-0.4781,0.4509
2.399,2.8667,1.7669,2.2809,1.1753,1.307,-0.0757,-0.114,-0.3805,-0.3976,-0.1991,-0.2527,0.3071,1.2989,2.6142,2.3825,2.6325,3.1228,2.5793,1.9135,1.8636,1.6577,1.0738,0.0783,0.281,-0.8687,-0.5917,-0.9924,-0.4328,0.5628
2.2833,2.7453,1.6803,2.1751,1.1327,1.2975,-0.1321,-0.1296,-0.4387,-0.3961,-0.2366,-0.3205,0.2465,1.1945,2.5554,2.1873,2.4655,3.059,2.4374,1.7685,1.7424,1.5327,0.9724,0.0143,0.271,-0.8533,-0.626,-1.0427,-0.3907,0.6511
2.1514,2.6282,1.5958,2.0798,1.1096,1.2854,-0.1844,-0.151,-0.5019,-0.3834,-0.2652,-0.3584,0.2073,1.0939,2.4584,1.9704,2.2537,2.9433,2.2613,1.6107,1.6148,1.3748,0.8477,-0.0507,0.2626,-0.8066,-0.639,-1.0536,-0.3615,0.7199
2.005,2.5087,1.5055,1.9831,1.092,1.2559,-0.2387,-0.1858,-0.5746,-0.3729,-0.2861,-0.3692,0.1804,0.9933,2.3223,1.7379,2.0085,2.7892,2.0635,1.4384,1.477,1.1918,0.7088,-0.1189,0.2546,-0.7326,-0.6369,-1.031,-0.3545,0.7744
1.8498,2.3827,1.4044,1.8773,1.0714,1.199,-0.2957,-0.2391,-0.6599,-0.3753,-0.3008,-0.359,0.1627,0.8983,2.155,1.5023,1.75,2.6205,1.8644,1.2589,1.3365,1.001,0.5711,-0.1875,0.2468,-0.6384,-0.6245,-0.9848,-0.3774,0.818
1.6951,2.2527,1.2939,1.762,1.048,1.1131,-0.3504,-0.3126,-0.759,-0.3958,-0.31,-0.3354,0.1583,0.8248,1.9735,1.2832,1.5048,2.4667,1.6891,1.0883,1.212,0.8276,0.4544,-0.2486,0.2401,-0.5326,-0.6042,-0.9257,-0.4346,0.8503
1.5542,2.128,1.1822,1.6468,1.0309,1.0058,-0.3927,-0.403,-0.8697,-0.4326,-0.3139,-0.3052,0.1782,0.7953,1.8014,1.1041,1.3021,2.3566,1.5633,0.95,1.131,0.6996,0.3794,-0.2908,0.2375,-0.424,-0.5747,-0.8635,-0.5259,0.8664
1.4422,2.0253,1.0844,1.5494,1.0354,0.8934,-0.4097,-0.5018,-0.9859,-0.4771,-0.3112,-0.2731,0.2371,0.8342,1.6646,0.9892,1.1685,2.3117,1.5089,0.869,1.1225,0.6433,0.3641,-0.3009,0.2434,-0.3199,-0.5325,-0.8049,-0.6458,0.8576
1.3743,1.965,1.019,1.492,1.0794,0.7973,-0.3884,-0.5964,-1.0974,-0.5158,-0.2984,-0.2405,0.3488,0.9614,1.5864,0.9586,1.1234,2.342,1.5397,0.8672,1.2112,0.6774,0.4205,-0.267,0.2638,-0.2249,-0.4723,-0.7528,-0.7835,0.8143
1.3626,1.9674,1.0045,1.4962,1.1779,0.7392,-0.3192,-0.6723,-1.1909,-0.5332,-0.2706,-0.2054,0.5223,1.187,1.5826,1.0241,1.1754,2.4445,1.6594,0.9581,1.4107,0.809,0.5523,-0.1814,0.3045,-0.1406,-0.3889,-0.7058,-0.9248,0.7283
1.4136,2.0476,1.0545,1.577,1.3386,0.736,-0.1979,-0.7165,-1.2531,-0.5158,-0.2227,-0.1641,0.7578,1.508,1.6581,1.1864,1.3203,2.6044,1.8605,1.1435,1.7199,1.0323,0.7542,-0.0419,0.3704,-0.0656,-0.2795,-0.6602,-1.0546,0.5958
1.5266,2.2108,1.1737,1.738,1.5591,0.7952,-0.0278,-0.7207,-1.2734,-0.4553,-0.1508,-0.1125,1.0455,1.9076,1.8058,1.4341,1.5415,2.7985,2.1252,1.4122,2.1226,1.3287,1.0119,0.1466,0.4638,0.003,-0.1442,-0.6109,-1.1612,0.4191
1.6922,2.449,1.3557,1.969,1.8259,0.9123,0.1802,-0.6839,-1.247,-0.3512,-0.0549,-0.0483,1.3667,2.3568,2.0075,1.7436,1.8109,2.9994,2.4272,1.741,2.5885,1.6699,1.3042,0.3729,0.584,0.0691,0.0131,-0.5536,-1.2382,0.2066
1.8929,2.7402,1.5823,2.2465,2.1158,1.0709,0.4092,-0.6133,-1.1769,-0.2105,0.0605,0.028,1.6961,2.8192,2.2358,2.0821,2.093,3.1798,2.735,2.0971,3.0783,2.0216,1.6046,0.6204,0.7263,0.1359,0.1847,-0.4861,-1.286,-0.0278
2.105,3.0503,1.8261,2.537,2.3996,1.2451,0.6381,-0.5226,-1.0729,-0.0466,0.1866,0.1129,2.0067,3.2558,2.4585,2.4115,2.3498,3.3157,3.0163,2.4431,3.549,2.3489,1.8851,0.87,0.883,0.2058,0.3609,-0.4079,-1.3107,-0.2671
2.3017,3.3382,2.0552,2.8027,2.6473,1.4053,0.8459,-0.429,-0.9501,0.1244,0.3116,0.2008,2.2736,3.6317,2.6437,2.6937,2.5458,3.3894,3.2419,2.7428,3.9603,2.6214,2.1195,1.1026,1.0444,0.2802,0.5307,-0.3206,-1.3209,-0.4941
2.4578,3.5624,2.2385,3.0085,2.8334,1.5239,1.0148,-0.3488,-0.8253,0.2864,0.4232,0.2852,2.479,3.9212,2.7647,2.8967,2.6538,3.3911,3.3905,2.9664,4.281,2.8174,2.2877,1.3025,1.2007,0.3589,0.6846,-0.227,-1.325,-0.694
2.553,3.6883,2.3515,3.1271,2.9419,1.581,1.1331,-0.294,-0.7137,0.4265,0.5112,0.3604,2.6139,4.1112,2.8042,2.9989,2.6593,3.3193,3.4507,3.0954,4.4929,2.9266,2.3781,1.4596,1.3427,0.44,0.8149,-0.1307,-1.3285,-0.857
2.5754,3.6944,2.3807,3.1444,2.9689,1.569,1.1974,-0.2689,-0.6265,0.5365,0.5688,0.4213,2.6792,4.202,2.7573,2.9927,2.5619,3.1807,3.4228,3.1248,4.5927,2.9505,2.3895,1.57,1.4626,0.5186,0.9166,-0.0364,-1.3326,-0.98
2.5235,3.5762,2.3255,3.0604,2.9232,1.4938,1.212,-0.2702,-0.5696,0.6131,0.594,0.4644,2.6839,4.206,2.6314,2.8846,2.3753,2.9883,3.3175,3.0637,4.5914,2.9009,2.3311,1.6358,1.5549,0.5876,0.9873,0.0504,-1.3348,-1.0658
2.4048,3.3465,2.1978,2.8893,2.8241,1.3733,1.1883,-0.2878,-0.543,0.6578,0.5896,0.4877,2.6432,4.144,2.4441,2.6932,2.1239,2.7589,3.1535,2.9318,4.5107,2.7971,2.2197,1.6638,1.6162,0.6381,1.027,0.1237,-1.3298,-1.1225
2.2341,3.0326,2.0186,2.6549,2.6967,1.2325,1.1415,-0.3084,-0.5416,0.6749,0.5626,0.4911,2.574,4.0404,2.2179,2.445,1.8373,2.5101,2.9532,2.7556,4.3777,2.6611,2.0761,1.6626,1.6459,0.6622,1.0376,0.178,-1.3113,-1.1599
2.0289,2.6699,1.8127,2.3862,2.5655,1.0973,1.0871,-0.319,-0.5569,0.6704,0.5227,0.4767,2.4919,3.9174,1.9757,2.1684,1.5441,2.257,2.7383,2.5614,4.2187,2.5133,1.9207,1.6409,1.6463,0.6555,1.0226,0.2104,-1.2736,-1.1879
1.8054,2.2946,1.603,2.1106,2.4489,0.988,1.0374,-0.3112,-0.5796,0.649,0.4802,0.448,2.4075,3.7911,1.7345,1.8874,1.2659,2.0091,2.5248,2.3697,4.0537,2.3678,1.7689,1.6049,1.6216,0.6179,0.986,0.2204,-1.2127,-1.2137
1.5753,1.9367,1.4056,1.849,2.3547,0.9138,0.9978,-0.2831,-0.6017,0.6128,0.4431,0.4087,2.3239,3.6679,1.5034,1.6178,1.0132,1.7691,2.3205,2.1914,3.8928,2.2302,1.6278,1.5566,1.5765,0.5529,0.9309,0.2094,-1.1266,-1.2414
1.3445,1.6151,1.2276,1.6129,2.2791,0.872,0.9662,-0.24,-0.6188,0.5606,0.4151,0.3613,2.2368,3.5444,1.2827,1.3654,0.785,1.5331,2.1245,2.0257,3.7352,2.0976,1.496,1.4933,1.514,0.4662,0.8585,0.1795,-1.0151,-1.2711
1.114,1.3365,1.0669,1.4034,2.2083,0.8485,0.9334,-0.1922,-0.6302,0.4884,0.3946,0.3059,2.1361,3.4096,1.0664,1.1266,0.5715,1.2937,1.9289,1.8627,3.571,1.9603,1.3656,1.4089,1.4354,0.3628,0.7676,0.1323,-0.88,-1.3
0.8826,1.0967,0.9152,1.2129,2.1232,0.8232,0.8864,-0.1524,-0.6389,0.3912,0.3756,0.2412,2.0096,3.2494,0.8465,0.8922,0.3579,1.0436,1.723,1.6875,3.3857,1.8062,1.2254,1.2963,1.34,0.2468,0.6556,0.0683,-0.7251,-1.322
0.6499,0.884,0.7615,1.0282,2.0045,0.775,0.8125,-0.1317,-0.6495,0.2652,0.35,0.1663,1.8477,3.0517,0.6165,0.6516,0.131,0.7796,1.4974,1.4853,3.1652,1.6249,1.066,1.1504,1.227,0.1213,0.5205,-0.0112,-0.5567,-1.3295
0.4181,0.6847,0.5965,0.835,1.8382,0.6882,0.7034,-0.1361,-0.666,0.1105,0.3111,0.0827,1.6473,2.8112,0.3756,0.397,-0.1169,0.5051,1.2482,1.2465,2.9002,1.4114,0.8831,0.9708,1.0972,-0.0104,0.3631,-0.1035,-0.3835,-1.314
0.1932,0.4867,0.4154,0.6213,1.619,0.5554,0.5587,-0.1651,-0.6888,-0.0674,0.2563,-0.0034,1.4139,2.5312,0.1296,0.1263,-0.3853,0.2307,0.9783,0.9689,2.5892,1.1673,0.6788,0.7627,0.9543,-0.1438,0.1885,-0.2024,-0.216,-1.2674
-0.0166,0.2819,0.2185,0.3797,1.3507,0.3789,0.3854,-0.212,-0.7144,-0.258,0.1883,-0.0822,1.1605,2.2226,-0.1106,-0.1574,-0.6667,-0.029,0.6964,0.658,2.2383,0.8998,0.4604,0.5364,0.8042,-0.2729,0.0055,-0.2988,-0.0649,-1.184
-0.2036,0.0665,0.0102,0.1074,1.0438,0.1681,0.1963,-0.266,-0.7361,-0.4485,0.1143,-0.1417,0.9038,1.9004,-0.3325,-0.4471,-0.9499,-0.2592,0.4136,0.3236,1.8585,0.6187,0.2373,0.3036,0.6538,-0.3915,-0.1751,-0.3822,0.0609,-1.0609
-0.3636,-0.1604,-0.2039,-0.1942,0.7119,-0.0644,0.0051,-0.3163,-0.7463,-0.6273,0.0429,-0.1722,0.6588,1.5789,-0.5268,-0.7363,-1.2245,-0.4503,0.1392,-0.0234,1.4618,0.3333,0.0175,0.0751,0.5088,-0.4948,-0.3439,-0.4442,0.1566,-0.8996
-0.4977,-0.398,-0.4194,-0.5206,0.3672,-0.3068,-0.1781,-0.3552,-0.7405,-0.7878,-0.0193,-0.1698,0.4342,1.2672,-0.6908,-1.0206,-1.485,-0.6011,-0.122,-0.3746,1.0581,0.0496,-0.1944,-0.1429,0.372,-0.5817,-0.496,-0.4811,0.2235,-0.7054
-0.6124,-0.645,-0.6342,-0.866,0.0185,-0.5505,-0.3492,-0.3804,-0.7189,-0.9306,-0.0703,-0.1388,0.2305,0.9677,-0.8297,-1.3,-1.7317,-0.72,-0.371,-0.7255,0.6531,-0.23,-0.3981,-0.3496,0.2428,-0.6556,-0.6327,-0.4959,0.2685,-0.4879
-0.7184,-0.8997,-0.8485,-1.2226,-0.3289,-0.7912,-0.5106,-0.3946,-0.6875,-1.062,-0.1134,-0.0914,0.0406,0.677,-0.9552,-1.5771,-1.9701,-0.822,-0.6129,-1.0746,0.2492,-0.5063,-0.5964,-0.5487,0.1177,-0.7231,-0.7602,-0.4982,0.3028,-0.259
