FP1,F3,F7,FC3,C3,C5,P3,P7,PO7,PO3,O1,Oz,Pz,CPz,FP2,Fz,F4,F8,FC4,FCz,Cz,C4,C6,P4,P8,PO8,PO4,O2,(corr) HEOG,(corr) VEOG
0.7868,1.0762,0.5494,1.1406,0.8925,0.578,0.3767,0.2265,0.0248,0.0881,0.3061,0.2992,0.4282,1.0994,1.0175,1.875,1.5385,1.176,1.5324,1.8863,1.5428,1.2268,1.0815,0.5883,0.4185,0.4013,0.4902,0.2988,-0.9604,-0.2562
0.7643,1.1188,0.4987,1.2132,0.9838,0.6092,0.4226,0.2614,0.0196,0.1128,0.352,0.3564,0.5269,1.1993,0.9748,1.9333,1.4264,1.124,1.484,1.9644,1.6258,1.2145,0.9865,0.6816,0.4781,0.49,0.6073,0.352,-0.9471,-0.2838
0.7011,1.1138,0.4252,1.2271,1.0377,0.6096,0.4467,0.2692,0.0059,0.128,0.3751,0.3933,0.6034,1.2715,0.8883,1.927,1.2326,1.0097,1.3498,1.9933,1.6721,1.1415,0.8233,0.75,0.5142,0.5598,0.7021,0.3811,-0.9104,-0.3002
0.6117,1.0602,0.3426,1.1837,1.0547,0.5845,0.4499,0.2481,-0.0149,0.135,0.3709,0.401,0.6491,1.3114,0.7622,1.8662,0.9879,0.8461,1.1552,1.9789,1.6821,1.0198,0.6073,0.784,0.5221,0.5986,0.7595,0.379,-0.8518,-0.3007
0.522,0.9683,0.2721,1.1003,1.0451,0.5478,0.4386,0.2019,-0.0384,0.1379,0.3398,0.3742,0.6614,1.3201,0.6081,1.7711,0.7368,0.6567,0.9416,1.9345,1.6626,0.8724,0.3644,0.7798,0.5028,0.5986,0.7698,0.3425,-0.7756,-0.281
0.4629,0.8605,0.237,1.01,1.0275,0.5197,0.423,0.1403,-0.0579,0.1426,0.2877,0.3134,0.6447,1.3047,0.4447,1.6689,0.5302,0.4733,0.759,1.8791,1.6255,0.7308,0.1294,0.7405,0.4628,0.5575,0.7313,0.2731,-0.6898,-0.2398
0.4606,0.7689,0.2557,0.9543,1.0242,0.5225,0.4146,0.0778,-0.0654,0.1553,0.2247,0.2248,0.6082,1.277,0.296,1.589,0.415,0.3307,0.6562,1.8341,1.5859,0.6304,-0.0575,0.6758,0.4137,0.4793,0.6504,0.177,-0.6057,-0.181
0.5292,0.7294,0.3361,0.9725,1.0546,0.5746,0.4228,0.0311,-0.0534,0.1809,0.1635,0.1192,0.5631,1.2499,0.1881,1.5575,0.4228,0.2604,0.6694,1.819,1.5583,0.6024,-0.159,0.5995,0.3694,0.3737,0.5401,0.064,-0.5362,-0.1146
0.6653,0.7719,0.4728,1.0897,1.1285,0.6843,0.4524,0.0161,-0.0162,0.2213,0.1168,0.0103,0.5182,1.2331,0.1431,1.5923,0.5625,0.282,0.8113,1.8467,1.5522,0.6652,-0.1497,0.5258,0.3426,0.2538,0.416,-0.0541,-0.4921,-0.0535
0.8504,0.9116,0.6487,1.3067,1.2419,0.8461,0.5011,0.0443,0.048,0.2737,0.0947,-0.0887,0.4767,1.2294,0.1744,1.699,0.8171,0.3979,1.0662,1.9203,1.5686,0.8171,-0.0234,0.4652,0.3416,0.1329,0.2929,-0.1661,-0.4795,-0.0091
1.056,1.1426,0.8399,1.5969,1.3755,1.0395,0.5593,0.1202,0.1364,0.3309,0.1029,-0.1675,0.4347,1.2326,0.2831,1.8704,1.1484,0.5916,1.3915,2.0317,1.5991,1.0345,0.2033,0.4209,0.3665,0.0213,0.1802,-0.264,-0.4973,0.0138
1.2525,1.4367,1.021,1.9102,1.4979,1.2308,0.6116,0.2396,0.2416,0.3819,0.1408,-0.2208,0.3821,1.2285,0.4573,2.0872,1.5058,0.8305,1.7281,2.1622,1.6274,1.2753,0.4944,0.3881,0.4086,-0.0748,0.0811,-0.3435,-0.5377,0.0193
1.4159,1.7491,1.1705,2.1843,1.5721,1.3797,0.6394,0.3897,0.3516,0.4138,0.2019,-0.2491,0.306,1.1985,0.6754,2.321,1.8372,1.0734,2.0131,2.2862,1.6325,1.4882,0.8004,0.3551,0.4514,-0.154,-0.0074,-0.4047,-0.5876,0.0198
1.5329,2.0279,1.2733,2.3586,1.5638,1.4474,0.6248,0.5507,0.4522,0.4144,0.275,-0.2574,0.1948,1.1246,0.9098,2.539,2.098,1.2786,2.194,2.3753,1.5942,1.6235,1.068,0.3067,0.4744,-0.2185,-0.0918,-0.4505,-0.6317,0.0323
1.6014,2.225,1.3222,2.3876,1.449,1.4048,0.554,0.6989,0.5279,0.374,0.3464,-0.2537,0.0428,0.9942,1.1325,2.7087,2.2579,1.4114,2.2388,2.4032,1.4972,1.6434,1.2494,0.229,0.4585,-0.2717,-0.1792,-0.4849,-0.6546,0.0725
1.6284,2.3059,1.3175,2.2508,1.2198,1.239,0.4206,0.8109,0.5649,0.2877,0.4023,-0.2466,-0.1481,0.8043,1.3189,2.8024,2.3032,1.4504,2.1405,2.3506,1.3354,1.5299,1.3113,0.1133,0.3909,-0.3166,-0.274,-0.5114,-0.6435,0.1505
1.6263,2.2558,1.2656,1.9559,0.8867,0.9557,0.2269,0.8674,0.5529,0.156,0.4307,-0.2438,-0.3676,0.5623,1.4503,2.8017,2.2368,1.3897,1.9173,2.2089,1.1125,1.2886,1.2412,-0.041,0.2696,-0.3541,-0.3763,-0.5319,-0.59,0.2671
1.6067,2.0814,1.1772,1.5377,0.477,0.5785,-0.0162,0.8569,0.4871,-0.0143,0.4239,-0.25,-0.6001,0.2845,1.515,2.7002,2.0753,1.2395,1.6062,1.9816,0.842,0.9472,1.0501,-0.2255,0.1042,-0.3834,-0.4816,-0.5468,-0.4915,0.4128
1.5757,1.8079,1.0649,1.0502,0.0305,0.1459,-0.2902,0.7784,0.3697,-0.2114,0.3795,-0.2668,-0.827,-0.0068,1.508,2.504,1.8445,1.0221,1.2542,1.6838,0.5443,0.5497,0.7699,-0.4243,-0.0857,-0.4019,-0.5822,-0.5552,-0.3533,0.5699
1.531,1.4725,0.9409,0.5555,-0.4065,-0.294,-0.5715,0.642,0.21,-0.4191,0.301,-0.2928,-1.0309,-0.2878,1.4308,2.2301,1.5733,0.7673,0.9072,1.3398,0.2433,0.1469,0.4463,-0.6178,-0.2744,-0.4071,-0.6689,-0.5557,-0.1895,0.716
1.4626,1.1162,0.8154,0.1119,-0.7895,-0.6913,-0.835,0.4676,0.0243,-0.6189,0.1973,-0.3242,-1.1978,-0.5368,1.2909,1.9043,1.2893,0.5062,0.6013,0.9794,-0.037,-0.2145,0.1295,-0.7864,-0.4361,-0.3975,-0.7335,-0.5472,-0.0226,0.8288
1.3574,0.7761,0.6963,-0.2365,-1.0823,-1.0023,-1.0572,0.2815,-0.167,-0.7925,0.0816,-0.3562,-1.3185,-0.7369,1.1027,1.5575,1.0157,0.2665,0.3583,0.6341,-0.2749,-0.4993,-0.1358,-0.9144,-0.5499,-0.3735,-0.7707,-0.5302,0.1199,0.8905
1.2066,0.4809,0.59,-0.4659,-1.2625,-1.1968,-1.2198,0.1116,-0.3421,-0.9243,-0.0317,-0.3844,-1.389,-0.8769,0.8879,1.2231,0.7708,0.0703,0.1858,0.334,-0.4531,-0.6883,-0.3184,-0.9924,-0.6035,-0.3379,-0.779,-0.5073,0.2115,0.8912
1.0129,0.2506,0.5027,-0.572,-1.3227,-1.2624,-1.3117,-0.0179,-0.4819,-1.0037,-0.1289,-0.4053,-1.4085,-0.9511,0.6741,0.9348,0.5691,-0.0679,0.0819,0.1059,-0.558,-0.7776,-0.4043,-1.0172,-0.5942,-0.2946,-0.7601,-0.4825,0.2328,0.831
0.7933,0.0977,0.4417,-0.5647,-1.269,-1.2048,-1.3297,-0.0908,-0.5725,-1.026,-0.199,-0.4167,-1.3781,-0.9572,0.4925,0.7246,0.4223,-0.14,0.0389,-0.0283,-0.5805,-0.7752,-0.3974,-0.9905,-0.5282,-0.2476,-0.7179,-0.46,0.1764,0.7189
0.5776,0.0309,0.416,-0.4609,-1.1169,-1.0443,-1.2776,-0.1008,-0.6071,-0.9921,-0.2352,-0.4169,-1.299,-0.8953,0.3734,0.619,0.3401,-0.1442,0.0481,-0.0529,-0.5149,-0.6966,-0.3156,-0.9171,-0.4184,-0.1998,-0.6561,-0.443,0.0493,0.5707
0.4007,0.0559,0.4341,-0.2789,-0.887,-0.8107,-1.1648,-0.0526,-0.5862,-0.908,-0.2344,-0.4042,-1.1716,-0.7664,0.3409,0.6367,0.3298,-0.0828,0.1032,0.0398,-0.36,-0.5589,-0.1845,-0.8025,-0.2821,-0.1516,-0.5773,-0.4311,-0.1287,0.4038
0.2935,0.1764,0.501,-0.0354,-0.6015,-0.5368,-1.0036,0.0405,-0.5173,-0.7825,-0.1971,-0.3766,-0.9948,-0.5723,0.4079,0.7854,0.3968,0.039,0.2028,0.249,-0.1185,-0.3765,-0.0306,-0.6517,-0.1374,-0.1014,-0.4813,-0.4201,-0.3291,0.2342
0.276,0.3925,0.6151,0.2558,-0.2808,-0.2539,-0.8074,0.1592,-0.4121,-0.6255,-0.1262,-0.3311,-0.7669,-0.3149,0.5727,1.0614,0.545,0.2152,0.3507,0.5657,0.2028,-0.1586,0.125,-0.4685,-0.0014,-0.0451,-0.3655,-0.4016,-0.5204,0.0737
0.3547,0.6999,0.766,0.5831,0.0583,0.012,-0.5882,0.2826,-0.2846,-0.4461,-0.0258,-0.2644,-0.4858,0.0037,0.8195,1.4508,0.7769,0.4392,0.5552,0.9747,0.5943,0.0924,0.2696,-0.2549,0.1122,0.0225,-0.225,-0.3643,-0.6748,-0.07
0.5243,1.0868,0.9364,0.9359,0.4034,0.2414,-0.3555,0.3927,-0.1475,-0.2509,0.0995,-0.173,-0.1505,0.3812,1.1209,1.9317,1.0919,0.7044,0.8253,1.4574,1.0453,0.3791,0.4003,-0.0122,0.1942,0.1067,-0.0542,-0.2967,-0.7734,-0.1916
0.7712,1.5327,1.1052,1.3028,0.7463,0.422,-0.1154,0.4774,-0.0105,-0.044,0.2455,-0.0538,0.2379,0.8145,1.4433,2.478,1.484,1.0027,1.1661,1.9944,1.5446,0.7058,0.5207,0.2582,0.2395,0.2121,0.1509,-0.1894,-0.8107,-0.287
1.0767,2.0073,1.2524,1.6691,1.081,0.5482,0.1288,0.533,0.1213,0.1728,0.4084,0.095,0.6739,1.2984,1.7538,3.061,1.9388,1.3227,1.5747,2.567,2.0813,1.0747,0.6366,0.5529,0.2471,0.3403,0.3906,-0.0378,-0.7935,-0.3527
1.418,2.4701,1.3636,2.0148,1.4016,0.6193,0.3747,0.5638,0.2473,0.3982,0.5848,0.2729,1.146,1.8231,2.026,3.6516,2.431,1.6493,2.0368,3.1566,2.6426,1.4808,0.7513,0.864,0.2184,0.489,0.6591,0.1561,-0.7387,-0.3874
1.7678,2.875,1.4316,2.3144,1.6999,0.6386,0.6194,0.5803,0.3696,0.6295,0.7704,0.4762,1.635,2.3715,2.2442,4.2201,2.9243,1.9629,2.5253,3.7433,3.2119,1.9092,0.8618,1.1782,0.1566,0.6509,0.9429,0.3827,-0.667,-0.3934
2.0944,3.1759,1.4565,2.5401,1.9648,0.6126,0.8579,0.5963,0.4909,0.8611,0.9593,0.6969,2.1131,2.9176,2.4037,4.7364,3.3743,2.2407,3.0021,4.3032,3.7657,2.334,0.9581,1.4759,0.066,0.8131,1.2214,0.6251,-0.5981,-0.3781
2.3636,3.3355,1.4424,2.6679,2.1829,0.5502,1.0819,0.6253,0.6124,1.0833,1.143,0.922,2.5457,3.4263,2.5079,5.1699,3.7348,2.4589,3.4217,4.8079,4.2728,2.72,1.0241,1.7327,-0.0484,0.9581,1.4678,0.8606,-0.5469,-0.3531
2.5431,3.3349,1.3946,2.6853,2.3413,0.462,1.2806,0.6777,0.7323,1.2831,1.3107,1.1342,2.8947,3.8574,2.563,5.4916,3.9663,2.5967,3.7388,5.225,4.6969,3.0287,1.0429,1.9225,-0.1808,1.0661,1.6536,1.0636,-0.5226,-0.3314
2.6081,3.1786,1.3171,2.5961,2.4296,0.359,1.4423,0.7582,0.8455,1.4464,1.4502,1.3137,3.1245,4.1704,2.5731,5.6773,4.0456,2.6405,3.9177,5.5221,5.0011,3.226,1.0036,2.022,-0.3245,1.1181,1.7531,1.2093,-0.5284,-0.3241
2.5472,2.8963,1.2121,2.4221,2.4437,0.2525,1.5572,0.8655,0.9447,1.5607,1.5504,1.4413,3.2089,4.333,2.5377,5.7122,3.9713,2.5879,3.9409,5.6725,5.1549,3.2907,0.9076,2.0157,-0.4713,1.1,1.7484,1.2781,-0.5639,-0.3375
2.3655,2.5375,1.0817,2.1994,2.3869,0.1543,1.6194,0.9926,1.0225,1.6183,1.6032,1.5025,3.1372,4.3269,2.4528,5.5945,3.7649,2.4501,3.8142,5.6614,5.1413,3.2204,0.772,1.8997,-0.6121,1.0067,1.6345,1.2597,-0.6262,-0.3723
2.0847,2.1613,0.93,1.9703,2.2709,0.0778,1.629,1.1286,1.074,1.6183,1.6058,1.4907,2.9168,4.1525,2.3147,5.3374,3.4658,2.2501,3.5656,5.4891,4.9603,3.0326,0.6279,1.6836,-0.7363,0.8438,1.4202,1.1555,-0.7109,-0.4233
1.7386,1.8232,0.7651,1.7732,2.1133,0.0378,1.5918,1.2612,1.0976,1.566,1.5607,1.4085,2.5725,3.8288,2.1234,4.9668,3.1217,2.018,3.2391,5.1719,4.6295,2.7604,0.5133,1.3884,-0.8332,0.6273,1.1274,0.9789,-0.8131,-0.482
1.3668,1.5621,0.6001,1.6332,1.9335,0.0484,1.5166,1.3779,1.0949,1.4711,1.4744,1.267,2.1413,3.3891,1.8858,4.5169,2.7769,1.7845,2.8835,4.7384,4.1801,2.4432,0.4625,1.0428,-0.8923,0.3814,0.7867,0.7516,-0.9271,-0.538
1.0065,1.3923,0.4511,1.5557,1.7476,0.1187,1.4129,1.4679,1.0696,1.3439,1.355,1.0824,1.6648,2.8744,1.6151,4.0235,2.463,1.573,2.5404,4.2239,3.6503,2.117,0.4963,0.6769,-0.9052,0.1327,0.4309,0.4994,-1.0461,-0.5819
0.6846,1.3015,0.3338,1.5254,1.5648,0.2486,1.2873,1.5222,1.0246,1.1916,1.2089,0.8718,1.1816,2.3253,1.329,3.5175,2.1931,1.3951,2.2347,3.6634,3.0786,1.8053,0.6142,0.3173,-0.8679,-0.0941,0.0893,0.2463,-1.1631,-0.6065
0.4136,1.2547,0.259,1.5105,1.385,0.4261,1.1416,1.5343,0.96,1.017,1.0396,0.6492,0.7205,1.7758,1.0448,3.0197,1.9607,1.2472,1.9704,3.086,2.4974,1.5146,0.7924,-0.0182,-0.7823,-0.2813,-0.2178,0.0099,-1.2704,-0.6083
0.1909,1.2038,0.229,1.4708,1.2002,0.6271,0.9732,1.4997,0.8725,0.8175,0.8464,0.4228,0.2972,1.2485,0.7754,2.538,1.7445,1.1128,1.7312,2.511,1.9293,1.2353,0.9874,-0.3215,-0.658,-0.4208,-0.4809,-0.2003,-1.3616,-0.5864
0.0022,1.1003,0.2361,1.3689,0.9976,0.8194,0.7762,1.4166,0.7559,0.5875,0.6265,0.1949,-0.0861,0.7534,0.5257,2.0682,1.5147,0.9667,1.4881,1.947,1.3857,0.9466,1.1452,-0.5943,-0.5109,-0.5134,-0.7012,-0.383,-1.4319,-0.5421
-0.1718,0.9078,0.2638,1.1799,0.7643,0.9691,0.5447,1.2864,0.6037,0.3221,0.3773,-0.0359,-0.4373,0.29,0.2937,1.5979,1.2422,0.7828,1.2088,1.3941,0.8686,0.6251,1.2136,-0.844,-0.3609,-0.5676,-0.887,-0.5429,-1.4794,-0.4779
-0.3473,0.6116,0.2918,0.8986,0.4928,1.0483,0.2763,1.1148,0.4128,0.0203,0.0999,-0.272,-0.7686,-0.1483,0.0743,1.1126,0.9058,0.5417,0.8688,0.8483,0.3747,0.2548,1.1548,-1.08,-0.2271,-0.5957,-1.0495,-0.6868,-1.5055,-0.3963
-0.5316,0.223,0.3003,0.5414,0.1842,1.0414,-0.0252,0.9122,0.1863,-0.3111,-0.1987,-0.5123,-1.091,-0.5684,-0.1358,0.6033,0.4981,0.2375,0.459,0.3066,-0.1,-0.1668,0.9552,-1.3079,-0.1236,-0.61,-1.1976,-0.8203,-1.5153,-0.3007
-0.7202,-0.2235,0.2753,0.1418,-0.1508,0.9473,-0.3485,0.6931,-0.0652,-0.6575,-0.5046,-0.7511,-1.4086,-0.9729,-0.3334,0.0717,0.0279,-0.1187,-0.0101,-0.228,-0.5556,-0.6245,0.63,-1.5266,-0.0559,-0.6194,-1.3347,-0.9451,-1.5166,-0.1947
-0.8988,-0.6792,0.2098,-0.2579,-0.4934,0.7789,-0.6756,0.4744,-0.3247,-0.9977,-0.7987,-0.9773,-1.717,-1.3574,-0.5082,-0.4673,-0.4805,-0.5004,-0.5104,-0.7443,-0.9857,-1.0883,0.2206,-1.7273,-0.0194,-0.6275,-1.4573,-1.058,-1.5198,-0.083
-1.0476,-1.0929,0.1049,-0.6164,-0.821,0.5588,-0.9851,0.2724,-0.5714,-1.3079,-1.0603,-1.1769,-2.0033,-1.7105,-0.6458,-0.9868,-0.9915,-0.8712,-1.0022,-1.2237,-1.3778,-1.52,-0.2155,-1.8954,-0.0021,-0.6326,-1.5565,-1.152,-1.5357,0.0296
-1.1481,-1.4227,-0.0323,-0.9027,-1.1121,0.3143,-1.2562,0.0999,-0.7853,-1.567,-1.2705,-1.3357,-2.2503,-2.0168,-0.7324,-1.4529,-1.4644,-1.1932,-1.4434,-1.6429,-1.7153,-1.8827,-0.6175,-2.0155,0.0116,-0.6299,-1.6215,-1.2188,-1.5745,0.1398
-1.1877,-1.6442,-0.1892,-1.1018,-1.3509,0.0703,-1.4736,-0.0369,-0.9516,-1.7606,-1.4168,-1.4434,-2.4414,-2.2611,-0.7605,-1.8322,-1.8604,-1.4355,-1.798,-1.9788,-1.9819,-2.1489,-0.934,-2.0764,0.0359,-0.6134,-1.644,-1.2519,-1.6421,0.2463
-1.1627,-1.7532,-0.3492,-1.2154,-1.5311,-0.1549,-1.6308,-0.1387,-1.0634,-1.8846,-1.4951,-1.4958,-2.5648,-2.4323,-0.7307,-2.0974,-2.1483,-1.5794,-2.0409,-2.2127,-2.1653,-2.304,-1.1321,-2.0748,0.0783,-0.5793,-1.6208,-1.2483,-1.7385,0.3495
-1.0787,-1.7609,-0.494,-1.2576,-1.655,-0.3524,-1.7304,-0.2131,-1.1232,-1.9449,-1.5103,-1.4956,-2.6168,-2.5251,-0.6515,-2.2323,-2.3081,-1.6201,-2.1592,-2.3337,-2.259,-2.3464,-1.2007,-2.0164,0.1383,-0.5268,-1.5557,-1.2098,-1.8555,0.45
-0.9485,-1.6874,-0.6062,-1.2474,-1.7317,-0.5222,-1.7831,-0.2719,-1.1411,-1.9553,-1.4745,-1.4511,-2.6013,-2.5412,-0.5352,-2.233,-2.3322,-1.5648,-2.1509,-2.3392,-2.2637,-2.2841,-1.1489,-1.9135,0.2073,-0.4584,-1.4578,-1.1426,-1.9771,0.5465
-0.7878,-1.5538,-0.6724,-1.2014,-1.7729,-0.6707,-1.8036,-0.3271,-1.1314,-1.9329,-1.4033,-1.3746,-2.5281,-2.4869,-0.3952,-2.108,-2.2262,-1.4298,-2.0232,-2.2355,-2.1861,-2.1309,-1.002,-1.7813,0.2715,-0.3786,-1.3388,-1.0554,-2.0821,0.6358
-0.6107,-1.3778,-0.686,-1.1308,-1.7895,-0.8068,-1.8062,-0.3873,-1.1085,-1.894,-1.3127,-1.2784,-2.4095,-2.3721,-0.2429,-1.8756,-2.0081,-1.2368,-1.7916,-2.0358,-2.0374,-1.9044,-0.7951,-1.6341,0.3163,-0.2929,-1.2102,-0.9573,-2.1501,0.7135
-0.427,-1.1736,-0.6483,-1.0423,-1.7904,-0.9386,-1.8013,-0.4553,-1.0831,-1.8496,-1.2145,-1.1727,-2.2576,-2.2081,-0.0862,-1.5617,-1.7072,-1.0101,-1.4804,-1.7593,-1.8319,-1.6245,-0.5669,-1.482,0.33,-0.2063,-1.0809,-0.8563,-2.1672,0.7759
-0.2417,-0.9547,-0.569,-0.9425,-1.7823,-1.0707,-1.7929,-0.527,-1.0597,-1.8037,-1.1152,-1.0636,-2.082,-2.0062,0.071,-1.1964,-1.3613,-0.7744,-1.1217,-1.429,-1.5853,-1.3141,-0.3535,-1.3305,0.3072,-0.1229,-0.9559,-0.7577,-2.1312,0.8218
-0.0566,-0.7367,-0.4648,-0.8425,-1.7703,-1.2039,-1.7785,-0.5923,-1.0362,-1.7532,-1.015,-0.953,-1.8891,-1.7774,0.2284,-0.8109,-1.0122,-0.5516,-0.7532,-1.0697,-1.313,-0.9974,-0.1843,-1.1812,0.2484,-0.046,-0.8369,-0.6639,-2.0524,0.8519
0.1266,-0.5387,-0.3568,-0.7579,-1.7578,-1.3345,-1.7509,-0.6373,-1.0052,-1.6896,-0.9093,-0.8395,-1.6826,-1.5317,0.3882,-0.4337,-0.6982,-0.3589,-0.4121,-0.7055,-1.0295,-0.6979,-0.0784,-1.0336,0.16,0.0216,-0.7233,-0.5755,-1.9507,0.8683
0.304,-0.3789,-0.2666,-0.7045,-1.7455,-1.4566,-1.6997,-0.648,-0.9569,-1.6022,-0.7911,-0.7209,-1.4646,-1.2775,0.5524,-0.0868,-0.4473,-0.2059,-0.1281,-0.3566,-0.7462,-0.4338,-0.0422,-0.8867,0.0512,0.0774,-0.6139,-0.4919,-1.8493,0.8735
0.4703,-0.2691,-0.2114,-0.6908,-1.7296,-1.5626,-1.615,-0.6135,-0.882,-1.4816,-0.6538,-0.5952,-1.2362,-1.0213,0.7203,0.2175,-0.27,-0.0934,0.0839,-0.0362,-0.471,-0.2142,-0.0685,-0.7402,-0.0667,0.1189,-0.5075,-0.4125,-1.7675,0.8692
0.6205,-0.2077,-0.1999,-0.7106,-1.7002,-1.6436,-1.4888,-0.5279,-0.7738,-1.3217,-0.4933,-0.4625,-0.9975,-0.7665,0.8858,0.478,-0.1569,-0.0129,0.2279,0.2514,-0.2065,-0.037,-0.1376,-0.5942,-0.1824,0.1442,-0.4039,-0.3375,-1.7157,0.8566
0.7524,-0.178,-0.2299,-0.7414,-1.642,-1.6894,-1.3165,-0.3916,-0.6297,-1.121,-0.3097,-0.325,-0.7482,-0.5131,1.0376,0.7036,-0.0821,0.0502,0.3254,0.5108,0.0492,0.1104,-0.2213,-0.4493,-0.2859,0.1525,-0.3034,-0.2681,-1.6921,0.8369
0.8668,-0.1514,-0.2884,-0.7488,-1.5366,-1.6874,-1.0982,-0.2102,-0.4514,-0.8834,-0.1076,-0.187,-0.4877,-0.2585,1.1599,0.9088,-0.0113,0.1127,0.408,0.7525,0.3013,0.2464,-0.2892,-0.3063,-0.3704,0.1437,-0.2074,-0.2065,-1.6847,0.8109
0.9669,-0.0968,-0.355,-0.6964,-1.3682,-1.6242,-0.8389,0.0067,-0.245,-0.6173,0.1039,-0.0543,-0.2167,0.0011,1.2366,1.1077,0.0863,0.1874,0.5072,0.9886,0.5553,0.3894,-0.3157,-0.1668,-0.4334,0.119,-0.1178,-0.1558,-1.6747,0.7787
1.0544,0.0086,-0.408,-0.5571,-1.1286,-1.4881,-0.5486,0.2474,-0.0203,-0.3357,0.3131,0.0661,0.0619,0.2678,1.255,1.3086,0.2276,0.2798,0.644,1.2271,0.8141,0.5513,-0.2861,-0.0333,-0.4773,0.0799,-0.0377,-0.1194,-1.6423,0.7391
1.1259,0.1711,-0.4299,-0.3234,-0.8224,-1.2745,-0.242,0.4992,0.2098,-0.0548,0.5064,0.1676,0.3408,0.5397,1.2088,1.5097,0.4097,0.3857,0.8221,1.4685,1.0754,0.7335,-0.1994,0.0898,-0.5079,0.0289,0.0289,-0.1002,-1.5718,0.6887
1.1713,0.3773,-0.4126,-0.0124,-0.4687,-0.99,0.0624,0.7496,0.4306,0.2073,0.6712,0.2443,0.6086,0.8085,1.0994,1.6992,0.6112,0.4921,1.0272,1.7034,1.33,0.9261,-0.068,0.1961,-0.5325,-0.0314,0.0779,-0.1001,-1.4565,0.6232
1.1743,0.5963,-0.3583,0.3349,-0.1004,-0.6557,0.3449,0.9871,0.6274,0.4328,0.7974,0.2922,0.8503,1.0597,0.934,1.8578,0.7987,0.5808,1.2312,1.9146,1.5623,1.1103,0.0856,0.2777,-0.5573,-0.0972,0.1053,-0.1197,-1.2996,0.5382
1.1162,0.7886,-0.2785,0.6622,0.2419,-0.3051,0.5866,1.2018,0.7879,0.6069,0.8793,0.3103,1.0497,1.2744,0.7235,1.9641,0.938,0.6328,1.3999,2.0806,1.7531,1.2632,0.2342,0.3272,-0.5847,-0.1644,0.109,-0.1571,-1.1141,0.4314
0.9824,0.9171,-0.1895,0.9118,0.5192,0.022,0.7731,1.3863,0.9046,0.7205,0.9168,0.3006,1.1928,1.4334,0.4806,2.001,1.0048,0.6343,1.5031,2.1819,1.8841,1.3644,0.3529,0.3397,-0.6121,-0.227,0.0904,-0.2079,-0.9198,0.3041
0.7687,0.9583,-0.107,1.0415,0.7028,0.2886,0.8967,1.5356,0.9756,0.7719,0.9148,0.2688,1.2714,1.5221,0.2185,1.9619,0.993,0.5813,1.5234,2.2072,1.9428,1.401,0.4248,0.3159,-0.6324,-0.2778,0.0553,-0.2647,-0.7387,0.1619
0.4869,0.9092,-0.0416,1.0364,0.7818,0.4693,0.9576,1.6479,1.0052,0.7672,0.8825,0.2229,1.285,1.5347,-0.0487,1.8525,0.9176,0.4816,1.4615,2.1566,1.9262,1.372,0.4444,0.2626,-0.6354,-0.3086,0.0137,-0.3177,-0.5897,0.014
0.1642,0.787,0.0031,0.913,0.7646,0.5562,0.9633,1.7237,1.0017,0.7186,0.8305,0.172,1.2409,1.4758,-0.3075,1.69,0.8086,0.3526,1.3358,2.0421,1.8415,1.2873,0.4174,0.1924,-0.6117,-0.3117,-0.0222,-0.3568,-0.4847,-0.1279
-0.1608,0.6214,0.0298,0.7118,0.6746,0.5593,0.9263,1.7662,0.9751,0.641,0.7684,0.1233,1.1516,1.3585,-0.5455,1.4972,0.7003,0.2153,1.1748,1.8832,1.7038,1.1638,0.3562,0.1201,-0.5556,-0.2828,-0.0415,-0.3742,-0.4265,-0.2509
-0.4474,0.4436,0.044,0.4844,0.5423,0.5025,0.8604,1.7793,0.9345,0.5486,0.7024,0.0805,1.0319,1.2013,-0.7537,1.2958,0.6177,0.0874,1.0063,1.7008,1.5314,1.0195,0.2749,0.0595,-0.4675,-0.2225,-0.0379,-0.3669,-0.4096,-0.3427
-0.6635,0.276,0.05,0.2769,0.3963,0.4162,0.7777,1.768,0.8856,0.4522,0.6344,0.0426,0.8954,1.0226,-0.9276,1.0992,0.5655,-0.0231,0.8476,1.5108,1.3404,0.8674,0.185,0.0192,-0.3544,-0.1382,-0.0124,-0.3384,-0.4231,-0.3944
-0.7942,0.1272,0.0478,0.1187,0.2565,0.3287,0.687,1.7372,0.831,0.3575,0.5626,0.0047,0.7532,0.8378,-1.0675,0.9106,0.5262,-0.1189,0.7001,1.3208,1.1418,0.713,0.0926,0.0013,-0.2281,-0.0424,0.0275,-0.2983,-0.4542,-0.4022
-0.846,-0.0078,0.033,0.0176,0.1319,0.2603,0.5931,1.6917,0.7704,0.2663,0.4839,-0.0395,0.6126,0.6568,-1.1772,0.7234,0.4662,-0.2111,0.5516,1.1299,0.9408,0.5547,-0.0007,0.002,-0.1021,0.0492,0.0695,-0.2591,-0.4903,-0.3698
-0.8444,-0.1405,-0.0009,-0.0367,0.0216,0.2196,0.4983,1.6356,0.7024,0.1776,0.3958,-0.0954,0.4789,0.4842,-1.2627,0.5276,0.3491,-0.3129,0.385,0.9329,0.7386,0.3878,-0.0947,0.0127,0.0123,0.122,0.1005,-0.2334,-0.5216,-0.3085
-0.8253,-0.2818,-0.0589,-0.0645,-0.0811,0.203,0.4037,1.5719,0.6265,0.09,0.2987,-0.1651,0.355,0.3213,-1.3294,0.3154,0.1521,-0.4322,0.1891,0.7251,0.5356,0.2096,-0.187,0.0237,0.1076,0.1659,0.1103,-0.2297,-0.5408,-0.2356
-0.8234,-0.436,-0.1403,-0.0878,-0.1843,0.1975,0.3105,1.5023,0.5433,0.0035,0.1967,-0.2466,0.2424,0.1676,-1.3813,0.0872,-0.1245,-0.5672,-0.0335,0.5071,0.3346,0.0233,-0.2703,0.0263,0.1816,0.1779,0.0942,-0.2505,-0.5444,-0.1699
-0.8616,-0.5987,-0.2379,-0.124,-0.2949,0.1852,0.2205,1.4272,0.4558,-0.0805,0.0973,-0.3339,0.1416,0.0227,-1.4211,-0.1474,-0.4542,-0.7066,-0.2644,0.2861,0.1413,-0.1614,-0.333,0.0143,0.2353,0.1625,0.0541,-0.2916,-0.5326,-0.1257
-0.9442,-0.76,-0.3387,-0.1832,-0.4174,0.1483,0.1356,1.3458,0.3684,-0.1585,0.0097,-0.4187,0.0514,-0.1134,-1.4512,-0.372,-0.7923,-0.8333,-0.4757,0.0739,-0.0367,-0.3313,-0.3631,-0.0146,0.2716,0.13,-0.0026,-0.3434,-0.5099,-0.1086
-1.0579,-0.9081,-0.4286,-0.2683,-0.5534,0.0736,0.0574,1.2568,0.2859,-0.227,-0.0572,-0.4922,-0.0303,-0.2397,-1.4755,-0.5688,-1.0881,-0.931,-0.6384,-0.1168,-0.1921,-0.4734,-0.3534,-0.0597,0.292,0.0938,-0.0647,-0.3942,-0.4844,-0.1133
-1.1778,-1.032,-0.498,-0.3749,-0.7014,-0.0441,-0.0134,1.159,0.2126,-0.2827,-0.097,-0.5471,-0.1055,-0.3544,-1.4993,-0.7235,-1.2992,-0.989,-0.7308,-0.2766,-0.3203,-0.5789,-0.3045,-0.1173,0.2962,0.0673,-0.12,-0.4324,-0.4655,-0.1259
-1.2769,-1.1223,-0.5461,-0.4916,-0.8563,-0.2005,-0.0772,1.0522,0.1513,-0.3235,-0.1072,-0.5785,-0.1745,-0.4548,-1.5286,-0.8292,-1.4003,-1.004,-0.7431,-0.4016,-0.4197,-0.6437,-0.2256,-0.1812,0.283,0.0608,-0.1572,-0.4494,-0.4624,-0.1294
-1.3349,-1.1713,-0.5817,-0.6016,-1.0084,-0.3826,-0.1339,0.9379,0.1033,-0.3482,-0.0896,-0.5842,-0.2346,-0.5363,-1.5683,-0.8868,-1.3877,-0.9796,-0.678,-0.493,-0.4912,-0.6682,-0.1314,-0.2424,0.2526,0.0801,-0.1675,-0.44,-0.4808,-0.1099
-1.3436,-1.1743,-0.6206,-0.6867,-1.1446,-0.5726,-0.1829,0.8193,0.0682,-0.3571,-0.0498,-0.5644,-0.2797,-0.5933,-1.6195,-0.9035,-1.2773,-0.9241,-0.549,-0.5554,-0.5368,-0.6565,-0.0384,-0.2901,0.2089,0.1266,-0.1448,-0.4031,-0.522,-0.0618
-1.3082,-1.1308,-0.6799,-0.7325,-1.2506,-0.7516,-0.2226,0.7012,0.0442,-0.3509,0.0047,-0.5207,-0.3018,-0.6201,-1.6784,-0.8908,-1.0996,-0.8482,-0.3786,-0.5953,-0.5589,-0.6154,0.0379,-0.3138,0.1607,0.1978,-0.087,-0.3407,-0.5821,0.0101
-1.2443,-1.0479,-0.7723,-0.7334,-1.3154,-0.9047,-0.2509,0.5886,0.0287,-0.332,0.0649,-0.4558,-0.2936,-0.6133,-1.736,-0.8615,-0.8934,-0.7632,-0.1959,-0.6191,-0.5607,-0.5556,0.0855,-0.3055,0.1196,0.2879,0.0039,-0.2575,-0.6538,0.0925
-1.1724,-0.9399,-0.9001,-0.6952,-1.3344,-1.0227,-0.2671,0.486,0.0181,-0.3041,0.1225,-0.3736,-0.2517,-0.5734,-1.7797,-0.8278,-0.698,-0.6802,-0.0325,-0.6326,-0.5462,-0.4902,0.0972,-0.2621,0.0975,0.3894,0.1218,-0.1597,-0.7282,0.1681
-1.111,-0.8269,-1.0531,-0.6344,-1.3115,-1.1032,-0.2723,0.3967,0.0088,-0.2727,0.17,-0.2792,-0.1786,-0.5064,-1.7969,-0.7988,-0.5456,-0.6089,0.0823,-0.6407,-0.5214,-0.4337,0.071,-0.1874,0.1022,0.4935,0.2562,-0.0552,-0.7982,0.221
-1.0711,-0.7301,-1.2092,-0.5729,-1.2583,-1.1493,-0.2704,0.3227,-0.0034,-0.2447,0.2014,-0.1793,-0.084,-0.4232,-1.7786,-0.7796,-0.4558,-0.5573,0.1279,-0.6471,-0.4936,-0.3994,0.01,-0.0918,0.1345,0.5904,0.3935,0.0475,-0.8595,0.2425
-1.0535,-0.6658,-1.3395,-0.532,-1.1914,-1.1676,-0.2674,0.2646,-0.0221,-0.2275,0.2127,-0.0823,0.0165,-0.3383,-1.7225,-0.7707,-0.4338,-0.5311,0.0959,-0.6545,-0.4711,-0.3974,-0.0797,0.009,0.1868,0.67,0.517,0.1384,-0.911,0.2332
-1.0491,-0.6402,-1.4147,-0.525,-1.1277,-1.1652,-0.2704,0.2218,-0.0504,-0.2277,0.2016,0.0024,0.1039,-0.2672,-1.6341,-0.7688,-0.4716,-0.5332,-0.0084,-0.6646,-0.4618,-0.4332,-0.19,0.0957,0.2447,0.7214,0.6095,0.2077,-0.954,0.2033
-1.0415,-0.6476,-1.4123,-0.5529,-1.08,-1.1472,-0.2857,0.1934,-0.0896,-0.2497,0.1684,0.0653,0.1597,-0.2226,-1.5237,-0.7679,-0.5528,-0.5642,-0.1689,-0.6778,-0.471,-0.5078,-0.3133,0.1494,0.29,0.735,0.6547,0.2462,-0.9899,0.1694
-1.0123,-0.6717,-1.3212,-0.6035,-1.0534,-1.1146,-0.3165,0.1782,-0.1384,-0.2935,0.1162,0.0991,0.1702,-0.2125,-1.4034,-0.7609,-0.6582,-0.6215,-0.3629,-0.6927,-0.5004,-0.6181,-0.4433,0.1549,0.3063,0.7039,0.6411,0.2476,-1.0187,0.1495
-0.9452,-0.6907,-1.1436,-0.6557,-1.0449,-1.0649,-0.3622,0.1758,-0.1919,-0.3545,0.0512,0.1004,0.1298,-0.2377,-1.282,-0.7415,-0.7692,-0.699,-0.5661,-0.7065,-0.5473,-0.7569,-0.5748,0.1048,0.2824,0.6264,0.5643,0.2098,-1.0379,0.1579
-0.8309,-0.6833,-0.8935,-0.6853,-1.0442,-0.9935,-0.4173,0.1866,-0.2426,-0.4234,-0.0184,0.0711,0.0428,-0.2923,-1.1629,-0.7051,-0.8708,-0.7869,-0.7548,-0.7149,-0.6043,-0.9123,-0.702,0.0019,0.2155,0.5072,0.4297,0.1367,-1.0427,0.2013
-0.6695,-0.6343,-0.594,-0.6726,-1.0379,-0.897,-0.4727,0.2116,-0.2811,-0.4878,-0.0832,0.0175,-0.0778,-0.3651,-1.0442,-0.6492,-0.9516,-0.8722,-0.908,-0.7126,-0.6613,-1.0682,-0.817,-0.1416,0.1105,0.3576,0.2512,0.037,-1.0279,0.2773
-0.4709,-0.5375,-0.2728,-0.6078,-1.0139,-0.7758,-0.5179,0.2516,-0.2993,-0.5358,-0.135,-0.0509,-0.2133,-0.4435,-0.9218,-0.5741,-1.0038,-0.9412,-1.0093,-0.6949,-0.7078,-1.2052,-0.9104,-0.3059,-0.0223,0.1934,0.0496,-0.0773,-0.9899,0.3758
-0.253,-0.3977,0.0421,-0.4943,-0.9663,-0.6365,-0.5438,0.306,-0.2922,-0.5586,-0.169,-0.1241,-0.3439,-0.5164,-0.7944,-0.4827,-1.0233,-0.9832,-1.0489,-0.6593,-0.7363,-1.3049,-0.9737,-0.4692,-0.1705,0.0316,-0.1524,-0.1935,-0.9275,0.483
-0.0375,-0.2288,0.3258,-0.3485,-0.8975,-0.491,-0.5455,0.3721,-0.2597,-0.5526,-0.1841,-0.1942,-0.4534,-0.5774,-0.6672,-0.3809,-1.0096,-0.9939,-1.0263,-0.6069,-0.7442,-1.3538,-1.0025,-0.6122,-0.3225,-0.1129,-0.3347,-0.3009,-0.8432,0.5858
0.1553,-0.0519,0.5608,-0.1949,-0.8175,-0.3544,-0.5232,0.4455,-0.2062,-0.5203,-0.1832,-0.2561,-0.5321,-0.6256,-0.5527,-0.2757,-0.9647,-0.9763,-0.9506,-0.5417,-0.7343,-1.3464,-0.9979,-0.7227,-0.4683,-0.2302,-0.4837,-0.3932,-0.7413,0.6754
0.3109,0.1097,0.7379,-0.0598,-0.7407,-0.2405,-0.4814,0.5209,-0.1391,-0.4686,-0.171,-0.3084,-0.5779,-0.6642,-0.4671,-0.1742,-0.8922,-0.9393,-0.8389,-0.4703,-0.713,-1.2868,-0.9657,-0.797,-0.5996,-0.3162,-0.5935,-0.468,-0.6268,0.7483
0.4234,0.2357,0.8562,0.0367,-0.6807,-0.1581,-0.4277,0.5942,-0.0661,-0.4064,-0.1526,-0.3514,-0.5945,-0.6978,-0.4248,-0.0809,-0.7966,-0.894,-0.712,-0.399,-0.6879,-1.1871,-0.9143,-0.8395,-0.7089,-0.3727,-0.6658,-0.5271,-0.504,0.8051
0.4947,0.3131,0.9207,0.0862,-0.6457,-0.1081,-0.37,0.6631,0.0067,-0.3423,-0.1312,-0.3867,-0.5897,-0.7301,-0.4326,0.0025,-0.6832,-0.8503,-0.5897,-0.3325,-0.6646,-1.0653,-0.8521,-0.86,-0.7894,-0.4055,-0.7077,-0.5747,-0.3765,0.848
0.5318,0.3391,0.9386,0.0933,-0.6369,-0.0845,-0.3153,0.7271,0.0753,-0.2833,-0.1086,-0.4161,-0.5726,-0.7625,-0.4858,0.077,-0.5606,-0.8144,-0.4882,-0.2732,-0.6461,-0.9422,-0.7875,-0.871,-0.8361,-0.4226,-0.7295,-0.6158,-0.2483,0.8785
0.5429,0.3213,0.9165,0.0727,-0.6487,-0.0776,-0.2689,0.7868,0.1372,-0.2339,-0.085,-0.4408,-0.5518,-0.7941,-0.5689,0.1446,-0.4418,-0.7898,-0.4187,-0.2219,-0.6325,-0.8397,-0.73,-0.8848,-0.8473,-0.4325,-0.742,-0.655,-0.1245,0.8951
0.5332,0.2743,0.8594,0.0442,-0.6707,-0.0775,-0.2341,0.8428,0.1913,-0.1966,-0.0607,-0.4616,-0.5336,-0.8228,-0.6598,0.2062,-0.345,-0.7785,-0.3879,-0.1785,-0.6227,-0.7774,-0.6909,-0.9111,-0.8259,-0.4426,-0.7546,-0.6954,-0.0126,0.8939
0.5036,0.2159,0.7721,0.0257,-0.6915,-0.0774,-0.2123,0.8948,0.2361,-0.1723,-0.0367,-0.4788,-0.5214,-0.8459,-0.7359,0.2612,-0.29,-0.7818,-0.3983,-0.1433,-0.6152,-0.7699,-0.6828,-0.9552,-0.7788,-0.4574,-0.7732,-0.7378,0.0787,0.8697
0.4521,0.1615,0.6615,0.029,-0.7014,-0.0746,-0.2028,0.9413,0.2704,-0.1605,-0.0147,-0.4922,-0.5158,-0.8613,-0.7808,0.3067,-0.2926,-0.801,-0.4475,-0.1165,-0.6088,-0.8224,-0.7151,-1.0168,-0.7167,-0.4781,-0.7996,-0.7805,0.141,0.819
0.3771,0.1212,0.5382,0.0568,-0.6951,-0.0695,-0.2033,0.9801,0.293,-0.1593,0.003,-0.5008,-0.5143,-0.8675,-0.7889,0.3393,-0.3591,-0.8358,-0.5279,-0.0982,-0.6027,-0.9282,-0.7896,-1.09,-0.6509,-0.5025,-0.8312,-0.8189,0.1689,0.7428
0.2813,0.0984,0.4156,0.1042,-0.6718,-0.0634,-0.2098,1.0087,0.304,-0.1653,0.0148,-0.5029,-0.513,-0.8637,-0.7669,0.3562,-0.4826,-0.8837,-0.6265,-0.0877,-0.5959,-1.0687,-0.8961,-1.1648,-0.5923,-0.5252,-0.8618,-0.847,0.1617,0.6488
0.1739,0.0909,0.3071,0.1615,-0.6351,-0.0567,-0.2177,1.0257,0.3047,-0.1739,0.0203,-0.497,-0.5077,-0.8501,-0.7314,0.3563,-0.6444,-0.9391,-0.7273,-0.0832,-0.5869,-1.2165,-1.0135,-1.2291,-0.5486,-0.5394,-0.8838,-0.8585,0.1237,0.551
0.0699,0.0923,0.2218,0.2182,-0.5907,-0.0474,-0.2221,1.0315,0.2985,-0.1799,0.0204,-0.482,-0.4948,-0.8279,-0.7028,0.3404,-0.819,-0.9945,-0.8143,-0.0818,-0.5737,-1.3424,-1.1141,-1.2718,-0.5237,-0.5388,-0.8898,-0.8485,0.0632,0.4671
-0.0141,0.0941,0.1621,0.2663,-0.5441,-0.0319,-0.2191,1.0282,0.2897,-0.1784,0.0175,-0.4582,-0.4727,-0.799,-0.699,0.3113,-0.9807,-1.0423,-0.876,-0.0803,-0.5541,-1.4219,-1.1718,-1.2853,-0.5174,-0.519,-0.8749,-0.8154,-0.0098,0.4132
-0.0638,0.089,0.1238,0.3017,-0.4994,-0.0076,-0.2062,1.0197,0.2833,-0.1651,0.0143,-0.4273,-0.4411,-0.7655,-0.7281,0.2734,-1.1098,-1.0752,-0.906,-0.0749,-0.5254,-1.4402,-1.169,-1.2671,-0.5257,-0.4791,-0.8381,-0.7616,-0.0855,0.3988
-0.0714,0.0734,0.0992,0.3251,-0.4577,0.0245,-0.1819,1.0106,0.2841,-0.1375,0.0138,-0.392,-0.4001,-0.7281,-0.7862,0.2332,-1.1943,-1.0872,-0.9024,-0.0608,-0.4842,-1.3935,-1.1005,-1.2189,-0.5429,-0.4216,-0.7815,-0.6929,-0.1551,0.4235
-0.038,0.0495,0.0818,0.3402,-0.418,0.0584,-0.1463,1.0052,0.2954,-0.0944,0.0187,-0.3552,-0.3495,-0.6856,-0.8582,0.199,-1.2292,-1.0739,-0.8654,-0.0327,-0.4267,-1.2873,-0.9736,-1.146,-0.5623,-0.3523,-0.7102,-0.6171,-0.2107,0.476
0.0271,0.0244,0.0691,0.3516,-0.3779,0.0844,-0.1004,1.0065,0.3187,-0.0369,0.0307,-0.3192,-0.2883,-0.6344,-0.9238,0.1797,-1.2148,-1.0328,-0.7955,0.0153,-0.3494,-1.1341,-0.8056,-1.0549,-0.5783,-0.2781,-0.63,-0.5424,-0.2449,0.5376
0.1079,0.0063,0.0634,0.3613,-0.3363,0.092,-0.0474,1.0147,0.3528,0.0314,0.0504,-0.2848,-0.2155,-0.5708,-0.9646,0.1826,-1.1549,-0.9648,-0.6934,0.087,-0.2507,-0.9508,-0.6208,-0.9523,-0.5861,-0.206,-0.5473,-0.4749,-0.2507,0.5872
0.1854,0.0014,0.0698,0.3677,-0.2945,0.0733,0.0079,1.0276,0.3938,0.1042,0.0771,-0.2517,-0.1315,-0.4924,-0.9704,0.2108,-1.0572,-0.8753,-0.5626,0.1828,-0.1328,-0.7565,-0.4449,-0.8444,-0.5829,-0.141,-0.4673,-0.4182,-0.2226,0.6071
0.2424,0.0108,0.0925,0.3669,-0.2565,0.0258,0.0585,1.0405,0.4356,0.1736,0.1087,-0.218,-0.0395,-0.4006,-0.9414,0.2612,-0.9343,-0.7746,-0.4114,0.2978,-0.0022,-0.5707,-0.3006,-0.7367,-0.567,-0.0858,-0.3936,-0.3719,-0.1595,0.5879
0.2673,0.0311,0.1307,0.3561,-0.2279,-0.0457,0.0969,1.0483,0.4715,0.2311,0.1429,-0.1811,0.0544,-0.3002,-0.888,0.3246,-0.8031,-0.6756,-0.2541,0.4228,0.1304,-0.4108,-0.203,-0.6332,-0.5378,-0.0395,-0.3278,-0.3325,-0.0668,0.531
0.2574,0.0569,0.1766,0.3373,-0.2136,-0.1304,0.1166,1.0463,0.4958,0.27,0.1774,-0.1375,0.1424,-0.1986,-0.8261,0.3882,-0.6832,-0.5908,-0.1083,0.546,0.2534,-0.2889,-0.1561,-0.5361,-0.4955,0.0014,-0.2684,-0.2938,0.043,0.448
0.2185,0.0834,0.2172,0.3177,-0.2162,-0.2135,0.114,1.0319,0.5053,0.2866,0.2111,-0.0841,0.2168,-0.1036,-0.7725,0.4393,-0.5922,-0.5296,0.0094,0.6558,0.3564,-0.2102,-0.1526,-0.4461,-0.4418,0.0424,-0.2119,-0.2489,0.1523,0.3579
0.1624,0.1081,0.2385,0.3078,-0.235,-0.2802,0.0892,1.006,0.5001,0.2818,0.2441,-0.0191,0.2723,-0.0213,-0.7407,0.4691,-0.5413,-0.4952,0.0876,0.7442,0.4334,-0.1723,-0.1768,-0.3624,-0.3797,0.0889,-0.1532,-0.1912,0.2434,0.2809
0.103,0.1309,0.2302,0.3174,-0.2667,-0.3195,0.0467,0.9722,0.483,0.2601,0.2772,0.0571,0.3072,0.0452,-0.7375,0.4752,-0.5317,-0.4855,0.1226,0.8077,0.4832,-0.1677,-0.2107,-0.2846,-0.3143,0.1445,-0.0882,-0.1171,0.3035,0.2338
0.0521,0.1524,0.1896,0.3502,-0.3069,-0.3273,-0.0064,0.9368,0.4589,0.2283,0.3109,0.1406,0.3225,0.0955,-0.7619,0.462,-0.5548,-0.4945,0.1169,0.8478,0.5092,-0.1883,-0.2417,-0.2143,-0.253,0.2088,-0.0155,-0.0274,0.3286,0.2252
0.0175,0.1717,0.1219,0.4013,-0.3525,-0.3082,-0.062,0.9064,0.4326,0.1934,0.3443,0.2243,0.3215,0.1309,-0.8048,0.4392,-0.5954,-0.5159,0.0754,0.8692,0.5175,-0.2289,-0.2678,-0.156,-0.205,0.277,0.0615,0.0714,0.324,0.2542
0.0021,0.1854,0.0396,0.4571,-0.4024,-0.2739,-0.1133,0.8861,0.4075,0.16,0.3749,0.2985,0.3067,0.1529,-0.8513,0.4184,-0.6379,-0.5455,0.002,0.8782,0.5144,-0.2899,-0.2997,-0.1175,-0.1803,0.3399,0.1341,0.1681,0.3022,0.3118
0.0061,0.1882,-0.0406,0.4986,-0.4576,-0.2396,-0.156,0.8786,0.3848,0.1299,0.399,0.3531,0.2796,0.1626,-0.8833,0.4106,-0.6705,-0.5824,-0.1017,0.881,0.5052,-0.3757,-0.3566,-0.1085,-0.1877,0.3862,0.1896,0.2482,0.2784,0.3836
0.0293,0.1756,-0.0997,0.5085,-0.5187,-0.2187,-0.1887,0.8835,0.3637,0.1018,0.4134,0.3802,0.2403,0.161,-0.8833,0.4247,-0.6873,-0.6277,-0.2338,0.8844,0.4942,-0.4904,-0.4575,-0.1376,-0.2324,0.4053,0.2148,0.2978,0.2659,0.4546
0.0728,0.1472,-0.121,0.478,-0.5831,-0.2183,-0.2114,0.8982,0.3426,0.0729,0.4163,0.376,0.1886,0.15,-0.8384,0.467,-0.6862,-0.6807,-0.387,0.8954,0.4859,-0.6323,-0.6122,-0.2092,-0.3134,0.3904,0.1999,0.3071,0.2733,0.5114
0.1391,0.1097,-0.093,0.4113,-0.6432,-0.2363,-0.2253,0.9187,0.3203,0.0401,0.4085,0.3422,0.1256,0.1339,-0.7428,0.5418,-0.6657,-0.7361,-0.5437,0.922,0.4856,-0.7897,-0.8135,-0.3207,-0.4224,0.3415,0.142,0.2734,0.3027,0.5451
0.2303,0.0772,-0.0128,0.3265,-0.6868,-0.2627,-0.231,0.9415,0.2969,0.0019,0.3929,0.285,0.0546,0.119,-0.5992,0.6505,-0.6209,-0.7825,-0.6764,0.9724,0.4993,-0.9408,-1.0361,-0.4611,-0.5444,0.2649,0.0464,0.2017,0.3507,0.5503
0.3454,0.0688,0.1134,0.252,-0.698,-0.2821,-0.2285,0.965,0.2747,-0.0411,0.3739,0.2135,-0.0191,0.1133,-0.4183,0.7919,-0.5439,-0.8039,-0.7515,1.0535,0.5331,-1.057,-1.2416,-0.6129,-0.6603,0.1729,-0.0737,0.1037,0.411,0.5251
0.4785,0.1045,0.2717,0.2196,-0.6614,-0.278,-0.2167,0.99,0.2576,-0.0857,0.3567,0.1379,-0.0884,0.1239,-0.2168,0.9615,-0.4254,-0.784,-0.7383,1.1686,0.5913,-1.1104,-1.3886,-0.7543,-0.7513,0.0804,-0.1999,-0.0046,0.4764,0.4703
0.6193,0.1998,0.4449,0.257,-0.5651,-0.2359,-0.1931,1.0198,0.2512,-0.1259,0.3458,0.068,-0.1457,0.1558,-0.0143,1.151,-0.2597,-0.7116,-0.6186,1.3155,0.6741,-1.0815,-1.4444,-0.8644,-0.803,0.002,-0.313,-0.1063,0.5418,0.3887
0.7539,0.361,0.617,0.3791,-0.405,-0.1471,-0.1545,1.0594,0.2617,-0.1539,0.3452,0.0117,-0.1845,0.2099,0.1705,1.3488,-0.0496,-0.5851,-0.3943,1.4862,0.7771,-0.9653,-1.3939,-0.9268,-0.809,-0.0511,-0.3964,-0.187,0.6053,0.2853
0.8685,0.5814,0.7765,0.5825,-0.1878,-0.011,-0.0978,1.1134,0.2943,-0.1618,0.3576,-0.0254,-0.2011,0.2821,0.3226,1.541,0.1894,-0.4152,-0.0901,1.6663,0.8908,-0.7745,-1.2439,-0.9336,-0.772,-0.0733,-0.4398,-0.237,0.6679,0.168
0.952,0.8407,0.917,0.8434,0.0675,0.1625,-0.022,1.1845,0.352,-0.1436,0.3839,-0.0405,-0.1951,0.3633,0.4319,1.7128,0.4301,-0.224,0.2499,1.8374,1.0014,-0.5377,-1.0215,-0.8871,-0.7037,-0.065,-0.4409,-0.2528,0.7322,0.0475
0.9981,1.1076,1.0362,1.121,0.3313,0.3532,0.0706,1.2706,0.4336,-0.0974,0.4233,-0.0342,-0.1697,0.4412,0.4923,1.8499,0.6378,-0.0413,0.5709,1.9792,1.0933,-0.2936,-0.767,-0.7992,-0.6212,-0.0326,-0.4053,-0.2374,0.8002,-0.0628
1.0067,1.3457,1.1333,1.3665,0.5682,0.5334,0.1731,1.3644,0.5331,-0.027,0.4732,-0.0096,-0.1317,0.5025,0.501,1.9409,0.7784,0.1022,0.8205,2.0737,1.1522,-0.0829,-0.5247,-0.6892,-0.5439,0.0138,-0.3449,-0.1988,0.8724,-0.148
0.9838,1.5214,1.2062,1.5349,0.7445,0.6726,0.275,1.4539,0.64,0.0583,0.5291,0.0275,-0.0892,0.5363,0.4577,1.9795,0.8287,0.1821,0.9613,2.1083,1.1679,0.0618,-0.3324,-0.5789,-0.4877,0.0626,-0.2754,-0.1484,0.9465,-0.1955
0.9396,1.612,1.2518,1.5974,0.836,0.7448,0.364,1.5252,0.741,0.1455,0.5853,0.0702,-0.0499,0.537,0.3656,1.9672,0.7853,0.1875,0.9808,2.08,1.1376,0.1232,-0.213,-0.4875,-0.4615,0.1033,-0.2116,-0.0978,1.0182,-0.1977
0.8873,1.6118,1.2668,1.5492,0.8346,0.7353,0.4289,1.5662,0.8224,0.2208,0.6362,0.1118,-0.0192,0.5063,0.2334,1.9134,0.6676,0.1249,0.8941,1.9962,1.0671,0.1038,-0.1707,-0.4269,-0.4652,0.129,-0.1648,-0.0562,1.0819,-0.1552
0.8406,1.5325,1.2498,1.4101,0.7504,0.6458,0.4621,1.5696,0.8729,0.2726,0.6769,0.1473,0.0009,0.4531,0.0774,1.8352,0.5148,0.0171,0.7393,1.8744,0.9697,0.0245,-0.1914,-0.3985,-0.49,0.1382,-0.1398,-0.028,1.1315,-0.0775
0.8115,1.4003,1.2033,1.2191,0.6093,0.4944,0.4609,1.5349,0.886,0.2935,0.7039,0.1738,0.0116,0.3913,-0.079,1.7537,0.3751,-0.1027,0.5667,1.7386,0.8639,-0.0817,-0.2486,-0.3943,-0.5218,0.1338,-0.1348,-0.0127,1.1609,0.0193
0.8082,1.2485,1.1348,1.0225,0.4456,0.3125,0.4275,1.4685,0.8602,0.2814,0.7149,0.1902,0.016,0.3361,-0.2075,1.6898,0.2933,-0.1991,0.4251,1.6142,0.7691,-0.1784,-0.3119,-0.3997,-0.5458,0.1223,-0.1433,-0.0063,1.1645,0.1157
0.8338,1.109,1.0565,0.8612,0.2934,0.1369,0.3675,1.3812,0.7988,0.2383,0.709,0.1965,0.017,0.2999,-0.2808,1.6596,0.2987,-0.244,0.35,1.5229,0.7011,-0.2356,-0.3553,-0.3988,-0.5512,0.1105,-0.157,-0.0032,1.1383,0.1934
0.8853,1.0054,0.9836,0.7606,0.1786,0.0011,0.288,1.2856,0.7087,0.1694,0.6857,0.1927,0.0159,0.2892,-0.2784,1.6711,0.3982,-0.2229,0.356,1.478,0.6687,-0.2373,-0.3632,-0.38,-0.5339,0.1036,-0.1692,0.0005,1.0803,0.24
0.9538,0.9488,0.9306,0.7259,0.1134,-0.0728,0.196,1.1928,0.5984,0.0809,0.6449,0.1776,0.0115,0.3022,-0.1917,1.7223,0.5756,-0.1384,0.434,1.4821,0.6721,-0.1846,-0.3334,-0.34,-0.4975,0.1032,-0.1774,0.0052,0.9916,0.2505
1.0272,0.9383,0.9072,0.7445,0.0957,-0.0799,0.0973,1.1098,0.4763,-0.0211,0.5869,0.1494,0,0.3297,-0.0277,1.8026,0.7971,-0.0077,0.5566,1.5271,0.7031,-0.0948,-0.2757,-0.2847,-0.4507,0.1074,-0.1838,0.008,0.8767,0.2283
1.0927,0.9647,0.916,0.7938,0.1118,-0.0318,-0.0039,1.0389,0.3502,-0.1316,0.5126,0.1056,-0.0241,0.3575,0.1916,1.8958,1.0214,0.1422,0.6871,1.5966,0.7473,0.0055,-0.2074,-0.2268,-0.4036,0.1114,-0.1942,0.0032,0.7444,0.1833
1.1397,1.0144,0.9514,0.8497,0.1416,0.0476,-0.1044,0.9785,0.2267,-0.2463,0.4246,0.0451,-0.0661,0.3701,0.4333,1.9835,1.2103,0.2822,0.7908,1.67,0.788,0.0883,-0.1477,-0.1817,-0.3638,0.11,-0.215,-0.0148,0.6071,0.1286
1.1623,1.0737,1.0016,0.8934,0.1644,0.1301,-0.2013,0.9247,0.112,-0.3614,0.3271,-0.0313,-0.1296,0.3544,0.6604,2.0496,1.3377,0.3881,0.8443,1.727,0.8097,0.1317,-0.1119,-0.162,-0.3345,0.0993,-0.2507,-0.0495,0.4796,0.0774
1.1608,1.1302,1.0523,0.9138,0.1635,0.1913,-0.2919,0.8741,0.0117,-0.4727,0.2263,-0.1192,-0.2155,0.3022,0.8403,2.0825,1.3937,0.4456,0.8409,1.7514,0.8015,0.1257,-0.1075,-0.1746,-0.3137,0.0783,-0.3016,-0.1004,0.3774,0.0406
1.1409,1.1737,1.0904,0.9069,0.1282,0.2155,-0.3737,0.8253,-0.0689,-0.5761,0.1298,-0.2116,-0.3217,0.2118,0.9515,2.0766,1.3832,0.4519,0.7892,1.7335,0.7586,0.0726,-0.1333,-0.2184,-0.2967,0.0493,-0.3636,-0.1628,0.3134,0.0248
1.1125,1.1952,1.1079,0.8734,0.0546,0.1963,-0.4449,0.7795,-0.1257,-0.6673,0.0456,-0.299,-0.4429,0.0872,0.9876,2.0321,1.3212,0.4138,0.7083,1.6715,0.6828,-0.0152,-0.181,-0.2863,-0.2788,0.0173,-0.4293,-0.2288,0.295,0.0324
1.0867,1.1868,1.1024,0.816,-0.0549,0.135,-0.5039,0.7399,-0.1564,-0.7427,-0.019,-0.371,-0.5715,-0.0618,0.958,1.9546,1.2268,0.345,0.6205,1.571,0.5814,-0.1197,-0.2385,-0.3665,-0.2578,-0.0109,-0.4896,-0.2887,0.3225,0.0618
1.0738,1.1427,1.0776,0.7395,-0.1922,0.0373,-0.5498,0.7101,-0.161,-0.7997,-0.0587,-0.4185,-0.6979,-0.2216,0.8846,1.855,1.12,0.263,0.5465,1.4448,0.4669,-0.2214,-0.2925,-0.4459,-0.2353,-0.0279,-0.5355,-0.3332,0.3882,0.1077
1.0802,1.0616,1.04,0.6507,-0.3439,-0.0892,-0.5819,0.6923,-0.1422,-0.8368,-0.0709,-0.4344,-0.8112,-0.3756,0.7965,1.7481,1.0203,0.1861,0.502,1.3107,0.3542,-0.3018,-0.3315,-0.5121,-0.2163,-0.0273,-0.5596,-0.3544,0.4776,0.1624
1.1065,0.948,0.9966,0.5591,-0.4933,-0.2366,-0.6002,0.6853,-0.1057,-0.8547,-0.0567,-0.4164,-0.9016,-0.5072,0.7235,1.6514,0.9453,0.1318,0.4972,1.1887,0.2591,-0.3464,-0.3467,-0.5559,-0.2068,-0.0048,-0.5576,-0.3482,0.572,0.216
1.1462,0.8131,0.9507,0.4755,-0.6239,-0.397,-0.6066,0.6838,-0.0604,-0.8567,-0.0219,-0.3673,-0.9623,-0.603,0.6899,1.5815,0.9091,0.1135,0.5357,1.0973,0.194,-0.3469,-0.3343,-0.573,-0.2123,0.0402,-0.5292,-0.3149,0.6517,0.2575
1.1861,0.6734,0.9001,0.4089,-0.723,-0.563,-0.6057,0.6787,-0.017,-0.8496,0.0234,-0.2959,-0.9926,-0.6563,0.7087,1.5499,0.9174,0.1369,0.613,1.0481,0.1657,-0.3033,-0.2964,-0.5654,-0.2361,0.1044,-0.4788,-0.2597,0.6992,0.2771
1.209,0.547,0.8379,0.3642,-0.7852,-0.7267,-0.6051,0.6595,0.0129,-0.8428,0.0665,-0.215,-0.9981,-0.6685,0.7794,1.5602,0.9644,0.1977,0.7139,1.0439,0.1729,-0.2263,-0.2426,-0.5416,-0.2786,0.1801,-0.4152,-0.1914,0.7022,0.2683
1.1991,0.4498,0.7547,0.34,-0.8135,-0.8795,-0.6138,0.6177,0.02,-0.8458,0.0945,-0.1388,-0.9899,-0.649,0.888,1.6066,1.0317,0.2807,0.8135,1.0779,0.2074,-0.1367,-0.189,-0.5139,-0.3374,0.2578,-0.3492,-0.1206,0.6557,0.2311
1.148,0.3916,0.6428,0.33,-0.8175,-1.013,-0.6396,0.5495,-0.0006,-0.8659,0.0984,-0.0791,-0.9805,-0.6117,1.0101,1.6763,1.0924,0.3626,0.8805,1.1365,0.2565,-0.0609,-0.156,-0.4957,-0.4078,0.3277,-0.2915,-0.0565,0.5629,0.1736
1.0581,0.3748,0.5004,0.3259,-0.8099,-1.1202,-0.6858,0.4582,-0.0475,-0.9051,0.075,-0.0426,-0.9798,-0.5709,1.1168,1.7536,1.1194,0.418,0.8863,1.2045,0.3079,-0.0249,-0.1643,-0.4965,-0.4837,0.3832,-0.249,-0.0045,0.4346,0.1101
0.9434,0.3955,0.3348,0.3213,-0.802,-1.1967,-0.7501,0.3528,-0.1131,-0.9591,0.0286,-0.0291,-0.9916,-0.5361,1.1813,1.8257,1.0954,0.4269,0.8147,1.2702,0.3533,-0.0457,-0.2282,-0.5192,-0.5584,0.4214,-0.2233,0.0344,0.2879,0.0576
0.8255,0.4463,0.1619,0.3151,-0.8005,-1.241,-0.8238,0.2465,-0.1848,-1.0176,-0.0301,-0.0319,-1.0118,-0.5101,1.1858,1.8866,1.021,0.3814,0.6705,1.3298,0.3919,-0.1251,-0.3504,-0.5585,-0.6258,0.4445,-0.2107,0.0634,0.1433,0.0305
0.728,0.5193,0.0043,0.3123,-0.8054,-1.254,-0.8938,0.1532,-0.2473,-1.0664,-0.0867,-0.0401,-1.0296,-0.4873,1.1254,1.939,0.916,0.2897,0.481,1.3882,0.4301,-0.2474,-0.5183,-0.6023,-0.6816,0.4576,-0.2032,0.0881,0.0211,0.0357
0.6701,0.6088,-0.1147,0.3223,-0.81,-1.2378,-0.945,0.0845,-0.2864,-1.0901,-0.1259,-0.0415,-1.0302,-0.4567,1.0096,1.9928,0.8153,0.1742,0.2903,1.4569,0.4805,-0.3821,-0.7048,-0.635,-0.7238,0.4673,-0.1918,0.1139,-0.0617,0.0707
0.6623,0.7106,-0.1766,0.3555,-0.8038,-1.1951,-0.9638,0.0481,-0.291,-1.076,-0.1359,-0.0259,-0.9995,-0.4049,0.8609,2.061,0.7576,0.0662,0.1477,1.5498,0.5572,-0.4916,-0.8739,-0.6419,-0.7532,0.4781,-0.1689,0.1436,-0.0955,0.1241
0.7037,0.8215,-0.1732,0.419,-0.7759,-1.1295,-0.9411,0.0467,-0.2567,-1.0171,-0.111,0.0117,-0.9273,-0.3207,0.7097,2.1547,0.7733,-0.0029,0.0941,1.678,0.6718,-0.5406,-0.9893,-0.6129,-0.7717,0.4915,-0.1313,0.1763,-0.0795,0.179
0.7837,0.9369,-0.1086,0.5132,-0.7188,-1.0451,-0.8745,0.0781,-0.1863,-0.9141,-0.0535,0.07,-0.8109,-0.1991,0.5881,2.2789,0.8745,-0.0095,0.1503,1.8453,0.8291,-0.5062,-1.0227,-0.5455,-0.7809,0.5056,-0.0807,0.2073,-0.0225,0.2179
0.8858,1.0509,0.0027,0.631,-0.6315,-0.9474,-0.7692,0.1354,-0.0901,-0.7764,0.0267,0.1412,-0.6556,-0.0423,0.523,2.4311,1.0517,0.056,0.3129,2.0468,1.026,-0.3822,-0.9608,-0.4443,-0.7808,0.5157,-0.0231,0.2296,0.0585,0.2265
0.9926,1.1573,0.1411,0.7608,-0.5197,-0.8424,-0.6371,0.2085,0.0158,-0.6208,0.1139,0.2131,-0.4744,0.1398,0.5307,2.6023,1.2772,0.1884,0.5562,2.2702,1.2515,-0.1805,-0.8072,-0.3199,-0.7694,0.5168,0.0328,0.2363,0.1413,0.1976
1.0908,1.2517,0.2888,0.8899,-0.3944,-0.7362,-0.4948,0.2854,0.1126,-0.4684,0.19,0.2718,-0.2853,0.3327,0.6142,2.7801,1.5144,0.3699,0.8412,2.4992,1.49,0.0747,-0.5798,-0.1855,-0.7434,0.5055,0.0784,0.2227,0.2027,0.1318
1.173,1.3334,0.4343,1.0093,-0.2678,-0.6335,-0.3598,0.355,0.1829,-0.3411,0.2388,0.3053,-0.1077,0.5208,0.764,2.9527,1.7297,0.5767,1.1275,2.7181,1.7252,0.3537,-0.3054,-0.0538,-0.7005,0.4805,0.1076,0.1879,0.2228,0.0355
1.2376,1.406,0.574,1.1166,-0.1497,-0.536,-0.2474,0.409,0.2142,-0.2568,0.249,0.3058,0.0416,0.691,0.9611,3.1123,1.9035,0.7858,1.3851,2.9156,1.9442,0.6304,-0.0131,0.0659,-0.6405,0.4437,0.1181,0.135,0.1888,-0.0815
1.2864,1.477,0.7097,1.2173,-0.0437,-0.4415,-0.1678,0.4438,0.2017,-0.2263,0.2167,0.2712,0.1515,0.8357,1.1823,3.2567,2.036,0.9816,1.6016,3.0875,2.1396,0.8873,0.2721,0.169,-0.5673,0.3989,0.1112,0.0702,0.0977,-0.2103
1.3207,1.5558,0.8436,1.3226,0.0534,-0.3445,-0.1238,0.4608,0.1488,-0.2516,0.1457,0.2054,0.2185,0.9536,1.4047,3.3888,2.1459,1.1584,1.7837,3.2356,2.3101,1.1185,0.5335,0.2558,-0.4881,0.3506,0.0913,0.0012,-0.0438,-0.3449
1.3397,1.6509,0.9741,1.4451,0.1495,-0.2381,-0.112,0.4656,0.0655,-0.3259,0.0469,0.1164,0.2464,1.0481,1.6093,3.5141,2.2636,1.3197,1.951,3.3658,2.4586,1.3262,0.7638,0.3294,-0.4123,0.3033,0.0641,-0.0642,-0.2199,-0.4826
1.34,1.7654,1.0944,1.5919,0.2529,-0.1174,-0.1241,0.4652,-0.0344,-0.4359,-0.065,0.0151,0.2442,1.1249,1.7812,3.6372,2.4182,1.4729,2.1268,3.4843,2.5891,1.5165,0.962,0.3935,-0.3486,0.2606,0.0345,-0.1201,-0.4088,-0.6228
1.3167,1.8936,1.1932,1.7587,0.3673,0.0174,-0.1501,0.4657,-0.137,-0.5648,-0.1742,-0.0881,0.2229,1.1884,1.9092,3.7576,2.6248,1.6229,2.3265,3.5933,2.7035,1.6932,1.1302,0.45,-0.3023,0.2252,0.0057,-0.1631,-0.5861,-0.7628
1.2674,2.0181,1.258,1.9269,0.4888,0.1595,-0.1809,0.4702,-0.2305,-0.6959,-0.2672,-0.1846,0.1919,1.2392,1.9845,3.868,2.8748,1.7664,2.5499,3.6893,2.8,1.854,1.2683,0.4968,-0.273,0.1985,-0.0215,-0.193,-0.7284,-0.8955
1.1959,2.1118,1.2801,2.0661,0.6056,0.2965,-0.2107,0.4778,-0.3079,-0.815,-0.335,-0.2698,0.1567,1.2732,2.0002,3.9539,3.1326,1.8888,2.7784,3.7628,2.8723,1.9899,1.3715,0.5279,-0.2542,0.1812,-0.0488,-0.2125,-0.8172,-1.0071
1.1147,2.1408,1.2592,2.1398,0.7005,0.4131,-0.2372,0.4839,-0.3663,-0.9124,-0.3743,-0.3433,0.1184,1.2829,1.9532,3.9962,3.3411,1.9664,2.9793,3.8006,2.9122,2.0871,1.43,0.5338,-0.2342,0.1733,-0.0793,-0.2266,-0.8421,-1.0781
1.0451,2.072,1.2053,2.1141,0.7556,0.4945,-0.2613,0.4822,-0.4067,-0.9835,-0.3868,-0.4078,0.074,1.2593,1.8453,3.9759,3.4347,1.972,3.1142,3.7898,2.9116,2.1313,1.4314,0.5041,-0.1991,0.1736,-0.117,-0.2413,-0.802,-1.0867
1.0129,1.8806,1.1373,1.9659,0.7577,0.531,-0.2858,0.4668,-0.4326,-1.0281,-0.3777,-0.468,0.0185,1.1955,1.6851,3.8788,3.3555,1.8825,3.1507,3.7213,2.8657,2.1129,1.3651,0.4303,-0.1362,0.1808,-0.1651,-0.2621,-0.7048,-1.014
1.0404,1.5564,1.0772,1.6883,0.7014,0.5196,-0.3137,0.434,-0.4483,-1.0499,-0.3542,-0.5287,-0.0526,1.0892,1.4861,3.6999,3.0701,1.6868,3.0714,3.5933,2.7745,2.0305,1.2273,0.3088,-0.0372,0.1927,-0.2254,-0.2926,-0.5642,-0.8504
1.138,1.1081,1.0423,1.2935,0.5913,0.4652,-0.3469,0.3834,-0.4586,-1.0551,-0.3235,-0.5937,-0.141,0.9437,1.2637,3.4461,2.5805,1.3901,2.8799,3.4119,2.6442,1.8916,1.0238,0.143,0.0996,0.2076,-0.2975,-0.3341,-0.3967,-0.5997
1.2984,0.5642,1.038,0.8106,0.4404,0.3791,-0.386,0.3179,-0.4677,-1.0513,-0.2916,-0.665,-0.245,0.7686,1.0315,3.1355,1.9267,1.0147,2.5998,3.1911,2.4859,1.7119,0.7705,-0.0569,0.2682,0.2235,-0.3794,-0.3853,-0.2176,-0.2807
1.4968,-0.0311,1.0566,0.2812,0.2674,0.2769,-0.4298,0.2433,-0.4794,-1.0461,-0.2628,-0.7425,-0.3591,0.5775,0.799,2.7951,1.1795,0.5963,2.2698,2.9497,2.3137,1.5117,0.4917,-0.2751,0.4566,0.239,-0.4674,-0.4431,-0.0389,0.0749
