FP1,F3,F7,FC3,C3,C5,P3,P7,PO7,PO3,O1,Oz,Pz,CPz,FP2,Fz,F4,F8,FC4,FCz,Cz,C4,C6,P4,P8,PO8,PO4,O2,(corr) HEOG,(corr) VEOG
0.0249,0.2485,0.19,0.2262,0.5564,0.4386,1.1891,0.5643,0.8246,1.1314,0.8303,1.2774,0.9996,0.6209,-0.553,-0.009,0.0256,0.0825,0.092,-0.066,0.2403,0.489,0.2452,0.7381,0.5988,0.8814,0.8829,1.0719,-0.3785,0.1227
0.0455,0.3054,0.2513,0.3054,0.7266,0.5468,1.2671,0.6327,0.841,1.0147,0.7435,1.1771,0.9294,0.6326,-0.4966,0.0223,0.0255,0.0333,-0.0559,-0.0234,0.2743,0.4099,0.1929,0.6442,0.4861,0.807,0.7957,0.9828,-0.3478,0.0673
0.1181,0.4348,0.3408,0.4347,0.888,0.6502,1.225,0.6349,0.7868,0.7898,0.5906,0.9931,0.8085,0.6293,-0.4011,0.1325,0.0944,0.0025,-0.1542,0.093,0.344,0.361,0.1509,0.5189,0.3468,0.6934,0.6569,0.821,-0.2815,0.0148
0.2414,0.6314,0.457,0.6094,1.0267,0.7422,1.065,0.5658,0.6632,0.4813,0.3847,0.745,0.6536,0.6158,-0.2726,0.3161,0.227,0.0024,-0.1829,0.2756,0.4473,0.3541,0.1277,0.3794,0.1993,0.5535,0.4833,0.6025,-0.1906,-0.0248
0.405,0.8771,0.5946,0.8151,1.1288,0.8165,0.8048,0.4305,0.4809,0.1223,0.146,0.4606,0.4848,0.597,-0.1201,0.5538,0.4062,0.0415,-0.1332,0.5036,0.5748,0.3939,0.1287,0.2448,0.063,0.4032,0.2957,0.3502,-0.0902,-0.0444
0.5901,1.143,0.7426,1.0288,1.1824,0.8666,0.4756,0.2433,0.259,-0.2493,-0.1008,0.1723,0.3234,0.5777,0.0441,0.8155,0.6067,0.1216,-0.0095,0.7469,0.7121,0.4777,0.1559,0.134,-0.0446,0.26,0.1168,0.092,0.0045,-0.0415
0.7722,1.3937,0.8848,1.223,1.1804,0.8867,0.119,0.0258,0.0224,-0.5948,-0.3292,-0.0869,0.1892,0.5633,0.2041,1.066,0.8008,0.2357,0.1715,0.9725,0.8433,0.5966,0.2072,0.0628,-0.1102,0.1412,-0.0316,-0.1423,0.0819,-0.018
0.9261,1.5944,1.0018,1.3703,1.1221,0.8734,-0.2193,-0.1955,-0.2016,-0.8784,-0.5147,-0.2881,0.0979,0.5591,0.3422,1.2719,0.9649,0.3694,0.384,1.1512,0.9549,0.7372,0.2772,0.0419,-0.1278,0.0614,-0.1312,-0.325,0.1373,0.0195
1.0304,1.7176,1.0756,1.4496,1.015,0.8274,-0.4961,-0.3931,-0.3867,-1.0706,-0.6376,-0.4098,0.0591,0.5697,0.4427,1.4085,1.0846,0.5031,0.5991,1.2638,1.0382,0.8846,0.3581,0.0745,-0.0984,0.0298,-0.1702,-0.4343,0.1726,0.0605
1.0717,1.7487,1.0929,1.4506,0.8736,0.7545,-0.6772,-0.543,-0.5117,-1.1505,-0.6858,-0.4407,0.0752,0.598,0.4965,1.4646,1.1563,0.6165,0.7899,1.3039,1.0904,1.0244,0.441,0.1567,-0.0305,0.0488,-0.1447,-0.4584,0.1957,0.0907
1.0477,1.6886,1.0493,1.3768,0.7183,0.6661,-0.7425,-0.6277,-0.5629,-1.109,-0.6555,-0.3796,0.142,0.6444,0.5039,1.4437,1.1866,0.693,0.9357,1.2786,1.1145,1.1444,0.517,0.278,0.0626,0.114,-0.0591,-0.3962,0.2163,0.0949
0.9673,1.5542,0.9506,1.2451,0.5728,0.5776,-0.6882,-0.6392,-0.5365,-0.9491,-0.5512,-0.2349,0.2508,0.7069,0.4753,1.3631,1.1884,0.7231,1.025,1.2057,1.1175,1.2363,0.5779,0.4243,0.1649,0.2152,0.0753,-0.2573,0.2429,0.0595
0.8489,1.3749,0.8121,1.0836,0.4603,0.5054,-0.5258,-0.5805,-0.438,-0.6858,-0.3842,-0.0216,0.3903,0.7826,0.4287,1.2498,1.1769,0.7068,1.0553,1.1097,1.1098,1.2964,0.6173,0.5808,0.261,0.3391,0.2435,-0.0593,0.2796,-0.024
0.7173,1.1873,0.6558,0.9259,0.4013,0.4634,-0.279,-0.4641,-0.2808,-0.3441,-0.1704,0.2413,0.5504,0.8686,0.3848,1.1352,1.1658,0.6533,1.0323,1.0171,1.1028,1.3255,0.6312,0.7353,0.3386,0.4724,0.4297,0.1761,0.325,-0.1557
0.5984,1.0288,0.5059,0.8051,0.41,0.4607,0.0217,-0.3097,-0.0837,0.0443,0.0723,0.5336,0.7229,0.9637,0.3615,1.0486,1.1652,0.5788,0.9675,0.9521,1.1081,1.329,0.6183,0.8799,0.3912,0.6038,0.6203,0.427,0.3729,-0.327
0.5147,0.9306,0.3843,0.7479,0.4929,0.4993,0.3445,-0.1405,0.1329,0.4452,0.3261,0.8363,0.9026,1.068,0.3697,1.0123,1.1804,0.5014,0.8753,0.9322,1.1357,1.3152,0.5799,1.0114,0.4184,0.7257,0.8055,0.6748,0.4141,-0.521
0.4812,0.9131,0.3071,0.7695,0.6466,0.5739,0.6603,0.021,0.3488,0.8254,0.575,1.1324,1.0859,1.1829,0.411,1.0384,1.2129,0.4373,0.7711,0.9668,1.1926,1.2934,0.5197,1.1301,0.4257,0.8342,0.9797,0.9055,0.4396,-0.717
0.5038,0.9826,0.282,0.8713,0.8583,0.6736,0.9449,0.1554,0.5468,1.156,0.805,1.4076,1.2693,1.309,0.4793,1.1273,1.2611,0.396,0.6698,1.0563,1.2821,1.2728,0.4428,1.2377,0.4229,0.9277,1.1402,1.1105,0.4438,-0.8942
0.5782,1.1312,0.3082,1.0416,1.1066,0.7828,1.1794,0.2482,0.7122,1.4144,1.0044,1.6495,1.4474,1.4449,0.5631,1.2695,1.3224,0.3787,0.5844,1.1933,1.4031,1.26,0.3555,1.335,0.4209,1.0057,1.285,1.2848,0.4261,-1.036
0.6926,1.339,0.3771,1.2574,1.3635,0.8847,1.3492,0.2901,0.8334,1.5849,1.1631,1.8467,1.6115,1.5854,0.6489,1.4481,1.3935,0.3798,0.5259,1.3644,1.5494,1.2596,0.2653,1.4203,0.429,1.067,1.4118,1.4255,0.3914,-1.1318
0.83,1.5784,0.4746,1.4896,1.5983,0.9631,1.4433,0.2772,0.9019,1.6594,1.2725,1.9891,1.7502,1.7219,0.7245,1.6427,1.4714,0.3891,0.5022,1.553,1.7112,1.2734,0.1803,1.4897,0.4525,1.1092,1.5161,1.5294,0.349,-1.1779
0.9722,1.8192,0.5838,1.7083,1.7822,1.0058,1.4549,0.2117,0.913,1.6371,1.3262,2.0679,1.8505,1.8427,0.7815,1.8331,1.553,0.3965,0.5174,1.7417,1.8753,1.3017,0.1097,1.5374,0.4921,1.1294,1.5922,1.5929,0.3104,-1.1768
1.1029,2.0344,0.6887,1.8884,1.8934,1.0071,1.3827,0.1017,0.8664,1.5251,1.3204,2.077,1.901,1.9351,0.8169,2.0025,1.6356,0.3957,0.5711,1.9152,2.0275,1.3429,0.0622,1.5574,0.5431,1.1248,1.6337,1.6114,0.2862,-1.1367
1.2108,2.204,0.7766,2.0144,1.9213,0.9693,1.233,-0.0379,0.7687,1.3383,1.2561,2.0147,1.8942,1.9884,0.8335,2.1397,1.7159,0.3853,0.6573,2.0615,2.1548,1.3946,0.045,1.5457,0.5973,1.0941,1.6353,1.5812,0.2844,-1.0701
1.2903,2.3183,0.8404,2.0825,1.8694,0.9032,1.0222,-0.1865,0.6329,1.1,1.14,1.8857,1.8302,1.9968,0.8393,2.2402,1.7912,0.3696,0.7664,2.1742,2.2477,1.4532,0.0623,1.5009,0.6444,1.0384,1.5947,1.5014,0.3087,-0.9926
1.3423,2.3788,0.88,2.1016,1.7557,0.8266,0.7764,-0.3203,0.4786,0.8402,0.9853,1.7024,1.7179,1.9619,0.8453,2.3061,1.8596,0.3569,0.8866,2.2525,2.3031,1.5147,0.1145,1.4258,0.6745,0.9617,1.5139,1.376,0.3579,-0.9207
1.3734,2.397,0.9021,2.0911,1.6107,0.7612,0.5301,-0.416,0.3292,0.5924,0.8112,1.4847,1.5757,1.8947,0.8633,2.3456,1.9216,0.3575,1.0083,2.3018,2.3251,1.5761,0.1987,1.3279,0.6811,0.8709,1.4003,1.2152,0.4265,-0.8691
1.3942,2.3922,0.9183,2.0767,1.472,0.729,0.3218,-0.4551,0.2084,0.3898,0.6407,1.2586,1.4294,1.8146,0.904,2.3715,1.9808,0.3821,1.1267,2.3333,2.3258,1.6367,0.31,1.2196,0.6623,0.7752,1.2666,1.0354,0.505,-0.849
1.4178,2.3884,0.9428,2.0859,1.379,0.7483,0.1885,-0.4274,0.1364,0.2607,0.4974,1.0524,1.3091,1.7473,0.9759,2.3994,2.0448,0.4405,1.244,2.3624,2.3237,1.6993,0.4425,1.1167,0.6222,0.685,1.1299,0.857,0.5823,-0.8666
1.4574,2.4099,0.9898,2.1427,1.3662,0.8308,0.1598,-0.3325,0.1269,0.224,0.4021,0.8932,1.2443,1.7211,1.0848,2.4462,2.1249,0.5409,1.3698,2.408,2.342,1.7712,0.5914,1.037,0.5703,0.6106,1.0093,0.7023,0.6472,-0.923
1.5248,2.4779,1.0705,2.264,1.4581,0.9804,0.2535,-0.1792,0.1853,0.2877,0.3695,0.8025,1.2599,1.7625,1.2334,2.5285,2.2352,0.6885,1.5193,2.4897,2.4048,1.8629,0.7538,0.9984,0.5201,0.5612,0.9243,0.5915,0.691,-1.0149
1.6283,2.607,1.1921,2.4564,1.6654,1.1938,0.4726,0.0171,0.309,0.4479,0.4065,0.7941,1.3718,1.891,1.4207,2.6602,2.3897,0.8841,1.7093,2.6251,2.5334,1.9868,0.9287,1.0158,0.4861,0.5433,0.8911,0.5398,0.7087,-1.136
1.7706,2.802,1.3555,2.7152,1.9828,1.4605,0.8047,0.2381,0.488,0.6903,0.5114,0.8716,1.5838,2.1151,1.6413,2.8499,2.5978,1.1216,1.9534,2.8258,2.7411,2.1524,1.1161,1.0985,0.4816,0.5601,0.9208,0.5553,0.7002,-1.2774
1.9474,3.0555,1.5547,3.0239,2.3887,1.7645,1.2229,0.465,0.7068,0.9927,0.6746,1.0287,1.8862,2.4283,1.8832,3.0964,2.8595,1.3865,2.2559,3.0924,3.0283,2.3619,1.3148,1.2481,0.5149,0.6107,1.0161,0.637,0.6703,-1.4284
2.1457,3.3472,1.7756,3.3545,2.8467,2.0847,1.6889,0.6809,0.9454,1.3281,0.8794,1.2488,2.255,2.8078,2.1266,3.3863,3.1607,1.6552,2.6071,3.4106,3.3789,2.6063,1.5188,1.4558,0.5872,0.6898,1.1701,0.7747,0.6271,-1.5762
2.3442,3.645,1.9969,3.671,3.3088,2.3964,2.1566,0.8709,1.1813,1.6676,1.1037,1.5071,2.6537,3.2155,2.3447,3.6919,3.4718,1.8973,2.9811,3.7504,3.7596,2.8641,1.7159,1.7027,0.6912,0.7876,1.3657,0.9499,0.5807,-1.7058
2.5163,3.9092,2.1925,3.9333,3.7222,2.673,2.5777,1.0229,1.3908,1.9829,1.3222,1.7721,3.0374,3.6029,2.5066,3.974,3.7504,2.0808,3.3379,4.069,4.1235,3.1028,1.8877,1.9612,0.8113,0.8907,1.577,1.1381,0.5402,-1.8007
2.6339,4.0984,2.3354,4.1033,4.0362,2.8887,2.9081,1.1272,1.5515,2.2485,1.5087,2.01,3.3594,3.9189,2.5828,4.1873,3.9483,2.1787,3.6291,4.3168,4.4177,3.2855,2.0121,2.199,0.9269,0.9844,1.7736,1.3123,0.5113,-1.8446
2.6727,4.1763,2.4017,4.151,4.2097,3.0217,3.1125,1.1774,1.6446,2.4426,1.6397,2.1891,3.5779,4.118,2.5516,4.2881,4.0208,2.1752,3.8071,4.4473,4.5932,3.3779,2.0688,2.385,1.0161,1.0547,1.9252,1.4475,0.4956,-1.8241
2.6169,4.1179,2.3749,4.0591,4.217,3.0558,3.1693,1.1705,1.658,2.5485,1.6967,2.2847,3.6633,4.1686,2.4036,4.2427,3.9361,2.0696,3.834,4.4254,4.6134,3.3556,2.044,2.4942,1.0606,1.0917,2.0073,1.5247,0.4893,-1.7317
2.4623,3.9132,2.2478,3.8253,4.0505,2.9827,3.0722,1.1072,1.5876,2.5554,1.6689,2.2832,3.6029,4.0575,2.1437,4.0336,3.6819,1.8756,3.6892,4.2342,4.4613,3.2092,1.9345,2.512,1.0498,1.0906,2.0056,1.5345,0.4858,-1.5671
2.2165,3.5682,2.0235,3.462,3.72,2.802,2.8292,0.9922,1.4382,2.4591,1.5544,2.1834,3.4014,3.7912,1.7891,3.6627,3.268,1.6173,3.3736,3.8776,4.1408,2.9448,1.7476,2.4359,0.9821,1.0526,1.9179,1.477,0.4771,-1.3377
1.8964,3.1033,1.7144,2.9928,3.2494,2.5212,2.4611,0.8334,1.2231,2.263,1.3598,1.9962,3.0789,3.3929,1.3646,3.1505,2.724,1.3219,2.9089,3.3784,3.6752,2.5825,1.4998,2.2736,0.8652,0.9836,1.7527,1.3613,0.4573,-1.0563
1.5249,2.5493,1.3398,2.4476,2.672,2.1542,1.9972,0.6418,0.9619,1.978,1.0992,1.7415,2.6659,2.897,0.8977,2.5319,2.0933,1.0132,2.3327,2.7728,3.1013,2.1509,1.2123,2.0398,0.7131,0.8915,1.5267,1.2018,0.4246,-0.7388
1.1263,1.9417,0.9229,1.8577,2.0257,1.7208,1.4729,0.4306,0.6785,1.6215,0.7925,1.4444,2.1973,2.3426,0.4142,1.8505,1.4246,0.7074,1.6908,2.104,2.4623,1.6812,0.9054,1.752,0.5424,0.7837,1.2597,1.0146,0.3819,-0.4017
0.7221,1.3158,0.4879,1.2516,1.3489,1.2453,0.926,0.2154,0.3986,1.2164,0.4635,1.1307,1.7074,1.7674,-0.0641,1.1517,0.7643,0.4124,1.0287,1.4151,1.8014,1.2021,0.5955,1.4271,0.3687,0.6651,0.9709,0.8143,0.3356,-0.0595
0.3294,0.7026,0.0574,0.6531,0.6784,0.7556,0.3942,0.0129,0.1465,0.7885,0.137,0.8234,1.2255,1.204,-0.5201,0.4764,0.1493,0.129,0.3855,0.7435,1.1561,0.7359,0.2921,1.0786,0.2031,0.5372,0.6757,0.6116,0.294,0.276
-0.0409,0.1262,-0.3489,0.0802,0.0474,0.2816,-0.0883,-0.1605,-0.0575,0.3648,-0.1635,0.5402,0.7743,0.6778,-0.9418,-0.1433,-0.3963,-0.1452,-0.2102,0.1178,0.5557,0.297,-0.0005,0.717,0.0516,0.3988,0.3851,0.4129,0.2645,0.5968
-0.382,-0.3971,-0.7154,-0.453,-0.5156,-0.1471,-0.4934,-0.2908,-0.2,-0.0293,-0.4187,0.2922,0.3694,0.2057,-1.3212,-0.6866,-0.8623,-0.4116,-0.7397,-0.4435,0.0201,-0.1074,-0.2816,0.3501,-0.0858,0.2473,0.1056,0.2208,0.2518,0.899
-0.6904,-0.8571,-1.0304,-0.9353,-0.9872,-0.5044,-0.8025,-0.3688,-0.2762,-0.3723,-0.6155,0.0837,0.0198,-0.2024,-1.654,-1.1438,-1.2495,-0.668,-1.1936,-0.9307,-0.4399,-0.4756,-0.5519,-0.0151,-0.2131,0.08,-0.1597,0.0356,0.2558,1.1819
-0.9633,-1.2486,-1.2859,-1.356,-1.3507,-0.7699,-1.0075,-0.3923,-0.2907,-0.6493,-0.7489,-0.086,-0.2708,-0.5432,-1.9382,-1.5148,-1.5663,-0.9063,-1.5691,-1.3417,-0.8214,-0.8086,-0.8117,-0.3713,-0.3366,-0.1042,-0.4098,-0.1441,0.2727,1.4469
-1.1971,-1.5682,-1.4764,-1.7041,-1.5961,-0.9313,-1.112,-0.3663,-0.2568,-0.8528,-0.822,-0.2216,-0.5026,-0.8181,-2.1727,-1.8054,-1.8231,-1.1132,-1.8676,-1.6789,-1.1271,-1.1084,-1.0602,-0.7099,-0.4626,-0.3042,-0.6442,-0.3198,0.2951,1.6952
-1.3865,-1.8125,-1.5988,-1.9679,-1.7214,-0.986,-1.1298,-0.3031,-0.1937,-0.9835,-0.8445,-0.3293,-0.6788,-1.0321,-2.3562,-2.0237,-2.0282,-1.2724,-2.0936,-1.9464,-1.3632,-1.3756,-1.2951,-1.0207,-0.595,-0.5154,-0.8612,-0.4921,0.3145,1.9255
-1.5248,-1.9769,-1.6519,-2.1365,-1.7324,-0.9411,-1.0819,-0.2197,-0.1226,-1.0485,-0.8305,-0.4143,-0.8043,-1.1914,-2.4861,-2.177,-2.1853,-1.3682,-2.2521,-2.1485,-1.5373,-1.6083,-1.5121,-1.2925,-0.7334,-0.7294,-1.0568,-0.6596,0.3228,2.1325
-1.605,-2.0569,-1.6373,-2.2017,-1.6429,-0.8131,-0.9926,-0.1351,-0.0629,-1.06,-0.7951,-0.4804,-0.8846,-1.3024,-2.5588,-2.2695,-2.2923,-1.3893,-2.3479,-2.2877,-1.6565,-1.8016,-1.7052,-1.5137,-0.8721,-0.9339,-1.224,-0.8178,0.3142,2.3073
-1.6222,-2.0497,-1.5607,-2.1618,-1.4744,-0.6266,-0.8868,-0.0667,-0.0292,-1.0323,-0.7516,-0.5284,-0.9249,-1.3706,-2.5707,-2.3022,-2.3434,-1.3327,-2.3853,-2.3649,-1.7261,-1.9482,-1.8665,-1.6739,-1.0014,-1.1139,-1.3535,-0.9597,0.2862,2.4382
-1.5755,-1.9578,-1.4328,-2.0241,-1.2547,-0.4114,-0.7865,-0.0284,-0.029,-0.9804,-0.71,-0.5569,-0.9306,-1.4003,-2.5198,-2.2745,-2.3322,-1.206,-2.3685,-2.3807,-1.7497,-2.0399,-1.9867,-1.7654,-1.1092,-1.2537,-1.4353,-1.0756,0.2402,2.5139
-1.4707,-1.792,-1.2698,-1.8073,-1.0165,-0.2003,-0.7098,-0.0291,-0.0634,-0.9187,-0.6758,-0.5633,-0.9067,-1.3958,-2.4087,-2.1869,-2.2567,-1.0281,-2.3038,-2.3373,-1.7307,-2.0698,-2.0576,-1.785,-1.184,-1.3393,-1.4612,-1.1544,0.1806,2.527
-1.3204,-1.5724,-1.0935,-1.5409,-0.7943,-0.0249,-0.6698,-0.0726,-0.128,-0.8596,-0.6511,-0.5441,-0.8584,-1.3622,-2.2467,-2.0446,-2.1229,-0.827,-2.2011,-2.2408,-1.6738,-2.0357,-2.0736,-1.7348,-1.2178,-1.3614,-1.4268,-1.1859,0.114,2.4775
-1.1437,-1.3276,-0.9288,-1.2624,-0.6212,0.0881,-0.6745,-0.158,-0.2152,-0.8129,-0.6345,-0.4963,-0.7916,-1.3063,-2.0515,-1.8594,-1.9466,-0.6354,-2.0758,-2.1031,-1.5869,-1.9421,-2.0349,-1.6228,-1.2075,-1.317,-1.3329,-1.1616,0.0475,2.374
-0.9634,-1.0907,-0.8001,-1.0119,-0.5239,0.1201,-0.7258,-0.2793,-0.315,-0.7838,-0.6226,-0.4183,-0.7123,-1.2367,-1.848,-1.6498,-1.7523,-0.4851,-1.9475,-1.941,-1.4812,-1.801,-1.9486,-1.4626,-1.1562,-1.2103,-1.1865,-1.0773,-0.013,2.2338
-0.8027,-0.8932,-0.7271,-0.8251,-0.519,0.0633,-0.8193,-0.4264,-0.4165,-0.7724,-0.61,-0.3099,-0.6267,-1.1626,-1.6644,-1.4392,-1.5688,-0.4003,-1.8373,-1.7749,-1.3707,-1.6308,-1.8286,-1.2714,-1.0722,-1.0528,-0.9998,-0.9339,-0.0635,2.079
-0.6804,-0.759,-0.7203,-0.7268,-0.6097,-0.0782,-0.9437,-0.5849,-0.5081,-0.774,-0.5903,-0.1734,-0.5397,-1.092,-1.5262,-1.252,-1.4226,-0.3934,-1.7632,-1.6245,-1.2693,-1.4536,-1.6935,-1.0692,-0.9683,-0.8617,-0.7889,-0.7388,-0.1025,1.9314
-0.6085,-0.6995,-0.7783,-0.7264,-0.7844,-0.2881,-1.082,-0.7379,-0.5782,-0.7797,-0.5568,-0.014,-0.4554,-1.0306,-1.451,-1.1086,-1.3325,-0.4623,-1.7362,-1.5061,-1.1884,-1.2921,-1.5635,-0.8758,-0.8603,-0.6585,-0.5727,-0.5058,-0.1304,1.8079
-0.5903,-0.7124,-0.8886,-0.816,-1.0181,-0.5408,-1.213,-0.8668,-0.6162,-0.7796,-0.5045,0.1595,-0.3769,-0.9811,-1.444,-1.0231,-1.3058,-0.5915,-1.7579,-1.4298,-1.1356,-1.1661,-1.4568,-0.71,-0.7658,-0.4663,-0.3708,-0.255,-0.1483,1.7173
-0.6212,-0.7835,-1.0298,-0.9739,-1.2763,-0.8044,-1.3149,-0.9545,-0.6145,-0.7658,-0.4312,0.3344,-0.3076,-0.9449,-1.4982,-1.0012,-1.3386,-0.7561,-1.8218,-1.3999,-1.1143,-1.0915,-1.3872,-0.5886,-0.702,-0.3078,-0.2031,-0.0109,-0.1574,1.6601
-0.6918,-0.892,-1.1782,-1.1702,-1.5223,-1.0469,-1.3701,-0.9878,-0.5697,-0.7348,-0.3396,0.4944,-0.2533,-0.924,-1.598,-1.0423,-1.4192,-0.9287,-1.9168,-1.4163,-1.1256,-1.0795,-1.3633,-0.5253,-0.6843,-0.2026,-0.0883,0.1994,-0.1576,1.6308
-0.791,-1.0172,-1.3127,-1.3744,-1.7239,-1.2421,-1.3688,-0.9598,-0.4849,-0.6892,-0.2377,0.6209,-0.2227,-0.9232,-1.7245,-1.1419,-1.5338,-1.0867,-2.0323,-1.4775,-1.1706,-1.1373,-1.388,-0.5305,-0.724,-0.165,-0.0425,0.3503,-0.1484,1.622
-0.9098,-1.1443,-1.4211,-1.5628,-1.8602,-1.374,-1.312,-0.8712,-0.3692,-0.6378,-0.1379,0.696,-0.2273,-0.9509,-1.8624,-1.2948,-1.6722,-1.2177,-2.1634,-1.583,-1.2525,-1.2687,-1.4605,-0.6104,-0.8259,-0.2017,-0.0766,0.4209,-0.129,1.6285
-1.0433,-1.2675,-1.5019,-1.7229,-1.925,-1.4397,-1.2123,-0.7319,-0.2375,-0.5932,-0.0551,0.7056,-0.2796,-1.0191,-2.0039,-1.4972,-1.8317,-1.3224,-2.3127,-1.7349,-1.3774,-1.4743,-1.5777,-0.7662,-0.9873,-0.3109,-0.1946,0.3994,-0.1003,1.6497
-1.1907,-1.3904,-1.5638,-1.8547,-1.9275,-1.4489,-1.0918,-0.5593,-0.1076,-0.5699,-0.004,0.6422,-0.3906,-1.1403,-2.1502,-1.7471,-2.0166,-1.4133,-2.4896,-1.9368,-1.5529,-1.751,-1.7355,-0.9928,-1.1971,-0.4814,-0.3912,0.2851,-0.0647,1.6894
-1.3539,-1.5232,-1.6225,-1.9685,-1.8893,-1.4214,-0.9789,-0.3768,0.0017,-0.5814,0.0035,0.5068,-0.5662,-1.324,-2.3085,-2.0427,-2.2354,-1.5095,-2.7058,-2.1918,-1.7853,-2.0907,-1.9289,-1.2786,-1.4373,-0.6947,-0.652,0.0888,-0.0266,1.7543
-1.535,-1.6774,-1.6952,-2.0801,-1.8386,-1.3821,-0.9021,-0.2102,0.0738,-0.6375,-0.039,0.3083,-0.8049,-1.5727,-2.4876,-2.3791,-2.4953,-1.6307,-2.9693,-2.4985,-2.0755,-2.4788,-2.1515,-1.6057,-1.6851,-0.9274,-0.9548,-0.1687,0.0089,1.8498
-1.7332,-1.8607,-1.7947,-2.2048,-1.8042,-1.3551,-0.8854,-0.084,0.0972,-0.7421,-0.1317,0.0622,-1.0964,-1.8789,-2.6923,-2.7458,-2.7967,-1.7906,-3.2795,-2.8481,-2.4156,-2.894,-2.3937,-1.951,-1.9166,-1.1553,-1.2728,-0.4614,0.0381,1.9778
-1.9434,-2.0729,-1.9253,-2.3525,-1.8091,-1.3588,-0.9431,-0.0172,0.067,-0.8923,-0.2678,-0.2119,-1.4216,-2.2241,-2.92,-3.1245,-3.1296,-1.9921,-3.6237,-3.2228,-2.7877,-3.3084,-2.6418,-2.2886,-2.1109,-1.3574,-1.5787,-0.7618,0.059,2.1345
-2.1552,-2.3048,-2.0817,-2.5248,-1.8671,-1.4035,-1.0778,-0.0209,-0.0142,-1.0782,-0.4343,-0.4933,-1.7554,-2.5811,-3.1593,-3.4906,-3.4733,-2.2262,-3.9774,-3.5969,-3.165,-3.6911,-2.8779,-2.5925,-2.2524,-1.5192,-1.8486,-1.0456,0.0726,2.3103
-2.3552,-2.5405,-2.2513,-2.715,-1.9819,-1.4907,-1.2804,-0.0959,-0.1364,-1.2849,-0.6142,-0.7624,-2.0701,-2.9186,-3.3925,-3.8171,-3.8007,-2.4741,-4.3092,-3.9416,-3.5168,-4.0115,-3.0814,-2.8405,-2.3337,-1.6343,-2.0652,-1.2942,0.0818,2.4922
-2.5296,-2.7616,-2.4175,-2.9114,-2.148,-1.6145,-1.5318,-0.2331,-0.2845,-1.4942,-0.7888,-1.0024,-2.3401,-3.2074,-3.6003,-4.0798,-4.0839,-2.7118,-4.5873,-4.2306,-3.8146,-4.2446,-3.2321,-3.0171,-2.3554,-1.7043,-2.2193,-1.4964,0.0903,2.6669
-2.668,-2.953,-2.565,-3.1011,-2.3543,-1.7649,-1.8069,-0.4147,-0.4401,-1.6882,-0.9401,-1.2001,-2.5459,-3.4261,-3.7673,-4.2642,-4.3019,-2.9154,-4.7874,-4.4467,-4.0386,-4.3753,-3.3132,-3.1154,-2.3256,-1.7374,-2.3098,-1.6474,0.1003,2.8233
-2.7658,-3.1067,-2.6836,-3.2741,-2.5867,-1.9298,-2.0789,-0.617,-0.5845,-1.8509,-1.053,-1.3465,-2.6773,-3.5659,-3.8863,-4.3687,-4.4449,-3.0662,-4.8978,-4.586,-4.1827,-4.401,-3.3149,-3.1383,-2.2577,-1.7449,-2.3428,-1.7473,0.1115,2.9556
-2.8254,-3.2231,-2.7699,-3.4255,-2.8315,-2.0986,-2.3234,-0.8149,-0.702,-1.971,-1.1172,-1.436,-2.7343,-3.6314,-3.9595,-4.4051,-4.5166,-3.1543,-4.9216,-4.6586,-4.2549,-4.3319,-3.2363,-3.0976,-2.1677,-1.7379,-2.3291,-1.7992,0.1208,3.0631
-2.8551,-3.3104,-2.8274,-3.556,-3.0767,-2.2636,-2.5222,-0.9862,-0.7824,-2.0425,-1.1286,-1.4673,-2.7268,-3.6387,-3.9974,-4.3956,-4.532,-3.1802,-4.8756,-4.6851,-4.2749,-4.1892,-3.0862,-3.0109,-2.0713,-1.7245,-2.2816,-1.8074,0.1233,3.1492
-2.8672,-3.3812,-2.8647,-3.671,-3.3129,-2.4208,-2.6652,-1.1156,-0.8225,-2.0656,-1.0895,-1.4428,-2.6723,-3.6104,-4.0153,-4.3668,-4.5132,-3.154,-4.7858,-4.6906,-4.2678,-4.0015,-2.8827,-2.8991,-1.9818,-1.7086,-2.2137,-1.7763,0.1138,3.2191
-2.8747,-3.4488,-2.8931,-3.778,-3.5328,-2.5692,-2.7504,-1.1962,-0.8258,-2.0461,-1.009,-1.3695,-2.5927,-3.5704,-4.0285,-4.3441,-4.4838,-3.0932,-4.6821,-4.6984,-4.2578,-3.8012,-2.6512,-2.7835,-1.9089,-1.6905,-2.1371,-1.7111,0.0894,3.2778
-2.8893,-3.5248,-2.924,-3.8844,-3.7305,-2.7089,-2.7834,-1.2296,-0.8013,-1.9945,-0.9013,-1.2589,-2.5108,-3.5386,-4.0506,-4.3463,-4.4649,-3.02,-4.5936,-4.7249,-4.2633,-3.6202,-2.4226,-2.6831,-1.8584,-1.669,-2.0623,-1.6182,0.0506,3.3296
-2.92,-3.6174,-2.9668,-3.9967,-3.9008,-2.8401,-2.7741,-1.2234,-0.7603,-1.9249,-0.7836,-1.1265,-2.4472,-3.5287,-4.092,-4.3843,-4.4724,-2.958,-4.5449,-4.7785,-4.2945,-3.4875,-2.23,-2.6135,-1.8334,-1.6436,-1.9982,-1.506,0.0019,3.3784
-2.9722,-3.731,-3.0277,-4.1191,-4.0396,-2.9611,-2.7348,-1.1879,-0.7137,-1.8522,-0.6731,-0.9904,-2.4175,-3.5471,-4.1604,-4.4615,-4.5165,-2.929,-4.5542,-4.8605,-4.3541,-3.4264,-2.1053,-2.586,-1.8351,-1.6164,-1.9527,-1.3858,-0.0486,3.4283
-3.0486,-3.8668,-3.1093,-4.2537,-4.144,-3.0679,-2.6769,-1.1335,-0.6694,-1.7899,-0.5841,-0.8687,-2.4311,-3.5944,-4.261,-4.5754,-4.6016,-2.9505,-4.6314,-4.968,-4.4398,-3.4531,-2.0746,-2.6073,-1.8633,-1.5926,-1.932,-1.2704,-0.0919,3.4833
-3.1491,-4.0233,-3.21,-4.4001,-4.2126,-3.155,-2.6093,-1.0681,-0.631,-1.7474,-0.5254,-0.7768,-2.49,-3.6674,-4.3958,-4.7209,-4.7276,-3.0332,-4.7775,-5.0968,-4.5476,-3.5749,-2.155,-2.6786,-1.9166,-1.5786,-1.9404,-1.1725,-0.1202,3.5467
-3.2709,-4.1964,-3.3247,-4.5552,-4.246,-3.2159,-2.5377,-0.9965,-0.5984,-1.7285,-0.4994,-0.7255,-2.5889,-3.7606,-4.5616,-4.8907,-4.8893,-3.1789,-4.9844,-5.2428,-4.6732,-3.7887,-2.3498,-2.795,-1.9921,-1.5799,-1.9793,-1.1031,-0.1304,3.6189
-3.4079,-4.3795,-3.4462,-4.7123,-4.2464,-3.245,-2.4653,-0.9219,-0.5695,-1.7311,-0.5027,-0.7191,-2.7168,-3.8674,-4.7486,-5.0765,-5.0767,-3.3797,-5.2352,-5.4015,-4.8125,-4.0799,-2.6474,-2.9449,-2.0839,-1.5978,-2.0456,-1.0686,-0.1246,3.6961
-3.5512,-4.5631,-3.5663,-4.8623,-4.2176,-3.2393,-2.3945,-0.8469,-0.5426,-1.7488,-0.5278,-0.7559,-2.8589,-3.9801,-4.9396,-5.2683,-5.2753,-3.6174,-5.5061,-5.5663,-4.9602,-4.4228,-3.0203,-3.1102,-2.1828,-1.6278,-2.1318,-1.07,-0.1102,3.7701
-3.6892,-4.7357,-3.6769,-4.9937,-4.1653,-3.2005,-2.3289,-0.7763,-0.5187,-1.7732,-0.5661,-0.8285,-2.999,-4.0903,-5.1123,-5.4534,-5.4664,-3.8655,-5.769,-5.7276,-5.1085,-4.7821,-3.4288,-3.2683,-2.2754,-1.6591,-2.2258,-1.1017,-0.098,3.8295
-3.8083,-4.8845,-3.7709,-5.095,-4.0965,-3.1359,-2.2748,-0.7177,-0.5019,-1.7971,-0.6096,-0.9261,-3.122,-4.1887,-5.2427,-5.6172,-5.6293,-4.0926,-5.9953,-5.8717,-5.2461,-5.1171,-3.8261,-3.3947,-2.3455,-1.6765,-2.3131,-1.1527,-0.0986,3.8629
-3.8952,-4.9965,-3.8421,-5.1559,-4.0196,-3.0573,-2.2406,-0.6814,-0.499,-1.8166,-0.6535,-1.0364,-3.2165,-4.2657,-5.3113,-5.7436,-5.7443,-4.2676,-6.1598,-5.9822,-5.359,-5.387,-4.1647,-3.4672,-2.3758,-1.6643,-2.3789,-1.2093,-0.1196,3.8623
-3.9383,-5.0599,-3.8852,-5.1694,-3.9432,-2.979,-2.2357,-0.6784,-0.5171,-1.8317,-0.696,-1.148,-3.2757,-4.3132,-5.3075,-5.8173,-5.7958,-4.3651,-6.2443,-6.0429,-5.4327,-5.5571,-4.4035,-3.4699,-2.3514,-1.6105,-2.4111,-1.2577,-0.1644,3.8262
-3.9298,-5.0664,-3.8963,-5.1328,-3.876,-2.9151,-2.2679,-0.7176,-0.5615,-1.8454,-0.7378,-1.2521,-3.2991,-4.3261,-5.2326,-5.8271,-5.7754,-4.3701,-6.2407,-6.0412,-5.4558,-5.605,-4.5135,-3.3966,-2.264,-1.5112,-2.4039,-1.2877,-0.2308,3.761
-3.8684,-5.0129,-3.8737,-5.0492,-3.826,-2.8769,-2.3414,-0.8026,-0.6333,-1.862,-0.7815,-1.3439,-3.2923,-4.3046,-5.1008,-5.7687,-5.6848,-4.2816,-6.153,-5.9725,-5.4238,-5.525,-4.4818,-3.2532,-2.115,-1.3732,-2.359,-1.2955,-0.3128,3.6806
-3.7596,-4.9037,-3.8193,-4.9279,-3.8003,-2.8713,-2.4547,-0.9299,-0.7285,-1.8847,-0.8291,-1.4225,-3.2662,-4.2552,-4.9354,-5.6472,-5.536,-4.1122,-5.9965,-5.8419,-5.3412,-5.3293,-4.3139,-3.0569,-1.9176,-1.2135,-2.2866,-1.2846,-0.4016,3.603
-3.6164,-4.7509,-3.739,-4.7845,-3.8052,-2.9007,-2.6007,-1.0886,-0.8383,-1.9151,-0.8812,-1.4904,-3.235,-4.1903,-4.7638,-5.4775,-5.3503,-3.8865,-5.7955,-5.6655,-5.2224,-5.0468,-4.0334,-2.8347,-1.6952,-1.0567,-2.2036,-1.265,-0.4883,3.5464
-3.4568,-4.5735,-3.6428,-4.6383,-3.8449,-2.9632,-2.7668,-1.2622,-0.9511,-1.9523,-0.9358,-1.5518,-3.2128,-4.1257,-4.611,-5.2819,-5.1541,-3.6365,-5.5789,-5.467,-5.0887,-4.7176,-3.6789,-2.6179,-1.4782,-0.9294,-2.1302,-1.2505,-0.5652,3.5233
-3.3015,-4.3937,-3.5432,-4.5094,-3.9201,-3.0533,-2.9372,-1.4314,-1.0542,-1.994,-0.9891,-1.611,-3.2101,-4.0765,-4.4937,-5.0863,-4.974,-3.3958,-5.3739,-5.2737,-4.9638,-4.3858,-3.298,-2.4366,-1.2978,-0.8545,-2.0847,-1.2543,-0.6271,3.5382
-3.1688,-4.2328,-3.4526,-4.4146,-4.0267,-3.1622,-3.0946,-1.5776,-1.1365,-2.0373,-1.0355,-1.6708,-3.2303,-4.0535,-4.4175,-4.9143,-4.8309,-3.193,-5.2003,-5.1097,-4.8677,-4.0912,-2.9395,-2.3137,-1.1794,-0.8452,-2.0795,-1.2854,-0.6721,3.5856
-3.0713,-4.1066,-3.3808,-4.3635,-4.1544,-3.2791,-3.223,-1.6864,-1.1898,-2.0797,-1.0695,-1.7307,-3.2694,-4.0596,-4.3775,-4.782,-4.7351,-3.0467,-5.0662,-4.9904,-4.8116,-3.8625,-2.6448,-2.2604,-1.1381,-0.9021,-2.117,-1.345,-0.7009,3.6525
-3.0132,-4.0229,-3.3333,-4.3568,-4.2879,-3.3919,-3.3092,-1.7495,-1.2099,-2.119,-1.0862,-1.7866,-3.3168,-4.0894,-4.3609,-4.6945,-4.6843,-2.9621,-4.9677,-4.9196,-4.7953,-3.7135,-2.4417,-2.2748,-1.1759,-1.0126,-2.1895,-1.4257,-0.7157,3.7218
-2.9902,-3.9803,-3.3103,-4.3862,-4.4082,-3.4884,-3.3449,-1.7656,-1.1969,-2.1521,-1.0824,-1.8309,-3.3584,-4.1303,-4.352,-4.6461,-4.6648,-2.9319,-4.891,-4.8889,-4.808,-3.6436,-2.341,-2.3434,-1.2826,-1.1535,-2.2803,-1.5121,-0.7195,3.7766
-2.991,-3.9694,-3.3077,-4.4354,-4.4951,-3.5572,-3.3264,-1.7391,-1.1539,-2.174,-1.0569,-1.8544,-3.3802,-4.1656,-4.3354,-4.6219,-4.6561,-2.9393,-4.8186,-4.8806,-4.8309,-3.6411,-2.3385,-2.4443,-1.4384,-1.2961,-2.3679,-1.5844,-0.7149,3.8033
-3.0004,-3.9756,-3.3173,-4.4836,-4.5302,-3.5882,-3.2537,-1.6773,-1.0858,-2.1762,-1.0105,-1.8479,-3.3712,-4.1779,-4.2998,-4.6018,-4.6365,-2.9637,-4.7349,-4.8727,-4.8423,-3.6877,-2.4179,-2.5522,-1.6188,-1.4125,-2.4312,-1.623,-0.7033,3.7931
-3.0027,-3.9821,-3.3296,-4.5087,-4.4987,-3.5733,-3.1295,-1.5881,-0.9974,-2.1473,-0.945,-1.8051,-3.3254,-4.1527,-4.2386,-4.5662,-4.5888,-2.9857,-4.6317,-4.8439,-4.8223,-3.7639,-2.5569,-2.6431,-1.7986,-1.4811,-2.4537,-1.613,-0.6852,3.7427
-2.9858,-3.9739,-3.335,-4.4916,-4.3926,-3.5067,-2.9578,-1.4774,-0.8928,-2.0746,-0.8635,-1.7245,-3.2415,-4.0808,-4.1506,-4.4997,-4.5046,-2.992,-4.5108,-4.7792,-4.7576,-3.8522,-2.7314,-2.6983,-1.9556,-1.4913,-2.4271,-1.5486,-0.6599,3.6532
-2.9431,-3.9411,-3.3271,-4.4206,-4.2122,-3.3872,-2.7452,-1.3491,-0.7745,-1.9489,-0.7694,-1.6109,-3.123,-3.9603,-4.0388,-4.3957,-4.385,-2.9764,-4.3835,-4.6727,-4.6439,-3.9386,-2.9185,-2.7065,-2.0727,-1.4445,-2.3529,-1.4347,-0.6266,3.5297
-2.8757,-3.8811,-3.304,-4.2948,-3.9682,-3.22,-2.5013,-1.2067,-0.6453,-1.7688,-0.6677,-1.4753,-2.9768,-3.7974,-3.9094,-4.2574,-4.2401,-2.9396,-4.267,-4.5293,-4.4871,-4.0127,-3.098,-2.6648,-2.1388,-1.3534,-2.2411,-1.2868,-0.5848,3.3806
-2.7911,-3.7991,-3.2693,-4.1251,-3.682,-3.0184,-2.2412,-1.0552,-0.5089,-1.544,-0.5645,-1.3341,-2.8124,-3.6061,-3.7714,-4.0973,-4.0857,-2.8878,-4.1791,-4.3633,-4.3022,-4.0665,-3.252,-2.5779,-2.1489,-1.2374,-2.1083,-1.1272,-0.535,3.2171
-2.7022,-3.7066,-3.231,-3.9333,-3.3842,-2.8039,-1.986,-0.9027,-0.3715,-1.2957,-0.4676,-1.206,-2.642,-3.4063,-3.636,-3.9352,-3.9401,-2.8292,-4.1324,-4.1961,-4.1114,-4.094,-3.3658,-2.4563,-2.1043,-1.1184,-1.9734,-0.981,-0.4794,3.0529
-2.6238,-3.6191,-3.1991,-3.7483,-3.1105,-2.6037,-1.7614,-0.7613,-0.2414,-1.0537,-0.3853,-1.109,-2.4798,-3.2217,-3.5164,-3.7936,-3.8205,-2.7723,-4.1307,-4.0513,-3.9393,-4.0911,-3.4278,-2.3141,-2.0112,-1.0154,-1.8542,-0.8707,-0.4212,2.9036
-2.5696,-3.5518,-3.183,-3.5995,-2.8962,-2.4459,-1.5947,-0.6449,-0.1283,-0.8507,-0.3251,-1.0568,-2.3413,-3.0756,-3.426,-3.6937,-3.7414,-2.7236,-4.1689,-3.9504,-3.8089,-4.0567,-3.4312,-2.167,-1.8809,-0.9414,-1.7644,-0.8122,-0.3651,2.7851
-2.5488,-3.5156,-3.1879,-3.5104,-2.7688,-2.3531,-1.5089,-0.5672,-0.0415,-0.7159,-0.2923,-1.0567,-2.2419,-2.9865,-3.3759,-3.6505,-3.7111,-2.6874,-4.2347,-3.9081,-3.7369,-3.9931,-3.3752,-2.0299,-1.7287,-0.9019,-1.7116,-0.8118,-0.3164,2.7105
-2.564,-3.5145,-3.2138,-3.4923,-2.7422,-2.3372,-1.5179,-0.538,0.0118,-0.6688,-0.2886,-1.1079,-2.1944,-2.9648,-3.3709,-3.6687,-3.731,-2.6645,-4.3129,-3.9287,-3.7296,-3.9062,-3.2661,-1.9159,-1.572,-0.8954,-1.6974,-0.8667,-0.28,2.687
-2.6105,-3.5434,-3.2542,-3.5414,-2.8129,-2.3958,-1.6215,-0.5599,0.0288,-0.715,-0.3111,-1.2023,-2.2063,-3.01,-3.4068,-3.7415,-3.7933,-2.6531,-4.3881,-4.0043,-3.7819,-3.804,-3.1169,-1.8348,-1.4296,-0.916,-1.7186,-0.9662,-0.2595,2.713
-2.6762,-3.5888,-3.2977,-3.6396,-2.9605,-2.5119,-1.8039,-0.6269,0.0116,-0.8448,-0.3528,-1.3257,-2.2771,-3.1103,-3.4697,-3.8506,-3.8813,-2.6482,-4.4471,-4.1163,-3.8771,-3.6958,-2.9455,-1.7924,-1.3186,-0.956,-1.7688,-1.0943,-0.256,2.778
-2.7443,-3.6318,-3.3297,-3.7576,-3.1512,-2.6574,-2.0356,-0.7244,-0.0316,-1.0343,-0.4027,-1.4597,-2.397,-3.2445,-3.5384,-3.9694,-3.9709,-2.6415,-4.4796,-4.2378,-3.9904,-3.5896,-2.7723,-1.7907,-1.2535,-1.0083,-1.8405,-1.233,-0.268,2.864
-2.7967,-3.6515,-3.3363,-3.8621,-3.3442,-2.7988,-2.2777,-0.8312,-0.0878,-1.2501,-0.4476,-1.585,-2.5477,-3.3864,-3.5899,-4.0681,-4.0348,-2.6228,-4.4785,-4.3393,-4.0935,-3.4917,-2.6173,-1.8276,-1.2437,-1.0679,-1.9261,-1.3645,-0.2916,2.9508
-2.817,-3.6306,-3.3071,-3.9225,-3.5,-2.9037,-2.4887,-0.9232,-0.1407,-1.4548,-0.4741,-1.6836,-2.7052,-3.5089,-3.6053,-4.1202,-4.0483,-2.5821,-4.4403,-4.3941,-4.1604,-3.4061,-2.4982,-1.8979,-1.2921,-1.1317,-2.0181,-1.4737,-0.3219,3.0201
-2.795,-3.5592,-3.2385,-3.9177,-3.5876,-2.9479,-2.6322,-0.9785,-0.1738,-1.6137,-0.4716,-1.742,-2.8435,-3.5896,-3.5751,-4.108,-3.9951,-2.5133,-4.3654,-4.384,-4.1723,-3.3351,-2.4285,-1.9934,-1.3938,-1.1975,-2.1096,-1.5491,-0.3537,3.0597
-2.7285,-3.438,-3.1351,-3.8405,-3.59,-2.9199,-2.6828,-0.9812,-0.1735,-1.7005,-0.4346,-1.7531,-2.9393,-3.6142,-3.5015,-4.0258,-3.8717,-2.4184,-4.2588,-4.3025,-4.1211,-3.2804,-2.4165,-2.1039,-1.5368,-1.2627,-2.1936,-1.584,-0.3825,3.0648
-2.6242,-3.278,-3.0092,-3.6979,-3.5062,-2.8218,-2.6301,-0.9249,-0.1322,-1.7002,-0.3642,-1.7171,-2.9758,-3.5781,-3.3959,-3.8811,-3.6888,-2.3085,-4.1293,-4.1559,-4.0098,-3.2431,-2.4654,-2.2181,-1.7029,-1.3233,-2.2635,-1.5764,-0.4044,3.0365
-2.4962,-3.0992,-2.8783,-3.5097,-3.3499,-2.6687,-2.4799,-0.8135,-0.0496,-1.6111,-0.2679,-1.6412,-2.9453,-3.4864,-3.2757,-3.6921,-3.4688,-2.2023,-3.9895,-3.9608,-3.8511,-3.224,-2.5724,-2.3242,-1.8707,-1.374,-2.3131,-1.529,-0.4162,2.9798
-2.363,-2.9256,-2.7616,-3.3027,-3.1455,-2.484,-2.2517,-0.6604,0.0668,-1.4442,-0.1578,-1.5378,-2.8497,-3.3512,-3.1582,-3.4831,-3.2407,-2.1213,-3.8529,-3.7405,-3.6638,-3.223,-2.7285,-2.4107,-2.0189,-1.4087,-2.3371,-1.4482,-0.415,2.9005
-2.243,-2.7806,-2.6755,-3.1052,-2.922,-2.2945,-1.9745,-0.4853,0.204,-1.2206,-0.0475,-1.422,-2.6997,-3.1886,-3.0573,-3.2797,-3.0337,-2.0833,-3.7325,-3.5198,-3.4681,-3.2373,-2.9182,-2.4673,-2.1283,-1.4216,-2.3314,-1.343,-0.3986,2.8039
-2.1502,-2.6817,-2.6299,-2.9398,-2.7062,-2.1237,-1.6811,-0.3103,0.3463,-0.9684,0.0506,-1.3083,-2.5116,-3.0145,-2.9809,-3.1029,-2.8709,-2.0964,-3.6374,-3.3191,-3.281,-3.2609,-3.1197,-2.4856,-2.1852,-1.4085,-2.2931,-1.2238,-0.3668,2.6951
-2.0913,-2.6363,-2.6259,-2.8198,-2.5177,-1.9876,-1.4032,-0.1559,0.4777,-0.7177,0.1279,-1.2087,-2.3038,-2.8421,-2.9307,-2.9654,-2.7647,-2.1555,-3.5714,-3.1514,-3.1136,-3.2839,-3.3063,-2.4597,-2.1815,-1.3679,-2.2211,-1.1011,-0.3222,2.5802
-2.0641,-2.6404,-2.6557,-2.7464,-2.3668,-1.8924,-1.1672,-0.0384,0.5847,-0.4968,0.1797,-1.1315,-2.0942,-2.6801,-2.9035,-2.8699,-2.7145,-2.2431,-3.5311,-3.02,-2.9701,-3.2935,-3.4502,-2.3872,-2.1165,-1.3019,-2.1167,-0.985,-0.2704,2.467
-2.0587,-2.6796,-2.7048,-2.7111,-2.2545,-1.8354,-0.9924,0.0318,0.6572,-0.329,0.2047,-1.0812,-1.8983,-2.5342,-2.8935,-2.8106,-2.7087,-2.3324,-3.5068,-2.9204,-2.8493,-3.277,-3.5264,-2.2702,-1.996,-1.2157,-1.9841,-0.8845,-0.22,2.3659
-2.061,-2.7333,-2.7556,-2.6991,-2.1764,-1.8085,-0.8903,0.0497,0.6887,-0.2304,0.2034,-1.0599,-1.7286,-2.4078,-2.8932,-2.7759,-2.7281,-2.394,-3.4844,-2.8438,-2.7476,-3.2249,-3.5179,-2.116,-1.832,-1.1174,-1.8313,-0.8069,-0.1804,2.2877
-2.0566,-2.78,-2.7922,-2.6946,-2.1262,-1.8019,-0.8651,0.0154,0.6766,-0.2085,0.1773,-1.0676,-1.5948,-2.305,-2.8953,-2.7532,-2.7517,-2.4032,-3.4489,-2.7812,-2.6623,-3.1339,-3.4196,-1.9365,-1.642,-1.0166,-1.6698,-0.7573,-0.1603,2.2416
-2.0348,-2.8022,-2.8033,-2.6847,-2.0986,-1.8077,-0.914,-0.0661,0.6223,-0.2613,0.1286,-1.1027,-1.5033,-2.2306,-2.8929,-2.7322,-2.7625,-2.3457,-3.3881,-2.7268,-2.5939,-3.0091,-3.24,-1.7481,-1.447,-0.9229,-1.5139,-0.7381,-0.1654,2.232
-1.9908,-2.7906,-2.7842,-2.6621,-2.0911,-1.8209,-1.0275,-0.1855,0.5309,-0.3778,0.06,-1.1616,-1.457,-2.1899,-2.8799,-2.7076,-2.7506,-2.2212,-3.2966,-2.6794,-2.5456,-2.8631,-3.0001,-1.5689,-1.269,-0.8449,-1.3788,-0.748,-0.1971,2.2562
-1.9267,-2.7446,-2.7365,-2.626,-2.103,-1.8395,-1.19,-0.3295,0.4114,-0.5397,-0.0248,-1.2387,-1.4548,-2.187,-2.8518,-2.6794,-2.7153,-2.044,-3.1771,-2.6425,-2.5228,-2.7144,-2.7296,-1.417,-1.1282,-0.789,-1.2778,-0.7822,-0.2522,2.3048
-1.8502,-2.6723,-2.6668,-2.5806,-2.1341,-1.8628,-1.381,-0.482,0.2757,-0.7242,-0.12,-1.3264,-1.4913,-2.223,-2.807,-2.6519,-2.664,-1.8404,-3.0412,-2.6215,-2.5303,-2.5831,-2.462,-1.3076,-1.0406,-0.7596,-1.2204,-0.8334,-0.3236,2.3633
-1.773,-2.5876,-2.5845,-2.534,-2.1831,-1.8906,-1.5774,-0.6261,0.1378,-0.9078,-0.2181,-1.4158,-1.5578,-2.2938,-2.7491,-2.632,-2.6099,-1.6439,-2.9071,-2.6222,-2.5698,-2.4876,-2.2287,-1.2508,-1.0151,-0.7583,-1.2107,-0.8926,-0.4015,2.417
-1.7083,-2.5076,-2.5008,-2.4956,-2.246,-1.9218,-1.7556,-0.746,0.0126,-1.0692,-0.3094,-1.4974,-1.6427,-2.3901,-2.6872,-2.6274,-2.5684,-1.4889,-2.7956,-2.6476,-2.6379,-2.4405,-2.0542,-1.25,-1.053,-0.7846,-1.2466,-0.9512,-0.4749,2.455
-1.6683,-2.4485,-2.4262,-2.4745,-2.316,-1.9546,-1.8943,-0.8285,-0.0853,-1.1913,-0.3828,-1.5626,-1.7336,-2.4978,-2.6349,-2.6438,-2.5531,-1.4037,-2.7245,-2.6968,-2.726,-2.4455,-1.9522,-1.3015,-1.1474,-0.8355,-1.3208,-1.002,-0.5327,2.4724
-1.6611,-2.4225,-2.3694,-2.4766,-2.3837,-1.9851,-1.9766,-0.8642,-0.1428,-1.2622,-0.4267,-1.6045,-1.8175,-2.5995,-2.606,-2.6828,-2.5707,-1.4028,-2.7028,-2.7635,-2.8205,-2.4962,-1.9242,-1.3941,-1.2847,-0.9056,-1.4217,-1.0403,-0.5653,2.4699
-1.6888,-2.4341,-2.3352,-2.5027,-2.4374,-2.0075,-1.9917,-0.8481,-0.1499,-1.275,-0.431,-1.6187,-1.8823,-2.6768,-2.6091,-2.7402,-2.6183,-1.4835,-2.727,-2.8362,-2.9037,-2.576,-1.9594,-1.5102,-1.4463,-0.9874,-1.5354,-1.0636,-0.5664,2.4511
-1.7456,-2.4783,-2.3227,-2.5467,-2.465,-2.0136,-1.9356,-0.7803,-0.1017,-1.2273,-0.3891,-1.6041,-1.9173,-2.7124,-2.6427,-2.8047,-2.6816,-1.6244,-2.7802,-2.8985,-2.9565,-2.6607,-2.0375,-1.6282,-1.611,-1.0714,-1.647,-1.0717,-0.5341,2.4197
-1.8182,-2.5418,-2.3259,-2.5957,-2.4554,-1.9947,-1.812,-0.666,0.0004,-1.1212,-0.2996,-1.5625,-1.9139,-2.6933,-2.6936,-2.8596,-2.7375,-1.7897,-2.835,-2.9315,-2.9611,-2.7225,-2.1321,-1.7253,-1.7582,-1.1473,-1.742,-1.0658,-0.472,2.3766
-1.8882,-2.6048,-2.3336,-2.6325,-2.401,-1.9436,-1.6322,-0.5162,0.1476,-0.963,-0.1678,-1.4984,-1.8671,-2.612,-2.739,-2.8848,-2.7587,-1.9365,-2.8603,-2.9171,-2.9038,-2.7359,-2.216,-1.7809,-1.8699,-1.2051,-1.8084,-1.0476,-0.3886,2.3201
-1.9355,-2.6461,-2.3329,-2.6391,-2.3004,-1.8578,-1.414,-0.3469,0.3237,-0.7642,-0.0058,-1.4185,-1.7762,-2.4689,-2.7516,-2.8615,-2.7205,-2.024,-2.8288,-2.8414,-2.7784,-2.6829,-2.2653,-1.7802,-1.9337,-1.2372,-1.8368,-1.0187,-0.296,2.246
-1.9428,-2.6482,-2.3117,-2.6016,-2.1588,-1.7407,-1.18,-0.1777,0.507,-0.5407,0.1692,-1.3306,-1.6459,-2.2724,-2.7065,-2.7766,-2.6071,-2.0227,-2.7247,-2.6987,-2.5877,-2.5569,-2.2637,-1.7171,-1.9447,-1.2388,-1.822,-0.9803,-0.2075,2.1501
-1.8997,-2.601,-2.2621,-2.5139,-1.9886,-1.6029,-0.9547,-0.0293,0.6733,-0.3122,0.3367,-1.2431,-1.486,-2.038,-2.5885,-2.6265,-2.4171,-1.9209,-2.5475,-2.4931,-2.344,-2.3651,-2.2042,-1.5951,-1.9056,-1.2097,-1.7629,-0.9333,-0.1352,2.0308
-1.8049,-2.504,-2.1818,-2.3795,-1.8073,-1.4593,-0.7611,0.0798,0.8003,-0.0997,0.4766,-1.1635,-1.3109,-1.7865,-2.3971,-2.4183,-2.164,-1.7273,-2.3132,-2.2393,-2.0681,-2.1271,-2.0902,-1.4269,-1.8266,-1.153,-1.6631,-0.8783,-0.0878,1.8913
-1.6665,-2.3661,-2.0741,-2.2106,-1.6335,-1.3267,-0.6173,0.1366,0.8711,0.0775,0.5726,-1.098,-1.1372,-1.5411,-2.1484,-2.1695,-1.8741,-1.4695,-2.0504,-1.9603,-1.7856,-1.8713,-1.9343,-1.2322,-1.7228,-1.0757,-1.5301,-0.8169,-0.0689,1.7409
-1.4998,-2.2014,-1.9471,-2.025,-1.4839,-1.2187,-0.5338,0.1353,0.8771,0.2044,0.6148,-1.0508,-0.981,-1.3231,-1.8719,-1.9035,-1.5808,-1.187,-1.7945,-1.6828,-1.5228,-1.6289,-1.7558,-1.0341,-1.6111,-0.9863,-1.3756,-0.7517,-0.0771,1.5937
-1.3232,-2.0257,-1.8103,-1.8402,-1.368,-1.1423,-0.5123,0.0792,0.8196,0.2731,0.6013,-1.024,-0.8556,-1.1493,-1.6038,-1.645,-1.3163,-0.9228,-1.5791,-1.4318,-1.3016,-1.4276,-1.5772,-0.8547,-1.5066,-0.8944,-1.2134,-0.6877,-0.1065,1.4653
-1.1538,-1.8509,-1.6729,-1.6696,-1.2869,-1.0958,-0.5449,-0.0212,0.7088,0.2832,0.5387,-1.0177,-0.7686,-1.0281,-1.377,-1.4137,-1.1047,-0.7136,-1.4288,-1.225,-1.1353,-1.2857,-1.4197,-0.7115,-1.4195,-0.8085,-1.0585,-0.6309,-0.1485,1.3687
-1.0036,-1.6832,-1.5413,-1.5182,-1.2322,-1.0694,-0.6165,-0.1492,0.5621,0.2421,0.4402,-1.0298,-0.721,-0.9592,-1.2131,-1.2205,-0.9567,-0.5824,-1.3537,-1.0696,-1.0266,-1.2083,-1.2995,-0.6143,-1.3538,-0.7352,-0.9249,-0.5878,-0.1938,1.3098
-0.8775,-1.5225,-1.419,-1.3831,-1.189,-1.048,-0.7063,-0.2858,0.4012,0.1628,0.3235,-1.0555,-0.7062,-0.9331,-1.1181,-1.0656,-0.8685,-0.5348,-1.3478,-0.9605,-0.9673,-1.1874,-1.2252,-0.5642,-1.3067,-0.6777,-0.8225,-0.5633,-0.2349,1.2862
-0.7738,-1.3644,-1.307,-1.2555,-1.139,-1.0159,-0.7918,-0.4126,0.2487,0.0626,0.2086,-1.0876,-0.7117,-0.9335,-1.0828,-0.9407,-0.8249,-0.5594,-1.3926,-0.8833,-0.9405,-1.2048,-1.1967,-0.5544,-1.2715,-0.6357,-0.756,-0.5585,-0.2672,1.2883
-0.6862,-1.2039,-1.2059,-1.1248,-1.0659,-0.9614,-0.8513,-0.5145,0.1252,-0.0402,0.1147,-1.1155,-0.7206,-0.9403,-1.0882,-0.8328,-0.8048,-0.6321,-1.4627,-0.8183,-0.9249,-1.2367,-1.2063,-0.5717,-1.2391,-0.6049,-0.7227,-0.5689,-0.2895,1.3026
-0.6073,-1.0387,-1.1175,-0.9832,-0.9583,-0.8799,-0.8667,-0.581,0.0469,-0.1274,0.0581,-1.1263,-0.7144,-0.9333,-1.1127,-0.7286,-0.7873,-0.7229,-1.5325,-0.7463,-0.8993,-1.26,-1.2401,-0.5997,-1.2014,-0.5783,-0.7132,-0.5844,-0.3031,1.3159
-0.5316,-0.8713,-1.0459,-0.8286,-0.8133,-0.775,-0.8264,-0.6074,0.0238,-0.1834,0.0509,-1.1059,-0.6764,-0.8958,-1.1376,-0.6195,-0.7568,-0.8024,-1.5822,-0.6537,-0.8474,-1.2564,-1.2813,-0.6208,-1.1521,-0.5467,-0.7128,-0.5902,-0.3108,1.3184
-0.4569,-0.7091,-0.9968,-0.6665,-0.6366,-0.6576,-0.7262,-0.5942,0.0582,-0.1964,0.0993,-1.0414,-0.5946,-0.8175,-1.1518,-0.5029,-0.7058,-0.8487,-1.601,-0.5359,-0.7604,-1.2153,-1.3122,-0.619,-1.0875,-0.5007,-0.7041,-0.5692,-0.3147,1.3047
-0.3855,-0.5626,-0.9762,-0.5079,-0.4419,-0.5431,-0.5701,-0.5465,0.1456,-0.1594,0.2032,-0.9233,-0.4633,-0.6961,-1.1522,-0.383,-0.6353,-0.8512,-1.5874,-0.398,-0.6387,-1.1346,-1.3173,-0.5814,-1.0056,-0.4318,-0.6707,-0.5059,-0.3156,1.2735
-0.3224,-0.4419,-0.9879,-0.3668,-0.2477,-0.4474,-0.37,-0.4728,0.2746,-0.0709,0.3568,-0.7484,-0.2842,-0.5372,-1.1419,-0.2684,-0.5535,-0.8123,-1.5468,-0.2525,-0.4907,-1.019,-1.2852,-0.4995,-0.9053,-0.3342,-0.5999,-0.3895,-0.3128,1.2262
-0.2732,-0.3535,-1.031,-0.2554,-0.0738,-0.3833,-0.1442,-0.3834,0.4299,0.0655,0.549,-0.5207,-0.0666,-0.3528,-1.127,-0.1681,-0.4719,-0.7455,-1.4877,-0.115,-0.3299,-0.8778,-1.2096,-0.3707,-0.786,-0.2055,-0.4856,-0.2176,-0.3049,1.1649
-0.2409,-0.297,-1.0984,-0.1802,0.0637,-0.3569,0.086,-0.2886,0.5943,0.2415,0.7653,-0.2523,0.1747,-0.1583,-1.1126,-0.0877,-0.4008,-0.67,-1.4166,0.0009,-0.1713,-0.7212,-1.0895,-0.1983,-0.6484,-0.0477,-0.3295,0.0032,-0.2903,1.092
-0.2242,-0.2643,-1.1765,-0.1392,0.1557,-0.3657,0.2993,-0.1971,0.7519,0.4451,0.9893,0.0381,0.421,0.0301,-1.1005,-0.0269,-0.3447,-0.6038,-1.3351,0.0876,-0.0279,-0.5583,-0.9288,0.0083,-0.4955,0.1325,-0.141,0.2569,-0.2684,1.0088
-0.2168,-0.2411,-1.2474,-0.1219,0.2031,-0.3989,0.4784,-0.1142,0.8903,0.6616,1.2048,0.3274,0.6526,0.1993,-1.0878,0.0215,-0.2999,-0.5577,-1.2383,0.1458,0.093,-0.3949,-0.7354,0.2343,-0.3338,0.324,0.0643,0.5207,-0.239,0.9165
-0.2085,-0.2104,-1.2921,-0.1116,0.2154,-0.4395,0.6122,-0.0419,1.0016,0.8757,1.3963,0.5907,0.8518,0.3405,-1.0676,0.0698,-0.2537,-0.5318,-1.1164,0.1841,0.1899,-0.2338,-0.5206,0.4613,-0.1736,0.513,0.2673,0.7683,-0.2022,0.8162
-0.1878,-0.1569,-1.2947,-0.0897,0.2094,-0.4685,0.6971,0.0202,1.082,1.0724,1.5509,0.8052,1.0046,0.4507,-1.0314,0.132,-0.1876,-0.5159,-0.9585,0.2162,0.2675,-0.0757,-0.2986,0.67,-0.028,0.6842,0.4488,0.9744,-0.1573,0.7096
-0.1451,-0.0705,-1.2462,-0.0398,0.2049,-0.4685,0.7365,0.0742,1.1311,1.2397,1.6586,0.9532,1.1035,0.5322,-0.9709,0.2198,-0.0819,-0.4935,-0.7573,0.2573,0.3346,0.0796,-0.0851,0.8429,0.089,0.8237,0.5922,1.1187,-0.1033,0.5991
-0.0751,0.0517,-1.1465,0.0486,0.2205,-0.4281,0.7397,0.1211,1.1505,1.3692,1.7139,1.0255,1.1482,0.5915,-0.8814,0.3404,0.0777,-0.4477,-0.513,0.3208,0.4019,0.2322,0.105,0.9681,0.1658,0.9209,0.6875,1.1896,-0.039,0.4878
0.0226,0.2051,-1.0046,0.1783,0.27,-0.344,0.7188,0.1604,1.1432,1.4577,1.7165,1.0225,1.146,0.6379,-0.762,0.4943,0.2959,-0.3679,-0.2348,0.4157,0.4799,0.3818,0.2599,1.0413,0.1956,0.9708,0.7323,1.1866,0.0356,0.379
0.1431,0.38,-0.8362,0.3448,0.3598,-0.2223,0.6868,0.1889,1.1132,1.5064,1.6721,0.955,1.1109,0.6814,-0.6174,0.6763,0.5645,-0.2537,0.0593,0.5453,0.5765,0.5277,0.3738,1.0677,0.1789,0.9758,0.7331,1.1199,0.1178,0.276
0.2779,0.5642,-0.6601,0.5379,0.4882,-0.0771,0.6551,0.2013,1.0653,1.5213,1.5913,0.8414,1.0608,0.7317,-0.4566,0.8768,0.8637,-0.1159,0.3463,0.7071,0.6963,0.6697,0.4482,1.0607,0.124,0.9449,0.7036,1.0086,0.2021,0.1819
0.417,0.7451,-0.4946,0.7444,0.6461,0.0727,0.6324,0.1924,1.0054,1.5112,1.4891,0.7054,1.0149,0.7966,-0.2929,1.0837,1.1657,0.0263,0.6022,0.8943,0.8397,0.8081,0.4911,1.0391,0.0456,0.8923,0.662,0.877,0.2805,0.1004
0.5509,0.9124,-0.354,0.9506,0.8205,0.2084,0.6243,0.1588,0.9407,1.4873,1.3822,0.5708,0.9902,0.8811,-0.1412,1.2853,1.441,0.1518,0.8071,1.0969,1.0034,0.9435,0.5157,1.0229,-0.0387,0.8341,0.6273,0.7498,0.3443,0.0358
0.6721,1.0589,-0.2468,1.1446,0.9972,0.3154,0.6339,0.1012,0.8787,1.4616,1.2865,0.4585,0.9992,0.9876,-0.0163,1.472,1.6649,0.2433,0.9489,1.3044,1.182,1.0764,0.5367,1.0291,-0.112,0.7846,0.6153,0.6475,0.3868,-0.007
0.7765,1.1809,-0.1751,1.3184,1.1638,0.3874,0.6626,0.0251,0.827,1.4457,1.2152,0.3828,1.0484,1.1157,0.0702,1.6374,1.8233,0.293,1.025,1.5073,1.3689,1.2067,0.5673,1.0678,-0.1617,0.7542,0.6363,0.5843,0.4047,-0.0244
0.8629,1.2782,-0.1358,1.4677,1.3123,0.4262,0.7098,-0.0596,0.7912,1.4486,1.1765,0.3513,1.1379,1.2623,0.1128,1.7786,1.9152,0.3037,1.0433,1.698,1.5573,1.3337,0.6171,1.1411,-0.1816,0.7476,0.6937,0.5663,0.3996,-0.0153
0.9327,1.3526,-0.1223,1.5911,1.438,0.4406,0.7735,-0.1408,0.7748,1.4753,1.1732,0.3643,1.2626,1.4221,0.1122,1.8953,1.9512,0.288,1.0199,1.8711,1.7411,1.4561,0.6901,1.244,-0.1719,0.7647,0.7847,0.5933,0.3775,0.0172
0.9883,1.4063,-0.1266,1.689,1.5389,0.4418,0.8496,-0.2064,0.7783,1.5254,1.2031,0.4174,1.4129,1.5876,0.0754,1.9883,1.9497,0.2637,0.9763,2.0227,1.9141,1.5719,0.7854,1.3658,-0.1379,0.8017,0.9012,0.6598,0.3473,0.0658
1.0316,1.4411,-0.1421,1.7611,1.614,0.4399,0.9325,-0.2472,0.7997,1.5928,1.26,0.5024,1.5772,1.7495,0.0131,2.0579,1.9308,0.2486,0.9344,2.1492,2.0699,1.6788,0.8973,1.4935,-0.0881,0.8526,1.0321,0.7578,0.3188,0.1205
1.0631,1.457,-0.164,1.8058,1.6624,0.4412,1.0159,-0.2578,0.8352,1.6679,1.3354,0.6099,1.7431,1.8983,-0.0628,2.1031,1.911,0.255,0.9125,2.2468,2.2023,1.7739,1.0177,1.6145,-0.0321,0.9105,1.1656,0.8781,0.3003,0.17
1.0815,1.4534,-0.1896,1.8207,1.6841,0.4476,1.0946,-0.2368,0.8802,1.7401,1.4206,0.7302,1.9,2.0256,-0.1416,2.1224,1.8996,0.2859,0.9218,2.3122,2.3056,1.8551,1.1368,1.7187,0.021,0.9689,1.2907,1.0113,0.2973,0.2044
1.0846,1.43,-0.2177,1.8041,1.6812,0.4585,1.166,-0.1859,0.9309,1.8017,1.5085,0.8545,2.0402,2.1258,-0.215,2.1143,1.8983,0.3338,0.9641,2.3434,2.3763,1.9209,1.245,1.7999,0.0641,1.0214,1.3989,1.1482,0.3113,0.2166
1.0703,1.3882,-0.2473,1.7571,1.6599,0.4733,1.2313,-0.1081,0.9852,1.8504,1.5947,0.9753,2.1599,2.1982,-0.2783,2.0794,1.9022,0.3833,1.0328,2.3416,2.4146,1.9709,1.3336,1.8562,0.0928,1.063,1.4848,1.2798,0.3402,0.2033
1.0381,1.3322,-0.2771,1.6854,1.6302,0.4935,1.2951,-0.0072,1.0427,1.8893,1.6775,1.0868,2.2592,2.2464,-0.3298,2.0214,1.903,0.4148,1.1146,2.3116,2.4247,2.006,1.396,1.8888,0.1053,1.0898,1.5455,1.3976,0.3794,0.1656
0.9898,1.2691,-0.3045,1.5991,1.6052,0.523,1.3633,0.1124,1.1035,1.9253,1.7569,1.184,2.3406,2.2771,-0.3707,1.9469,1.8917,0.4114,1.193,2.2617,2.4144,2.0272,1.4278,1.9009,0.1024,1.0994,1.5799,1.4931,0.4229,0.1093
0.9302,1.2077,-0.3263,1.5115,1.5981,0.5667,1.4401,0.2444,1.1675,1.9652,1.8324,1.2623,2.4072,2.2981,-0.4041,1.8653,1.8617,0.3642,1.2532,2.2023,2.3929,2.035,1.427,1.8959,0.0861,1.0912,1.5879,1.5588,0.4652,0.0448
0.8663,1.1574,-0.3384,1.4369,1.6185,0.6283,1.5255,0.3806,1.232,2.0118,1.9008,1.3166,2.4608,2.3151,-0.4342,1.7863,1.81,0.2764,1.285,2.1436,2.369,2.0291,1.3939,1.8757,0.059,1.0665,1.569,1.5883,0.5024,-0.0146
0.8071,1.127,-0.3363,1.3883,1.6711,0.7093,1.6142,0.5107,1.2917,2.0624,1.9558,1.3412,2.5009,2.3309,-0.4648,1.7196,1.739,0.1642,1.2858,2.0947,2.3496,2.008,1.3315,1.8401,0.0238,1.0275,1.5228,1.5773,0.5329,-0.0542
0.7628,1.1246,-0.3148,1.3762,1.7553,0.8087,1.6968,0.6243,1.3393,2.1086,1.9878,1.3305,2.525,2.3453,-0.4971,1.6739,1.6563,0.0545,1.2608,2.063,2.3395,1.9709,1.2452,1.7875,-0.0178,0.9775,1.4491,1.5245,0.556,-0.0608
0.744,1.1566,-0.2685,1.4078,1.8663,0.9241,1.7627,0.7127,1.367,2.1394,1.987,1.2809,2.5301,2.3571,-0.5286,1.6572,1.5743,-0.0214,1.2221,2.0545,2.3423,1.919,1.1429,1.7164,-0.0645,0.9205,1.35,1.4324,0.5718,-0.0264
0.7593,1.2277,-0.1928,1.4864,1.9969,1.0522,1.8038,0.7712,1.3696,2.145,1.9464,1.1928,2.5144,2.3656,-0.5526,1.6754,1.5086,-0.0352,1.1848,2.0738,2.3609,1.8563,1.0346,1.6271,-0.115,0.861,1.2305,1.3083,0.5795,0.0496
0.8134,1.3388,-0.086,1.6097,2.1386,1.1886,1.8169,0.7995,1.3455,2.12,1.8655,1.0721,2.4787,2.3718,-0.5601,1.7317,1.4741,0.0293,1.1634,2.1238,2.3977,1.7895,0.9306,1.523,-0.1679,0.8035,1.0998,1.1642,0.5776,0.1587
0.9042,1.4848,0.0483,1.768,2.2818,1.3274,1.8049,0.802,1.2984,2.0653,1.7511,0.9306,2.4259,2.378,-0.5426,1.8239,1.4808,0.1698,1.1672,2.2032,2.4528,1.7262,0.8391,1.4107,-0.2214,0.7531,0.9706,1.0158,0.5646,0.2846
1.0214,1.6535,0.1995,1.9441,2.4156,1.4604,1.7762,0.7856,1.2358,1.9868,1.6177,0.7853,2.3608,2.387,-0.4957,1.9426,1.5299,0.3638,1.1978,2.3054,2.5236,1.6727,0.7651,1.2992,-0.2728,0.7143,0.8576,0.8809,0.5397,0.406
1.147,1.8255,0.3507,2.1145,2.5277,1.5767,1.7416,0.758,1.1676,1.8935,1.4845,0.6557,2.2881,2.4005,-0.421,2.0719,1.6125,0.5717,1.248,2.4179,2.6032,1.6325,0.7095,1.1983,-0.3189,0.6911,0.7751,0.7765,0.5042,0.5004
1.2593,1.9782,0.4819,2.2531,2.6063,1.6649,1.712,0.7255,1.1028,1.7937,1.3708,0.5604,2.2118,2.4183,-0.3256,2.1912,1.7114,0.7454,1.3041,2.524,2.682,1.6061,0.6704,1.1168,-0.3565,0.6866,0.7346,0.7166,0.4614,0.5483
1.3373,2.0908,0.5747,2.3375,2.6417,1.7149,1.6958,0.6915,1.0478,1.6935,1.2922,0.5135,2.1345,2.4387,-0.2201,2.2806,1.8052,0.8403,1.3496,2.6069,2.7494,1.5912,0.6441,1.0607,-0.3828,0.7022,0.7425,0.7092,0.4154,0.5367
1.3666,2.1497,0.6176,2.3544,2.6296,1.7214,1.6967,0.6568,1.0052,1.5957,1.2567,0.5211,2.0568,2.4594,-0.115,2.3256,1.8756,0.826,1.3704,2.6538,2.797,1.5841,0.6268,1.0318,-0.396,0.7375,0.7987,0.7548,0.3703,0.4619
1.3435,2.1523,0.6092,2.3033,2.5727,1.6857,1.7146,0.6208,0.9739,1.5005,1.2634,0.5802,1.9786,2.4781,-0.0176,2.3218,1.9118,0.6955,1.3592,2.6606,2.8215,1.581,0.6146,1.0275,-0.3968,0.7897,0.8967,0.8464,0.3286,0.3297
1.276,2.1088,0.5592,2.1976,2.4817,1.6172,1.7462,0.5832,0.9509,1.4074,1.3035,0.6782,1.8993,2.494,0.0694,2.2764,1.9142,0.4667,1.3175,2.6328,2.8255,1.5787,0.6038,1.041,-0.3879,0.8536,1.0241,0.9704,0.2911,0.1549
1.1822,2.0391,0.4859,2.0614,2.3739,1.532,1.7863,0.5454,0.9328,1.3164,1.3623,0.7967,1.8195,2.5081,0.148,2.2064,1.8934,0.1786,1.2553,2.5844,2.8171,1.5749,0.5911,1.0632,-0.3741,0.9228,1.1652,1.1094,0.2566,-0.0417
