time	FP1	F3	F7	FC3	C3	C5	P3	P7	PO7	PO3	O1	Oz	Pz	CPz	FP2	Fz	F4	F8	FC4	FCz	Cz	C4	C6	P4	P8	PO8	PO4	O2	HEOG_left	HEOG_right
-199.2188	-1.4621	-3.6343	-3.316	-2.7987	-1.4493	-0.3256	1.5122	2.1203	2.8063	2.2534	2.7711	1.7364	1.1599	-0.1001	-0.7473	-2.5334	-1.7045	-2.0895	-1.4954	-2.1472	-1.0678	-0.4111	-0.0013	0.8831	-0.5222	1.4693	0.9102	1.4434	-2.1577	-1.9809
-195.3125	-1.0005	-2.716	-2.9397	-2.0622	-1.1088	-0.4454	1.0928	1.0405	1.8987	1.7485	1.9643	1.4091	1.4617	0.4761	-0.3512	-1.6275	-0.8735	-1.3584	-0.7119	-1.195	-0.2962	0.3109	0.6573	1.488	0.1173	1.8411	1.1952	1.5115	-1.9189	-1.5949
-191.4062	-0.5573	-1.8616	-2.5534	-1.3744	-0.7947	-0.5515	0.6935	0.0539	1.0547	1.2737	1.2086	1.0979	1.7309	1.0062	0.0525	-0.7945	-0.1047	-0.6632	0.0108	-0.3218	0.4148	0.9729	1.2808	2.0232	0.6977	2.1467	1.437	1.5476	-1.667	-1.2189
-187.5	-0.1477	-1.1192	-2.1573	-0.772	-0.5236	-0.6221	0.3399	-0.7484	0.3377	0.8586	0.5536	0.8207	1.9378	1.4502	0.4498	-0.0889	0.5471	-0.0489	0.6201	0.4123	1.0154	1.5177	1.8238	2.4235	1.1592	2.3224	1.5955	1.525	-1.3975	-0.8649
-183.5938	0.2238	-0.5103	-1.7451	-0.2687	-0.2973	-0.6342	0.0583	-1.2945	-0.1988	0.5285	0.0412	0.5947	2.0631	1.783	0.8285	0.4613	1.0497	0.4586	1.0839	0.9757	1.4777	1.9066	2.2462	2.6428	1.4539	2.3202	1.6448	1.4274	-1.1037	-0.5372
-179.6875	0.5627	-0.0287	-1.3061	0.1453	-0.1023	-0.5661	-0.1265	-1.5417	-0.5177	0.3017	-0.2999	0.4342	2.1002	1.9969	1.178	0.8577	1.3976	0.8535	1.3948	1.3689	1.7982	2.1236	2.5178	2.6596	1.5512	2.1142	1.5759	1.2505	-0.7789	-0.2321
-175.7812	0.8799	0.3528	-0.8292	0.4963	0.0846	-0.4024	-0.1955	-1.4818	-0.6047	0.1868	-0.4582	0.3477	2.0534	2.1001	1.4873	1.1279	1.6094	1.1445	1.5674	1.6192	1.9947	2.1756	2.6224	2.4781	1.4415	1.7039	1.3967	1.002	-0.4195	0.0594
-171.875	1.1854	0.6695	-0.311	0.8147	0.2875	-0.1393	-0.1401	-1.1444	-0.4725	0.1809	-0.4411	0.3356	1.9353	2.1117	1.7449	1.3147	1.7196	1.3461	1.6315	1.7707	2.098	2.088	2.5606	2.1255	1.1379	1.1151	1.1283	0.6992	-0.0286	0.3458
-167.9688	1.4809	0.9526	0.2375	1.1229	0.5222	0.2114	0.033	-0.5931	-0.1609	0.2687	-0.2754	0.3883	1.7626	2.0559	1.9398	1.4634	1.7679	1.4714	1.6236	1.8698	2.1419	1.8977	2.3499	1.6461	0.6742	0.3953	0.7995	0.3656	0.3811	0.6303
-164.0625	1.7571	1.2192	0.7877	1.4272	0.7902	0.6212	0.3002	0.0825	0.2667	0.4245	-0.0038	0.4871	1.5518	1.9561	2.0645	1.6087	1.7889	1.5281	1.5786	1.9536	2.1547	1.6448	2.0217	1.0927	0.1	-0.3925	0.4409	0.0269	0.7866	0.9063
-160.1562	1.994	1.4698	1.2961	1.7163	1.0777	1.049	0.623	0.7806	0.7336	0.6144	0.3217	0.6061	1.317	1.8309	2.1198	1.7666	1.8055	1.5205	1.5235	2.0416	2.1536	1.3655	1.6155	0.5191	-0.5264	-1.18	0.0804	-0.2932	1.158	1.1581
-156.25	2.1663	1.691	1.7141	1.9665	1.3596	1.4483	0.9547	1.4033	1.1621	0.8019	0.6475	0.7172	1.0703	1.6935	2.1178	1.9329	1.8266	1.4544	1.4757	2.1341	2.1444	1.0881	1.1727	-0.0259	-1.1455	-1.9019	-0.2584	-0.5753	1.4644	1.3643
-152.3438	2.2518	1.863	2.0017	2.1508	1.6073	1.7768	1.2498	1.8733	1.4888	0.9548	0.9284	0.7955	0.8234	1.5536	2.0816	2.088	1.8507	1.343	1.444	2.2173	2.1249	0.833	0.7324	-0.5022	-1.7036	-2.5026	-0.556	-0.8045	1.6824	1.5051
-148.4375	2.2385	1.9687	2.1396	2.2491	1.7976	2.005	1.4745	2.1473	1.6766	1.0523	1.1345	0.8244	0.5903	1.4202	2.0409	2.2055	1.871	1.2098	1.4318	2.2711	2.0907	0.6146	0.3288	-0.8787	-2.1568	-2.9399	-0.7947	-0.9698	1.8027	1.5686
-144.5312	2.1302	2.0005	2.1356	2.2555	1.9197	2.1226	1.6143	2.2221	1.7219	1.0901	1.2557	0.7996	0.389	1.3038	2.021	2.262	1.8799	1.0857	1.4399	2.2777	2.0402	0.4439	-0.0098	-1.1326	-2.4737	-3.1851	-0.9567	-1.0621	1.8323	1.555
-140.625	1.9449	1.9625	2.0231	2.1799	1.9764	2.1386	1.6761	2.1325	1.6539	1.0819	1.3021	0.7297	0.2406	1.2165	2.032	2.244	1.872	1	1.4676	2.2272	1.9764	0.3298	-0.2622	-1.2492	-2.6351	-3.2235	-1.0243	-1.0734	1.791	1.4754
-136.7188	1.7109	1.8689	1.8496	2.0441	1.9818	2.0775	1.6839	1.9406	1.526	1.0547	1.299	0.6335	0.1652	1.1692	2.0606	2.1501	1.8434	0.9698	1.5119	2.1195	1.906	0.2778	-0.4157	-1.2223	-2.6336	-3.0537	-0.9827	-0.9979	1.7024	1.3473
-132.8125	1.4579	1.7384	1.6623	1.8742	1.9543	1.971	1.67	1.7182	1.4015	1.0416	1.279	0.535	0.1769	1.1669	2.0706	1.9896	1.7903	0.9908	1.5652	1.9622	1.8344	0.2886	-0.4667	-1.0562	-2.4717	-2.6879	-0.8241	-0.8337	1.5853	1.1873
-128.9062	1.2101	1.5874	1.4939	1.6919	1.9086	1.8488	1.6638	1.5297	1.3383	1.0719	1.274	0.4578	0.2785	1.2053	2.0141	1.7768	1.7058	1.0356	1.6143	1.7659	1.7622	0.3553	-0.4215	-0.7667	-2.162	-2.1527	-0.5523	-0.5864	1.4464	1.0058
-125	0.9811	1.4251	1.3552	1.5087	1.8506	1.7304	1.6827	1.4176	1.3742	1.1638	1.3076	0.4201	0.4587	1.2685	1.8478	1.5264	1.5788	1.0608	1.6398	1.5393	1.6813	0.463	-0.2958	-0.3822	-1.7263	-1.488	-0.1858	-0.2711	1.2799	0.8044
-121.0938	0.7727	1.2518	1.2342	1.3236	1.7745	1.62	1.7269	1.3945	1.5191	1.3185	1.391	0.4313	0.6929	1.3317	1.5499	1.2487	1.3952	1.0201	1.6189	1.2877	1.5764	0.59	-0.113	0.0592	-1.1948	-0.744	0.2437	0.0882	1.0715	0.5782
-117.1875	0.5777	1.0598	1.1026	1.1256	1.6643	1.5051	1.7797	1.4433	1.7524	1.52	1.5204	0.4904	0.9473	1.366	1.1291	0.9491	1.1407	0.8788	1.5298	1.0125	1.4294	0.7112	0.0983	0.513	-0.605	0.0226	0.6939	0.4602	0.8073	0.3207
-113.2812	0.3842	0.8385	0.9265	0.8991	1.499	1.3602	1.8124	1.5236	2.0272	1.7372	1.6778	0.5867	1.1838	1.3456	0.6255	0.6302	0.8069	0.6246	1.357	0.7144	1.2254	0.8026	0.3083	0.9342	0.001	0.7545	1.1187	0.8109	0.4825	0.0302
-109.375	0.1816	0.5795	0.6786	0.6307	1.2593	1.1543	1.7918	1.5837	2.2807	1.93	1.8341	0.7019	1.3668	1.2535	0.1013	0.2956	0.3972	0.2723	1.0966	0.3967	0.9592	0.845	0.489	1.2827	0.5796	1.3989	1.4743	1.1079	0.1075	-0.2856
-105.4688	-0.0356	0.2825	0.3485	0.3158	0.9341	0.8617	1.6895	1.5736	2.4475	2.0571	1.9541	0.8129	1.468	1.0861	-0.3744	-0.046	-0.0686	-0.1385	0.7589	0.0687	0.6386	0.8266	0.6182	1.527	1.0896	1.9119	1.7252	1.3247	-0.2908	-0.6073
-101.5625	-0.265	-0.0422	-0.0528	-0.0384	0.5261	0.4716	1.4884	1.4572	2.4731	2.0826	2.0016	0.895	1.469	0.852	-0.7437	-0.38	-0.5546	-0.5524	0.3671	-0.2551	0.2834	0.7432	0.6806	1.6456	1.4951	2.2615	1.8468	1.4427	-0.6733	-0.9062
-97.6562	-0.4969	-0.3746	-0.4937	-0.413	0.0539	-0.0043	1.187	1.22	2.3242	1.9815	1.9451	0.9235	1.3614	0.5684	-0.9761	-0.6869	-1.0139	-0.9104	-0.0457	-0.5567	-0.0801	0.5961	0.6682	1.6271	1.7683	2.428	1.8265	1.4509	-0.9973	-1.1503
-93.75	-0.7173	-0.6876	-0.9285	-0.7807	-0.4505	-0.5311	0.7988	0.8718	1.9934	1.7421	1.7616	0.8762	1.1452	0.2555	-1.0765	-0.9464	-1.3985	-1.1648	-0.444	-0.8195	-0.4255	0.3891	0.5794	1.4681	1.892	2.404	1.6615	1.3448	-1.2261	-1.3113
-89.8438	-0.9115	-0.9525	-1.3082	-1.1114	-0.9463	-1.0566	0.3488	0.4425	1.4984	1.3666	1.4403	0.7355	0.8273	-0.0698	-1.0807	-1.1431	-1.6696	-1.2894	-0.7961	-1.0324	-0.7333	0.1271	0.4175	1.1721	1.861	2.1945	1.3582	1.1255	-1.3374	-1.3716
-85.9375	-1.0681	-1.1448	-1.5902	-1.378	-1.3913	-1.522	-0.1317	-0.0253	0.8768	0.8698	0.9848	0.4922	0.4199	-0.3961	-1.0408	-1.2687	-1.8072	-1.2856	-1.079	-1.1921	-0.9945	-0.1832	0.1911	0.7507	1.6828	1.8168	0.9308	0.8004	-1.3277	-1.3286
-82.0312	-1.1807	-1.2479	-1.7467	-1.5609	-1.7489	-1.8754	-0.6104	-0.4857	0.1776	0.2771	0.4137	0.1486	-0.0589	-0.7181	-1.0052	-1.3244	-1.8127	-1.1781	-1.2809	-1.3028	-1.2104	-0.5303	-0.0847	0.225	1.3781	1.3015	0.403	0.3848	-1.2113	-1.1944
-78.125	-1.2485	-1.2561	-1.7671	-1.6498	-1.9925	-2.0817	-1.0587	-0.8987	-0.5459	-0.3767	-0.24	-0.2787	-0.5836	-1.0332	-1.0022	-1.3187	-1.7072	-1.006	-1.4002	-1.3737	-1.3892	-0.8944	-0.3875	-0.3717	0.9799	0.6921	-0.1918	-0.0959	-1.0149	-0.992
-74.2188	-1.2739	-1.1758	-1.6578	-1.6449	-2.1087	-2.1296	-1.4534	-1.2353	-1.2436	-1.0501	-0.9315	-0.7582	-1.122	-1.338	-1.0355	-1.2652	-1.5247	-0.8087	-1.4433	-1.4151	-1.5412	-1.2467	-0.6869	-0.9933	0.5321	0.0433	-0.8096	-0.6052	-0.7707	-0.7497
-70.3125	-1.2607	-1.0238	-1.4385	-1.5554	-2.0973	-2.0309	-1.7773	-1.4806	-1.872	-1.6968	-1.6087	-1.2468	-1.6355	-1.6245	-1.0891	-1.1796	-1.3032	-0.615	-1.4217	-1.4356	-1.6737	-1.5508	-0.9466	-1.5833	0.085	-0.5837	-1.3984	-1.0981	-0.5091	-0.4945
-66.4062	-1.2131	-0.8256	-1.138	-1.3985	-1.97	-1.817	-2.0194	-1.6331	-2.397	-2.2699	-2.2175	-1.6945	-2.0835	-1.8795	-1.1372	-1.0774	-1.0772	-0.4372	-1.3485	-1.4396	-1.7878	-1.768	-1.1289	-2.0807	-0.3098	-1.1283	-1.9029	-1.5252	-0.2547	-0.2486
-62.5	-1.135	-0.6115	-0.7897	-1.1964	-1.7478	-1.5306	-2.1737	-1.7025	-2.7948	-2.726	-2.7078	-2.0525	-2.4284	-2.0849	-1.1545	-0.972	-0.8729	-0.2729	-1.2366	-1.4268	-1.8774	-1.8645	-1.2016	-2.4293	-0.6065	-1.5384	-2.272	-1.8398	-0.0248	-0.0279
-58.5938	-1.0309	-0.4119	-0.4276	-0.9735	-1.4573	-1.2167	-2.2388	-1.7049	-3.0516	-3.0312	-3.0396	-2.2805	-2.6416	-2.2218	-1.1231	-0.8737	-0.7065	-0.1127	-1.0982	-1.3939	-1.9312	-1.8202	-1.1472	-2.5871	-0.7716	-1.7781	-2.467	-2.006	0.1688	0.1572
-54.6875	-0.9071	-0.2524	-0.0823	-0.7528	-1.1278	-0.9144	-2.2173	-1.6589	-3.1645	-3.1659	-3.189	-2.3544	-2.7095	-2.2758	-1.0383	-0.7897	-0.5853	0.0483	-0.946	-1.337	-1.9374	-1.6355	-0.9706	-2.5361	-0.79	-1.8322	-2.4698	-2.0054	0.3179	0.2997
-50.7812	-0.7725	-0.1495	0.2219	-0.5529	-0.7882	-0.6512	-2.117	-1.5814	-3.141	-3.1288	-3.1523	-2.2707	-2.6365	-2.2415	-0.9114	-0.7237	-0.5101	0.2028	-0.7946	-1.2553	-1.889	-1.3359	-0.7035	-2.2873	-0.6669	-1.7083	-2.2867	-1.8414	0.4168	0.3957
-46.875	-0.6394	-0.1083	0.4682	-0.387	-0.465	-0.4413	-1.9507	-1.4851	-2.9987	-2.938	-2.9476	-2.0471	-2.4449	-2.127	-0.7718	-0.6771	-0.4776	0.3285	-0.6617	-1.1535	-1.7888	-0.9699	-0.4016	-1.881	-0.4273	-1.434	-1.9489	-1.5395	0.462	0.4435
-42.9688	-0.5225	-0.1232	0.647	-0.2624	-0.1818	-0.2865	-1.7366	-1.3788	-2.7633	-2.6283	-2.6127	-1.7193	-2.1721	-1.9539	-0.6624	-0.6499	-0.483	0.3928	-0.5675	-1.043	-1.6517	-0.6024	-0.1356	-1.3813	-0.1123	-1.0512	-1.5069	-1.1431	0.4529	0.4447
-39.0625	-0.4383	-0.1815	0.7538	-0.1833	0.0403	-0.1809	-1.4979	-1.268	-2.4661	-2.2461	-2.1993	-1.3352	-1.8637	-1.7551	-0.6295	-0.6431	-0.523	0.3627	-0.5327	-0.9422	-1.5041	-0.3024	0.0238	-0.8651	0.2282	-0.6092	-1.0223	-0.7058	0.3921	0.4036
-35.1562	-0.4028	-0.2695	0.7873	-0.1538	0.1819	-0.1166	-1.2611	-1.1569	-2.1401	-1.8424	-1.7637	-0.9461	-1.5668	-1.5698	-0.7097	-0.6609	-0.5979	0.2161	-0.5758	-0.8739	-1.3801	-0.1297	0.0216	-0.4099	0.5426	-0.1583	-0.5574	-0.2834	0.285	0.3261
-31.25	-0.4292	-0.3781	0.7484	-0.1801	0.2254	-0.0897	-1.0535	-1.0492	-1.8157	-1.4646	-1.3574	-0.5985	-1.3217	-1.436	-0.9159	-0.7116	-0.712	-0.0499	-0.7087	-0.8623	-1.3146	-0.1229	-0.168	-0.0801	0.7856	0.2557	-0.1663	0.0753	0.1401	0.2192
-27.3438	-0.5245	-0.5054	0.6417	-0.2707	0.1565	-0.1028	-0.8993	-0.9489	-1.5181	-1.1503	-1.0186	-0.3274	-1.1566	-1.383	-1.2315	-0.8066	-0.8714	-0.4145	-0.9333	-0.9274	-1.3356	-0.2918	-0.5344	0.0822	0.9243	0.5946	0.112	0.3335	-0.0313	0.0901
-23.4375	-0.6862	-0.6557	0.4766	-0.4327	-0.0321	-0.1644	-0.8165	-0.86	-1.2644	-0.9225	-0.7667	-0.1531	-1.0839	-1.425	-1.6131	-0.9563	-1.0797	-0.8353	-1.2383	-1.0791	-1.4567	-0.6156	-1.0327	0.0623	0.9415	0.8298	0.2566	0.4708	-0.2146	-0.0535
-19.5312	-0.9013	-0.8349	0.2682	-0.6662	-0.3366	-0.2845	-0.8137	-0.7866	-1.0642	-0.7893	-0.6026	-0.0809	-1.1	-1.5579	-2.0023	-1.1648	-1.3332	-1.2562	-1.6002	-1.3122	-1.6727	-1.0489	-1.5958	-0.128	0.8362	0.9423	0.2637	0.4814	-0.3938	-0.203
-15.625	-1.1464	-1.0439	0.0373	-0.9595	-0.739	-0.4696	-0.8897	-0.7332	-0.9209	-0.7457	-0.5133	-0.1051	-1.1898	-1.761	-2.342	-1.4254	-1.6184	-1.6195	-1.9864	-1.6053	-1.9597	-1.5331	-2.1511	-0.4569	0.6207	0.9214	0.1435	0.3718	-0.5532	-0.3496
-11.7188	-1.3917	-1.2736	-0.1916	-1.2867	-1.2072	-0.7172	-1.035	-0.7045	-0.8349	-0.7788	-0.4797	-0.2141	-1.332	-2.0025	-2.5927	-1.7189	-1.9132	-1.8787	-2.3615	-1.9238	-2.28	-2.0097	-2.6384	-0.8822	0.3171	0.7641	-0.0864	0.1551	-0.6809	-0.4842
-7.8125	-1.6065	-1.5033	-0.3925	-1.6102	-1.6984	-1.0138	-1.235	-0.7064	-0.8059	-0.8737	-0.4854	-0.3958	-1.5067	-2.2477	-2.7422	-2.0158	-2.1902	-2.0084	-2.6938	-2.2268	-2.5906	-2.4328	-3.0212	-1.3607	-0.0464	0.475	-0.4054	-0.1536	-0.7702	-0.5984
-3.9062	-1.7652	-1.7042	-0.5423	-1.8881	-2.1651	-1.3342	-1.4735	-0.7454	-0.8356	-1.0186	-0.523	-0.6405	-1.7005	-2.4682	-2.8078	-2.2814	-2.4218	-2.0073	-2.9609	-2.4754	-2.8529	-2.7752	-3.29	-1.8559	-0.4391	0.0685	-0.7932	-0.5391	-0.8199	-0.685
0	-1.8524	-1.8466	-0.6242	-2.0832	-2.563	-1.6455	-1.7359	-0.8269	-0.9269	-1.2074	-0.5958	-0.9411	-1.9089	-2.6481	-2.8294	-2.4841	-2.5855	-1.8948	-3.1514	-2.642	-3.0405	-3.0299	-3.4559	-2.3412	-0.8292	-0.4304	-1.231	-0.9868	-0.8325	-0.7379
3.9062	-1.8662	-1.9086	-0.6313	-2.1721	-2.8577	-1.9126	-2.0112	-0.9537	-1.0832	-1.4396	-0.716	-1.2919	-2.136	-2.7863	-2.8566	-2.6036	-2.6682	-1.7028	-3.2648	-2.7155	-3.1443	-3.2044	-3.54	-2.799	-1.1849	-0.9842	-1.6996	-1.4795	-0.8115	-0.7526
7.8125	-1.8177	-1.8831	-0.5675	-2.15	-3.0293	-2.1042	-2.292	-1.1237	-1.306	-1.7176	-0.8989	-1.6846	-2.39	-2.8952	-2.9317	-2.635	-2.6678	-1.4664	-3.3076	-2.7025	-3.1719	-3.3127	-3.5617	-3.2174	-1.4761	-1.5457	-2.1781	-1.9954	-0.7592	-0.7267
11.7188	-1.7268	-1.7784	-0.4467	-2.0301	-3.0733	-2.1985	-2.5726	-1.3284	-1.5915	-2.0422	-1.1552	-2.1059	-2.6778	-2.9937	-3.0749	-2.5899	-2.5932	-1.216	-3.2885	-2.6235	-3.1432	-3.367	-3.5304	-3.5867	-1.6769	-2.0632	-2.6417	-2.5059	-0.6763	-0.6606
15.625	-1.6167	-1.6154	-0.2892	-1.8384	-2.9983	-2.1859	-2.8468	-1.552	-1.9291	-2.4078	-1.485	-2.5345	-2.9992	-3.1009	-3.2754	-2.492	-2.4603	-0.9729	-3.2151	-2.506	-3.0833	-3.373	-3.4443	-3.8965	-1.7691	-2.4876	-3.0627	-2.9771	-0.563	-0.5586
19.5312	-1.5079	-1.421	-0.1166	-1.6073	-2.8237	-2.0715	-3.1058	-1.7726	-2.2998	-2.7997	-1.8741	-2.9425	-3.3442	-3.2292	-3.4935	-2.3703	-2.2892	-0.7488	-3.0925	-2.3779	-3.0166	-3.3296	-3.2943	-4.1352	-1.7467	-2.7815	-3.413	-3.3733	-0.4213	-0.4287
23.4375	-1.4154	-1.2234	0.0516	-1.37	-2.5774	-1.8746	-3.3397	-1.9668	-2.6787	-3.1956	-2.2958	-3.298	-3.6942	-3.3829	-3.6729	-2.254	-2.1004	-0.5494	-2.9262	-2.2628	-2.9637	-3.2337	-3.0731	-4.2923	-1.6183	-2.9253	-3.6683	-3.6631	-0.2583	-0.2832
27.3438	-1.3493	-1.0493	0.2	-1.1578	-2.2954	-1.6286	-3.5402	-2.1165	-3.0388	-3.57	-2.717	-3.571	-4.0267	-3.5592	-3.7599	-2.1691	-1.9152	-0.3789	-2.7271	-2.1805	-2.941	-3.0874	-2.7838	-4.3619	-1.4072	-2.9192	-3.8127	-3.8243	-0.0884	-0.1376
31.25	-1.318	-0.9233	0.3148	-1.0004	-2.0221	-1.3782	-3.7061	-2.2146	-3.3575	-3.9011	-3.1054	-3.7401	-4.3222	-3.754	-3.724	-2.1376	-1.7563	-0.2458	-2.5159	-2.1478	-2.9631	-2.9042	-2.4463	-4.3472	-1.1487	-2.7821	-3.8433	-3.8485	0.0667	-0.0097
35.1562	-1.332	-0.8695	0.3809	-0.925	-1.8083	-1.1746	-3.8466	-2.2693	-3.6206	-4.1769	-3.437	-3.7972	-4.5709	-3.966	-3.571	-2.1776	-1.6499	-0.1658	-2.3254	-2.1807	-3.0447	-2.7128	-2.0984	-4.2634	-0.8842	-2.5457	-3.7717	-3.7424	0.1813	0.0829
39.0625	-1.4053	-0.9104	0.3791	-0.9556	-1.7065	-1.0682	-3.9824	-2.3015	-3.8247	-4.3985	-3.6994	-3.7504	-4.7762	-4.2	-3.3454	-2.3026	-1.6235	-0.1611	-2.1965	-2.2939	-3.2006	-2.5543	-1.7915	-4.1387	-0.655	-2.2486	-3.6243	-3.5276	0.2309	0.125
42.9688	-1.5528	-1.0648	0.2878	-1.1091	-1.763	-1.0994	-4.1421	-2.3387	-3.9761	-4.5791	-3.8921	-3.6232	-4.9539	-4.4666	-3.1213	-2.5185	-1.7009	-0.2557	-2.1694	-2.4972	-3.4432	-2.4756	-1.5819	-4.0122	-0.4961	-1.9305	-3.4396	-3.238	0.1983	0.106
46.875	-1.7858	-1.3426	0.0884	-1.3909	-2.0081	-1.2908	-4.3561	-2.4077	-4.0871	-4.7399	-4.0236	-3.4517	-5.1283	-4.7782	-2.9831	-2.82	-1.8939	-0.4664	-2.273	-2.7905	-3.7774	-2.5194	-1.5198	-3.9285	-0.4318	-1.6277	-3.2629	-2.9178	0.0782	0.0224
50.7812	-2.1048	-1.7393	-0.2268	-1.7903	-2.4466	-1.6417	-4.6473	-2.5282	-4.1731	-4.9049	-4.109	-3.2797	-5.3245	-5.1427	-3.003	-3.1868	-2.1943	-0.7948	-2.514	-3.1593	-4.1951	-2.7142	-1.6404	-3.9307	-0.4739	-1.3713	-3.1403	-2.6167	-0.1206	-0.1211
54.6875	-2.4964	-2.2311	-0.6478	-2.2787	-3.053	-2.1281	-5.0237	-2.7093	-4.2494	-5.094	-4.1669	-3.1528	-5.5615	-5.5576	-3.22	-3.583	-2.5713	-1.2223	-2.8728	-3.5717	-4.6716	-3.066	-1.9562	-4.0517	-0.6206	-1.1851	-3.1101	-2.3846	-0.3769	-0.3118
58.5938	-2.9321	-2.7745	-1.1426	-2.8107	-3.772	-2.7061	-5.4717	-2.9485	-4.3285	-5.3177	-4.2163	-3.1108	-5.8447	-6.0057	-3.6282	-3.9607	-2.9735	-1.7112	-3.3055	-3.9809	-5.1657	-3.5555	-2.4547	-4.3058	-0.8573	-1.0829	-3.1955	-2.2636	-0.6611	-0.5311
62.5	-3.3721	-3.3107	-1.6594	-3.3302	-4.5249	-3.3189	-5.9549	-3.2319	-4.4179	-5.5726	-4.2731	-3.1807	-6.1621	-6.4543	-4.1748	-4.2669	-3.3389	-2.2109	-3.7513	-4.3321	-5.6242	-4.1388	-3.0991	-4.6824	-1.1569	-1.0655	-3.3974	-2.2793	-0.9416	-0.7567
66.4062	-3.7717	-3.7756	-2.1351	-3.7792	-5.2214	-3.9046	-6.4166	-3.536	-4.5176	-5.8388	-4.3461	-3.3695	-6.4834	-6.8586	-4.7714	-4.4539	-3.6082	-2.6683	-4.1458	-4.5721	-5.9906	-4.7533	-3.8324	-5.1434	-1.4813	-1.1173	-3.6909	-2.4318	-1.1919	-0.9679
70.3125	-4.0898	-4.1132	-2.5092	-4.1079	-5.7744	-4.4041	-6.7872	-3.8294	-4.6175	-6.0803	-4.4311	-3.6584	-6.7634	-7.1688	-5.3144	-4.491	-3.7398	-3.0385	-4.4338	-4.6622	-6.2164	-5.3278	-4.5841	-5.6261	-1.783	-1.2043	-4.0257	-2.6915	-1.3957	-1.1491
74.2188	-4.2964	-4.2888	-2.739	-4.2849	-6.115	-4.7685	-6.9967	-4.0758	-4.6961	-6.2493	-4.5076	-4.0019	-6.9492	-7.3393	-5.7094	-4.373	-3.7212	-3.2942	-4.5817	-4.5879	-6.2722	-5.7933	-5.278	-6.0516	-2.0086	-1.2758	-4.3329	-2.9992	-1.5506	-1.2938
78.125	-4.3796	-4.2983	-2.8117	-4.3033	-6.2051	-4.9659	-6.9877	-4.2377	-4.7216	-6.2933	-4.5375	-4.3311	-6.9901	-7.3392	-5.8944	-4.1255	-3.575	-3.4301	-4.5847	-4.3651	-6.1554	-6.0938	-5.8401	-6.3371	-2.1038	-1.2691	-4.535	-3.2736	-1.6682	-1.4056
82.0312	-4.3469	-4.1698	-2.7481	-4.1828	-6.0448	-4.9867	-6.728	-4.2824	-4.6559	-6.1641	-4.4687	-4.5631	-6.8483	-7.1593	-5.8531	-3.8012	-3.3538	-3.4632	-4.4661	-4.0387	-5.892	-6.1944	-6.2064	-6.4101	-2.0211	-1.1195	-4.5591	-3.4243	-1.7713	-1.4982
85.9375	-4.2241	-3.9564	-2.5971	-3.9641	-5.6719	-4.8452	-6.2187	-4.1881	-4.4617	-5.8285	-4.2436	-4.6145	-6.507	-6.8155	-5.6175	-3.4697	-3.1276	-3.4281	-4.2705	-3.6726	-5.5306	-6.0845	-6.3295	-6.2226	-1.7282	-0.7725	-4.3512	-3.3686	-1.8881	-1.5916
89.8438	-4.0479	-3.7218	-2.4238	-3.6988	-5.1531	-4.5765	-5.4959	-3.9482	-4.1116	-5.2761	-3.8105	-4.4172	-5.9758	-6.3452	-5.2565	-3.2014	-2.9651	-3.3673	-4.0507	-3.3351	-5.1317	-5.7782	-6.1853	-5.7606	-1.2169	-0.1969	-3.8872	-3.0482	-2.0462	-1.7075
93.75	-3.8573	-3.5237	-2.2917	-3.4363	-4.5689	-4.2285	-4.6243	-3.5733	-3.5954	-4.5233	-3.1359	-3.933	-5.2898	-5.8003	-4.8567	-3.0504	-2.9156	-3.3213	-3.8542	-3.0821	-4.754	-5.3096	-5.7771	-5.0493	-0.5083	0.6045	-3.18	-2.4427	-2.2646	-1.863
97.6562	-3.6838	-3.3998	-2.2451	-3.2124	-3.9966	-3.8497	-3.6851	-3.0882	-2.9246	-3.6116	-2.2144	-3.1622	-4.5041	-5.2362	-4.4983	-3.0405	-2.9962	-3.3183	-3.7114	-2.9439	-4.4409	-4.7271	-5.1371	-4.1496	0.3471	1.5902	-2.279	-1.5757	-2.5472	-2.065
101.5625	-3.5442	-3.3586	-2.2964	-3.0415	-3.4941	-3.4783	-2.7604	-2.5261	-2.1309	-2.6003	-1.0728	-2.145	-3.683	-4.7005	-4.2355	-3.1585	-3.1871	-3.368	-3.63	-2.9187	-4.2124	-4.0846	-4.3236	-3.1478	1.2763	2.6835	-1.2623	-0.511	-2.878	-2.306
105.4688	-3.4377	-3.3791	-2.4216	-2.9151	-3.0909	-3.1341	-1.9173	-1.9203	-1.2614	-1.5556	0.2317	-0.9548	-2.8879	-4.2243	-4.085	-3.3564	-3.4365	-3.4594	-3.5949	-2.9739	-4.0616	-3.434	-3.4127	-2.1386	2.1952	3.7853	-0.222	0.6588	-3.2207	-2.5629
109.375	-3.3468	-3.4171	-2.5657	-2.8064	-2.7849	-2.8164	-1.1966	-1.2988	-0.3697	-0.5389	1.6189	0.315	-2.1651	-3.8172	-4.0273	-3.5623	-3.6717	-3.5633	-3.5733	-3.0547	-3.9583	-2.8172	-2.488	-1.2073	3.0246	4.7923	0.7534	1.8303	-3.5227	-2.7997
113.2812	-3.2426	-3.4172	-2.6576	-2.678	-2.5481	-2.5078	-0.6075	-0.6809	0.4919	0.403	2.9979	1.5677	-1.5383	-3.4672	-4.0168	-3.6958	-3.8145	-3.6377	-3.5227	-3.0959	-3.8559	-2.2611	-1.6267	-0.4137	3.704	5.6162	1.5954	2.908	-3.7244	-2.9728
117.1875	-3.0917	-3.3249	-2.6271	-2.4913	-2.3358	-2.1805	-0.1297	-0.0786	1.2797	1.244	4.2809	2.719	-1.005	-3.1444	-3.9954	-3.6839	-3.796	-3.6357	-3.3994	-3.0354	-3.7019	-1.7743	-0.8888	0.2167	4.2015	6.1996	2.2672	3.8211	-3.7701	-3.0391
121.0938	-2.8634	-3.0979	-2.4217	-2.2137	-2.0979	-1.8053	0.2781	0.4993	1.9628	1.978	5.3949	3.7093	-0.5403	-2.8081	-3.9051	-3.4751	-3.57	-3.5152	-3.1666	-2.8249	-3.4476	-1.3493	-0.3095	0.6925	4.5155	6.5237	2.7669	4.5315	-3.6195	-2.9631
125	-2.5365	-2.7142	-2.0187	-1.8256	-1.7901	-1.3602	0.6651	1.0416	2.5231	2.6141	6.2907	4.5079	-0.1061	-2.4176	-3.6968	-3.0483	-3.1219	-3.2493	-2.8019	-2.4383	-3.058	-0.968	0.1017	1.0474	4.6696	6.6067	3.1215	5.0354	-3.2563	-2.7253
128.9062	-2.1058	-2.1772	-1.4313	-1.3234	-1.3834	-0.8374	1.0732	1.5308	2.9536	3.1679	6.945	5.1119	0.3355	-1.9428	-3.3366	-2.4167	-2.4725	-2.8343	-2.3021	-1.8759	-2.519	-0.61	0.3564	1.3252	4.7018	6.4941	3.375	5.3552	-2.6935	-2.3268
132.8125	-1.5847	-1.5164	-0.7074	-0.7228	-0.8706	-0.2478	1.5245	1.9423	3.2543	3.6524	7.3594	5.5379	0.8089	-1.3745	-2.8101	-1.6273	-1.6761	-2.2938	-1.6872	-1.1661	-1.8428	-0.2621	0.4779	1.5643	4.6525	6.2456	3.5726	5.5281	-1.9732	-1.7922
136.7188	-1.0052	-0.7845	0.078	-0.0579	-0.2679	0.3791	2.0151	2.2489	3.4302	4.0724	7.555	5.8127	1.3156	-0.7289	-2.1279	-0.7541	-0.8112	-1.675	-0.9983	-0.3627	-1.0682	0.0763	0.4923	1.7864	4.5553	5.9217	3.7473	5.5933	-1.1613	-1.1677
140.625	-0.4128	-0.0498	0.8362	0.6221	0.3884	0.9999	2.5181	2.4299	3.4918	4.4239	7.5683	5.9655	1.8342	-0.0458	-1.3296	0.1132	0.0333	-1.0399	-0.2927	0.4619	-0.2554	0.3928	0.4225	1.9934	4.4343	5.575	3.9136	5.5839	-0.3374	-0.5154
144.5312	0.1414	0.6152	1.4825	1.2603	1.0498	1.5658	2.9935	2.4801	3.4566	4.699	7.4459	6.0239	2.3267	0.6202	-0.483	0.8838	0.7755	-0.453	0.3671	1.2283	0.5242	0.6678	0.2871	2.1737	4.3054	5.2475	4.0682	5.5232	0.4177	0.0966
148.4375	0.6115	1.1469	1.9521	1.8014	1.6653	2.0332	3.4019	2.4164	3.3518	4.8935	7.2413	6.0123	2.7524	1.2134	0.3237	1.4813	1.3556	0.0317	0.9252	1.863	1.2022	0.8842	0.1043	2.3124	4.1824	4.9709	4.1981	5.4265	1.0333	0.6043
152.3438	0.9652	1.5022	2.212	2.202	2.192	2.3729	3.7168	2.2771	3.2129	5.0124	7.0106	5.9531	3.0809	1.6896	0.9973	1.8574	1.7464	0.379	1.3437	2.3115	1.7257	1.0366	-0.1039	2.4035	4.0813	4.7698	4.2901	5.3041	1.4581	0.9577
156.25	1.19	1.6676	2.2646	2.44	2.603	2.5763	3.9314	2.1145	3.0804	5.0727	6.8068	5.8662	3.3004	2.0259	1.4598	1.9995	1.9561	0.5766	1.6101	2.5482	2.0673	1.1377	-0.308	2.4562	4.0224	4.6634	4.3387	5.1647	1.665	1.1276
160.1562	1.2941	1.6622	2.1434	2.5199	2.8919	2.6566	4.0588	1.9825	2.9931	5.1	6.6737	5.7678	3.42	2.2239	1.6678	1.9334	2.0233	0.6341	1.7393	2.582	2.2298	1.2174	-0.4714	2.4952	4.0286	4.6653	4.3494	5.0163	1.6527	1.1086
164.0625	1.3036	1.5354	1.9033	2.4735	3.0722	2.6439	4.1258	1.9244	2.9799	5.1223	6.6404	5.6683	3.4644	2.3071	1.6265	1.718	2.008	0.5788	1.7704	2.455	2.2437	1.3178	-0.5541	2.5536	4.1192	4.7813	4.3362	4.8657	1.4434	0.9187
167.9688	1.2553	1.3577	1.6081	2.3535	3.1732	2.5769	4.1631	1.9627	3.0547	5.1623	6.7165	5.5704	3.4643	2.3122	1.3921	1.4338	1.9771	0.4479	1.758	2.235	2.1602	1.4818	-0.5204	2.662	4.3024	5.0066	4.3166	4.7163	1.0784	0.5939
171.875	1.1875	1.2065	1.3172	2.2228	3.2314	2.4942	4.1962	2.0958	3.2128	5.2306	6.8921	5.4685	3.4456	2.2784	1.0617	1.1672	1.9899	0.279	1.759	2.0012	2.0377	1.7404	-0.3478	2.8374	4.5698	5.3231	4.3035	4.5665	0.6097	0.1809
175.7812	1.1303	1.1487	1.0738	2.1395	3.2812	2.4252	4.2371	2.2999	3.4326	5.3217	7.14	5.3499	3.4205	2.2354	0.7516	0.9922	2.0854	0.1001	1.8186	1.8265	1.9278	2.1005	-0.0368	3.0745	4.8941	5.6999	4.3002	4.4096	0.0899	-0.2733
179.6875	1.0978	1.2249	0.8968	2.1431	3.3444	2.3853	4.2822	2.537	3.681	5.4152	7.4223	5.1983	3.3843	2.195	0.5676	0.9546	2.2739	-0.0775	1.9582	1.76	1.8622	2.539	0.383	3.3439	5.2318	6.0965	4.2984	4.2352	-0.4378	-0.7306
183.5938	1.0839	1.438	0.7761	2.2432	3.4244	2.3731	4.3143	2.7651	3.9222	5.4806	7.6995	5.0004	3.3166	2.1483	0.577	1.0629	2.5354	-0.2619	2.1686	1.8156	1.8448	3.0021	0.8525	3.5962	5.5311	6.4687	4.2802	4.0338	-0.9473	-1.1683
187.5	1.0634	1.7515	0.6752	2.4159	3.5037	2.3707	4.3097	2.9495	4.1271	5.4868	7.9409	4.7522	3.1888	2.0679	0.7894	1.2867	2.8244	-0.4776	2.4113	1.9677	1.8505	3.413	1.2881	3.7707	5.7412	6.7759	4.2237	3.8008	-1.4318	-1.5817
191.4062	0.998	2.0952	0.5392	2.6077	3.5487	2.3487	4.2469	3.0714	4.2818	5.4127	8.132	4.4652	2.9729	1.9154	1.1525	1.5633	3.0785	-0.7577	2.6249	2.1566	1.8308	3.6843	1.593	3.8078	5.8202	6.9872	4.1095	3.5409	-1.9016	-1.9813
195.3125	0.8454	2.3808	0.3087	2.7471	3.5179	2.273	4.1148	3.133	4.3924	5.2562	8.2792	4.1676	2.6507	1.6519	1.5632	1.8106	3.2293	-1.1358	2.7365	2.3005	1.7249	3.7325	1.6715	3.6598	5.7414	7.0854	3.9262	3.2693	-2.3758	-2.3865
199.2188	0.5692	2.5206	-0.0654	2.7612	3.3747	2.1141	3.919	3.1564	4.4844	5.0379	8.4079	3.9022	2.2207	1.248	1.8919	1.9433	3.2136	-1.6369	2.6755	2.3128	1.4734	3.4922	1.4455	3.3006	5.496	7.0678	3.6737	3.0105	-2.872	-2.8171
203.125	0.1485	2.4469	-0.6085	2.593	3.098	1.8557	3.6813	3.1768	4.5973	4.799	8.5554	3.7173	1.7012	0.6936	2.0131	1.8898	2.9851	-2.2709	2.3864	2.1213	1.0331	2.9283	0.8685	2.7311	5.0927	6.9452	3.364	2.7935	-3.3974	-3.2846
207.0312	-0.4155	2.1264	-1.3151	2.2153	2.6892	1.4986	3.4362	3.2326	4.7745	4.5923	8.7604	3.6565	1.1294	0.0037	1.8358	1.6064	2.5228	-3.0297	1.8404	1.6851	0.3895	2.044	-0.0645	1.9807	4.5559	6.7382	3.0187	2.6454	-3.9429	-3.7872
210.9375	-1.0975	1.567	-2.1482	1.638	2.1738	1.0617	3.2231	3.3544	5.0522	4.4701	9.0516	3.7465	0.5565	-0.7805	1.3245	1.0867	1.838	-3.8873	1.0442	1.006	-0.4365	0.8838	-1.3123	1.1044	3.9226	6.4737	2.6665	2.5843	-4.4834	-4.3081
214.8438	-1.8485	0.818	-3.0439	0.9089	1.5973	0.5777	3.0777	3.5562	5.4495	4.4716	9.4394	3.9887	0.0399	-1.5954	0.5085	0.365	0.9757	-4.8025	0.0428	0.1322	-1.3871	-0.4691	-2.7905	0.1764	3.2381	6.1805	2.3384	2.6144	-4.9837	-4.8187
218.75	-2.6021	-0.0378	-3.9217	0.1064	1.0172	0.0882	3.0246	3.8322	5.9625	4.6125	9.9112	4.3565	-0.366	-2.3635	-0.5221	-0.4878	0.0109	-5.723	-1.083	-0.8472	-2.3745	-1.9023	-4.3806	-0.7201	2.5515	5.8853	2.0634	2.723	-5.4064	-5.2837
222.6562	-3.2852	-0.8976	-4.6989	-0.6737	0.4927	-0.3633	3.0723	4.1578	6.5631	4.881	10.4332	4.7982	-0.6208	-3.0072	-1.6331	-1.3755	-0.9616	-6.5918	-2.228	-1.818	-3.2952	-3.2885	-5.9465	-1.5047	1.9094	5.6097	1.8636	2.8818	-5.7222	-5.6695
226.5625	-3.8319	-1.6579	-5.3077	-1.3369	0.0726	-0.739	3.2101	4.4946	7.2037	5.2378	10.9565	5.2465	-0.7066	-3.4646	-2.6721	-2.1951	-1.8425	-7.3548	-3.2788	-2.6635	-4.0507	-4.5048	-7.3546	-2.1125	1.3521	5.3686	1.7503	3.0524	-5.9179	-5.952
230.4688	-4.1987	-2.2354	-5.7103	-1.8117	-0.2168	-1.0162	3.4086	4.7971	7.8243	5.6232	11.4259	5.6314	-0.634	-3.7039	-3.5007	-2.8587	-2.548	-7.9699	-4.1362	-3.2909	-4.5694	-5.4531	-8.4949	-2.5039	0.9097	5.1703	1.7214	3.1946	-6.0021	-6.1239
234.375	-4.3763	-2.5871	-5.907	-2.0675	-0.38	-1.1953	3.6218	5.0206	8.3627	5.9677	11.7905	5.8937	-0.4434	-3.7337	-4.0262	-3.3137	-3.0277	-8.4148	-4.7343	-3.6537	-4.8249	-6.0757	-9.2974	-2.6712	0.6011	5.0186	1.7616	3.275	-6.006	-6.1987
238.2812	-4.3926	-2.7216	-5.9353	-2.1253	-0.4543	-1.303	3.7949	5.1272	8.7636	6.2046	12.0127	5.9968	-0.1983	-3.6032	-4.2244	-3.5556	-3.2761	-8.6899	-5.0538	-3.7634	-4.8444	-6.3642	-9.74	-2.6381	0.4348	4.9163	1.8456	3.2764	-5.9788	-6.209
242.1875	-4.3075	-2.6985	-5.8585	-2.0541	-0.503	-1.3889	3.8736	5.0908	8.9865	6.2835	12.0744	5.9343	0.0263	-3.3933	-4.1445	-3.629	-3.3331	-8.8162	-5.124	-3.6877	-4.7036	-6.358	-9.8471	-2.4525	0.4121	4.869	1.9448	3.2022	-5.9781	-6.1999
246.0938	-4.1993	-2.614	-5.7494	-1.9552	-0.6006	-1.5132	3.8159	4.9006	9.0112	6.1808	11.9805	5.7305	0.1597	-3.1986	-3.8961	-3.6165	-3.274	-8.8286	-5.0138	-3.5342	-4.5097	-6.1329	-9.6784	-2.1757	0.5293	4.8876	2.0342	3.0783	-6.0582	-6.2189
250	-4.1463	-2.5771	-5.6723	-1.9363	-0.8138	-1.7312	3.6021	4.5626	8.8398	5.9044	11.757	5.4361	0.1513	-3.1062	-3.6191	-3.6181	-3.1904	-8.7682	-4.815	-3.4244	-4.376	-5.7848	-9.3143	-1.8694	0.7797	4.9883	2.0994	2.9484	-6.2574	-6.3043
253.9062	-4.2093	-2.6816	-5.6695	-2.0833	-1.1826	-2.0764	3.2414	4.0991	8.4971	5.4938	11.4474	5.1181	-0.0185	-3.1761	-3.4465	-3.7271	-3.1693	-8.6748	-4.6217	-3.4647	-4.3955	-5.4109	-8.8397	-1.5841	1.1541	5.189	2.1393	2.8653	-6.5903	-6.4768
257.8125	-4.418	-2.9821	-5.7542	-2.4378	-1.7075	-2.5493	2.7727	3.5475	8.0279	5.0129	11.1065	4.8477	-0.3336	-3.4283	-3.471	-4.0079	-3.273	-8.5818	-4.5102	-3.7212	-4.6198	-5.0922	-8.3312	-1.3527	1.6385	5.5036	2.1652	2.8799	-7.0441	-6.7355
261.7188	-4.7646	-3.4797	-5.911	-2.9854	-2.3458	-3.1139	2.2597	2.9573	7.4925	4.5396	10.793	4.6885	-0.7454	-3.8385	-3.7236	-4.481	-3.5267	-8.511	-4.524	-4.2049	-5.0474	-4.8811	-7.8478	-1.1874	2.2116	5.9352	2.1974	3.0308	-7.5818	-7.0583
265.625	-5.2056	-4.1217	-6.103	-3.6591	-3.0186	-3.7043	1.7801	2.3856	6.9599	4.1527	10.5628	4.6879	-1.1823	-4.3441	-4.1694	-5.1179	-3.9124	-8.4695	-4.6656	-4.8683	-5.6244	-4.7948	-7.4262	-1.082	2.8418	6.4702	2.2592	3.3362	-8.149	-7.4081
269.5312	-5.6715	-4.8125	-6.2821	-4.3537	-3.6262	-4.2391	1.4125	1.8905	6.499	3.9191	10.4623	4.871	-1.5626	-4.8569	-4.7204	-5.846	-4.3717	-8.4475	-4.8954	-5.6164	-6.257	-4.8152	-7.0801	-1.0158	3.4878	7.0775	2.3718	3.7909	-8.6843	-7.7402
273.4375	-6.0801	-5.4348	-6.3998	-4.9497	-4.0681	-4.6385	1.2222	1.5245	6.1694	3.8838	10.5234	5.2394	-1.8092	-5.2813	-5.2601	-6.5625	-4.8155	-8.4191	-5.1402	-6.3257	-6.8305	-4.8956	-6.8024	-0.9598	4.1017	7.7119	2.5502	4.3687	-9.1294	-8.011
277.3438	-6.3535	-5.8748	-6.4164	-5.3382	-4.2633	-4.8401	1.2506	1.3269	6.0133	4.0647	10.7592	5.7737	-1.8621	-5.5323	-5.6717	-7.1547	-5.1413	-8.347	-5.3095	-6.8702	-7.2338	-4.9726	-6.5712	-0.8815	4.636	8.3224	2.8017	5.0287	-9.4398	-8.186
281.25	-6.432	-6.0461	-6.308	-5.443	-4.1663	-4.8109	1.5086	1.3181	6.0497	4.4519	11.1625	6.439	-1.6874	-5.5517	-5.8632	-7.5235	-5.2554	-8.1915	-5.3164	-7.1478	-7.3815	-4.981	-6.3568	-0.7496	5.054	8.8634	3.1271	5.7248	-9.5914	-8.2454
285.1562	-6.2857	-5.9082	-6.0709	-5.235	-3.7754	-4.5529	1.9758	1.4953	6.2729	5.0117	11.7069	7.1908	-1.2818	-5.317	-5.7837	-7.605	-5.0956	-7.9207	-5.0996	-7.1017	-7.2313	-4.8685	-6.1309	-0.5374	5.3381	9.3057	3.5221	6.4143	-9.5849	-8.1868
289.0625	-5.9196	-5.4747	-5.722	-4.7372	-3.1332	-4.1014	2.6066	1.8326	6.6552	5.6943	12.3506	7.9831	-0.6712	-4.844	-5.4272	-7.3843	-4.6473	-7.5201	-4.639	-6.7317	-6.7906	-4.6063	-5.8729	-0.2252	5.4952	9.6423	3.98	7.0659	-9.4442	-8.0254
292.9688	-5.3713	-4.8105	-5.2967	-4.0177	-2.3174	-3.518	3.3388	2.285	7.1524	6.4436	13.0434	8.7738	0.0953	-4.1807	-4.827	-6.8999	-3.9499	-6.998	-3.9614	-6.0932	-6.1134	-4.1925	-5.5734	0.1974	5.5563	9.8899	4.4932	7.6632	-9.2115	-7.7897
296.875	-4.7037	-4.0171	-4.8418	-3.1758	-1.4255	-2.878	4.1067	2.7964	7.7125	7.2057	13.7342	9.5293	0.9562	-3.3958	-4.0428	-6.2336	-3.0886	-6.385	-3.1335	-5.2836	-5.2865	-3.6493	-5.2321	0.7306	5.5701	10.0834	5.0535	8.2048	-8.9374	-7.5164
300.7812	-3.9921	-3.2107	-4.4074	-2.3204	-0.5557	-2.2558	4.8517	3.3102	8.284	7.9366	14.3784	10.2249	1.8479	-2.5642	-3.1445	-5.4921	-2.1746	-5.7286	-2.2444	-4.4193	-4.4093	-3.0128	-4.8526	1.365	5.5932	10.2671	5.6522	8.7007	-8.6704	-7.2428
304.6875	-3.3097	-2.4972	-4.0371	-1.5483	0.2106	-1.7125	5.5302	3.7784	8.823	8.6044	14.9423	10.8436	2.7148	-1.7536	-2.2001	-4.7821	-1.3191	-5.083	-1.3833	-3.609	-3.5733	-2.3212	-4.4366	2.0831	5.6794	10.4844	6.2789	9.1656	-8.4469	-6.9997
308.5938	-2.7149	-1.9513	-3.7597	-0.9271	0.8209	-1.2867	6.1172	4.1679	9.296	9.189	15.4044	11.3725	3.515	-1.0142	-1.2675	-4.187	-0.6083	-4.4982	-0.6188	-2.9318	-2.8447	-1.605	-3.9802	2.8614	5.8686	10.7682	6.9205	9.6124	-8.2851	-6.8061
312.5	-2.2423	-1.6037	-3.5841	-0.4854	1.2567	-0.9928	6.6049	4.4633	9.681	9.6785	15.7532	11.7999	4.2224	-0.3745	-0.3937	-3.7511	-0.0874	-4.0108	0.0131	-2.4237	-2.2562	-0.8819	-3.4747	3.6725	6.1791	11.1332	7.5601	10.0458	-8.1842	-6.6668
316.4062	-1.8999	-1.4409	-3.4987	-0.2136	1.5302	-0.8235	6.9988	4.6646	9.9656	10.066	15.9844	12.1143	4.8247	0.1579	0.3833	-3.4756	0.243	-3.6376	0.5105	-2.077	-1.8067	-0.1587	-2.9121	4.4863	6.6045	11.5735	8.1769	10.4594	-8.1282	-6.573
320.3125	-1.6716	-1.4153	-3.4761	-0.0736	1.6769	-0.7556	7.312	4.7831	10.1439	10.3472	16.0969	12.3061	5.321	0.5918	1.0325	-3.3256	0.4183	-3.3763	0.8968	-1.8502	-1.4693	0.5631	-2.2915	5.2715	7.1159	12.0633	8.7477	10.8367	-8.0925	-6.5057
324.2188	-1.5258	-1.4635	-3.4811	-0.013	1.7435	-0.7578	7.5598	4.8349	10.2152	10.5212	16.0913	12.37	5.7172	0.9461	1.5294	-3.2453	0.4926	-3.2102	1.206	-1.6851	-1.2027	1.2795	-1.6258	5.9972	7.6689	12.5625	9.25	11.1556	-8.0518	-6.4425
328.125	-1.4254	-1.5261	-3.4808	0.0181	1.7766	-0.798	7.7562	4.8359	10.183	10.5923	15.9707	12.3095	6.0243	1.2433	1.8586	-3.1779	0.519	-3.1168	1.468	-1.5254	-0.9644	1.9779	-0.9434	6.6347	8.2127	13.0252	9.665	11.3944	-7.9878	-6.3633
332.0312	-1.3374	-1.5634	-3.4524	0.0555	1.8124	-0.849	7.9121	4.7991	10.0564	10.5732	15.7432	12.1393	6.2566	1.5048	2.0187	-3.0806	0.5343	-3.0748	1.6991	-1.3317	-0.7202	2.636	-0.2862	7.1611	8.6991	13.4079	9.9812	11.5391	-7.8918	-6.2554
335.9375	-1.2375	-1.5609	-3.3854	0.1161	1.8735	-0.8901	8.0365	4.736	9.8532	10.487	15.4261	11.8871	6.4319	1.7491	2.0265	-2.9338	0.5535	-3.0687	1.9012	-1.0874	-0.4491	3.2256	0.2996	7.5622	9.0881	13.6761	10.1962	11.5872	-7.7647	-6.1152
339.8438	-1.1106	-1.5246	-3.2788	0.2015	1.9693	-0.9052	8.1396	4.6601	9.6019	10.368	15.0486	11.592	6.5721	1.9924	1.9195	-2.7382	0.5757	-3.0865	2.0677	-0.7959	-0.1419	3.7208	0.7757	7.8351	9.3515	13.8081	10.317	11.5489	-7.6124	-5.9455
343.75	-0.9466	-1.4691	-3.133	0.3069	2.1025	-0.8784	8.2356	4.5914	9.3424	10.2583	14.6512	11.3002	6.7027	2.2497	1.7538	-2.5064	0.5964	-3.1149	2.1954	-0.4712	0.2033	4.1066	1.1231	7.9893	9.4726	13.7954	10.3585	11.4453	-7.4404	-5.7521
347.6562	-0.7353	-1.4034	-2.9429	0.4313	2.2757	-0.7906	8.3435	4.5572	9.1215	10.2022	14.2816	11.0579	6.8514	2.5372	1.5967	-2.2499	0.6221	-3.1348	2.2939	-0.1264	0.5868	4.3857	1.3505	8.0457	9.4466	13.6414	10.3411	11.3032	-7.2491	-5.5387
351.5625	-0.4639	-1.3208	-2.6941	0.5844	2.4958	-0.6206	8.4853	4.5883	8.9859	10.2382	13.9865	10.9035	7.0453	2.8718	1.5147	-1.97	0.6774	-3.1196	2.3892	0.2355	1.0118	4.5794	1.4932	8.0332	9.2802	13.3593	10.2882	11.1493	-7.0322	-5.3044
355.4688	-0.1183	-1.1971	-2.366	0.7865	2.7737	-0.3511	8.6804	4.7115	8.9723	10.3906	13.8025	10.8607	7.306	3.269	1.5582	-1.6558	0.8021	-3.0396	2.5202	0.6238	1.4848	4.7234	1.6056	7.9848	8.9923	12.9709	10.2229	11.0055	-6.7785	-5.044
359.375	0.3123	-0.9968	-1.9392	1.0626	3.1189	0.0239	8.9397	4.9413	9.0983	10.6636	13.7481	10.9338	7.6456	3.7388	1.7484	-1.2889	1.0386	-2.8699	2.7266	1.0555	2.012	4.8586	1.7466	7.933	8.6139	12.5054	10.1664	10.8857	-6.4757	-4.7506
363.2812	0.8283	-0.6863	-1.4056	1.4311	3.5317	0.4918	9.2599	5.2723	9.3564	11.0384	13.8182	11.1072	8.0619	4.2803	2.0709	-0.8544	1.4138	-2.5986	3.0345	1.5448	2.5927	5.0208	1.9661	7.9052	8.1862	11.9982	10.1355	10.7946	-6.116	-4.4196
367.1875	1.4138	-0.2482	-0.7773	1.8929	3.996	1.0197	9.6201	5.6764	9.7127	11.4756	13.9828	11.3474	8.5369	4.8771	2.477	-0.3526	1.9237	-2.2322	3.4433	2.092	3.2126	5.2312	2.2932	7.9209	7.7568	11.4887	10.141	10.7293	-5.7009	-4.0522
371.0938	2.0346	0.3076	-0.0898	2.4254	4.4769	1.5577	9.9826	6.1062	10.1113	11.9204	14.1911	11.6091	9.0369	5.4958	2.895	0.1926	2.5261	-1.7967	3.9199	2.6744	3.8401	5.4911	2.732	7.9889	7.3745	11.0163	10.1858	10.6807	-5.2434	-3.6574
375	2.6416	0.9417	0.6022	2.9827	4.9244	2.0494	10.2989	6.504	10.4841	12.3115	14.3791	11.8424	9.5167	6.0885	3.2478	0.7342	3.1461	-1.3323	4.4036	3.2455	4.4271	5.7825	3.2635	8.1068	7.0828	10.6161	10.2647	10.6361	-4.7668	-3.252
378.9062	3.18	1.5908	1.235	3.5038	5.2834	2.444	10.5194	6.8144	10.7635	12.5911	14.4803	11.9998	9.9269	6.6005	3.4717	1.21	3.6927	-0.8844	4.8195	3.7422	4.917	6.073	3.852	8.2629	6.9135	10.3139	10.3645	10.5817	-4.3011	-2.8579
382.8125	3.6004	2.1813	1.7493	3.9255	5.5059	2.7073	10.6038	6.9968	10.8954	12.7134	14.4375	12.0432	10.2224	6.9814	3.5335	1.558	4.0809	-0.4932	5.0979	4.0997	5.257	6.3257	4.4533	8.4384	6.8815	10.1219	10.4661	10.5033	-3.877	-2.4982
386.7188	3.8697	2.6442	2.1017	4.1964	5.5625	2.8279	10.5299	7.0326	10.8477	12.6506	14.2116	11.9473	10.3702	7.1955	3.439	1.7322	4.2543	-0.1848	5.1932	4.2686	5.4107	6.5091	5.0225	8.6109	6.9811	10.0355	10.5463	10.3874	-3.5206	-2.1934
390.625	3.9775	2.93	2.2719	4.2868	5.4485	2.8163	10.2973	6.9271	10.6145	12.3952	13.7866	11.7007	10.3547	7.2294	3.2324	1.7149	4.199	0.0322	5.096	4.2288	5.3686	6.6058	5.5198	8.7577	7.1856	10.0333	10.581	10.2214	-3.2493	-1.9578
394.5312	3.937	3.0173	2.2648	4.1946	5.1842	2.6996	9.9264	6.7051	10.2135	11.9594	13.1708	11.3054	10.1791	7.0946	2.986	1.5226	3.9471	0.1673	4.8361	3.9974	5.1517	6.6171	5.9144	8.8581	7.4501	10.0794	10.5469	9.9939	-3.0692	-1.798
398.4375	3.7816	2.9159	2.1089	3.9448	4.8105	2.5137	9.4527	6.403	9.6802	11.3722	12.3939	10.7751	9.864	6.8248	2.7831	1.203	3.569	0.2432	4.4751	3.6265	4.808	6.5615	6.1878	8.8955	7.7184	10.1286	10.4248	9.6965	-2.9738	-1.7111
402.3438	3.5575	2.6642	1.8524	3.5846	4.3814	2.2982	8.9209	6.0613	9.0606	10.676	11.5024	10.1338	9.444	6.4692	2.6977	0.8257	3.1563	0.2916	4.0914	3.1929	4.404	6.4698	6.3357	8.8588	7.9331	10.1341	10.2024	9.3267	-2.9447	-1.6844
406.25	3.3164	2.3225	1.5582	3.1769	3.9569	2.0932	8.3782	5.7184	8.4037	9.9225	10.5531	9.4148	8.9632	6.0839	2.7793	0.4687	2.8013	0.3471	3.7627	2.7832	4.0119	6.3766	6.3703	8.7439	8.0459	10.0558	9.877	8.8904	-2.9517	-1.6954
410.1562	3.1092	1.9646	1.2972	2.7919	3.5961	1.9377	7.8701	5.4066	7.7566	9.1683	9.6079	8.6594	8.4712	5.7251	3.0444	0.2055	2.5786	0.443	3.55	2.4775	3.698	6.3128	6.3194	8.5556	8.0273	9.8678	9.4592	8.4033	-2.9554	-1.7128
414.0625	2.9802	1.6688	1.1406	2.499	3.3521	1.8684	7.4384	5.1524	7.1617	8.4706	8.7274	7.915	8.0193	5.443	3.4774	0.094	2.5314	0.6066	3.4873	2.3374	3.5142	6.2992	6.2238	8.3085	7.8728	9.5637	8.9739	7.8916	-2.9118	-1.7004
417.9688	2.9643	1.5076	1.1493	2.3588	3.2669	1.9165	7.1191	4.977	6.6553	7.8824	7.9654	7.2315	7.6564	5.2782	4.0358	0.1692	2.6681	0.8545	3.5795	2.3974	3.4931	6.3447	6.1307	8.0266	7.6035	9.1578	8.4598	7.3889	-2.7795	-1.6224
421.875	3.0826	1.5368	1.3627	2.4142	3.3667	2.1033	6.9406	4.8961	6.2661	7.447	7.3635	6.6552	7.4239	5.2586	4.6593	0.4401	2.965	1.1876	3.806	2.6624	3.6457	6.4469	6.0837	7.7411	7.2601	8.6811	7.9653	6.9313	-2.5298	-1.452
425.7812	3.3404	1.7856	1.7883	2.6825	3.6575	2.4351	6.9199	4.9195	6.0134	7.1926	6.9451	6.2229	7.3498	5.3967	5.2812	0.8886	3.3745	1.5891	4.1283	3.1091	3.9619	6.5943	6.1125	7.4855	6.8934	8.1743	7.5405	6.5511	-2.1567	-1.1791
429.6875	3.7257	2.2491	2.3964	3.1513	4.1223	2.9	7.0589	5.0484	5.9048	7.1278	6.7123	5.9545	7.4437	5.6879	5.8406	1.4738	3.8377	2.0254	4.5013	3.6908	4.4131	6.7713	6.2269	7.2899	6.5523	7.6786	7.2291	6.2709	-1.6826	-0.8157
433.5938	4.2105	2.8878	3.1221	3.7776	4.7227	3.468	7.3412	5.2732	5.9335	7.24	6.6453	5.8501	7.6946	6.1102	6.2952	2.1388	4.2969	2.4532	4.8833	4.3464	4.9572	6.963	6.4152	7.1765	6.2738	7.2284	7.0596	6.0987	-1.1575	-0.3964
437.5	4.755	3.6339	3.8774	4.4955	5.4035	4.0943	7.7327	5.572	6.0783	7.4968	6.7055	5.8896	8.0718	6.6279	6.6301	2.8215	4.7095	2.8302	5.2462	5.012	5.5455	7.1602	6.6512	7.1573	6.0777	6.8467	7.0412	6.0279	-0.6494	0.0289
441.4062	5.3149	4.4055	4.5687	5.2279	6.1024	4.726	8.1856	5.9128	6.3053	7.8515	6.8429	6.0372	8.5313	7.1971	6.8599	3.4662	5.0569	3.1256	5.5809	5.6316	6.1313	7.3619	6.9036	7.2336	5.9653	6.5441	7.1628	6.0392	-0.2288	0.4052
445.3125	5.8505	5.1246	5.1181	5.9029	6.762	5.313	8.6472	6.2576	6.5722	8.2508	7.0052	6.2491	9.0247	7.7743	7.0236	4.034	5.348	3.3298	5.8977	6.1674	6.6782	7.5762	7.1474	7.3982	5.9236	6.3201	7.3965	6.1053	0.0474	0.6864
449.2188	6.3349	5.7341	5.4814	6.4694	7.3412	5.819	9.0698	6.5699	6.8357	8.6442	7.1475	6.4817	9.5091	8.3246	7.1721	4.5097	5.6153	3.4569	6.2211	6.6049	7.1657	7.8176	7.3711	7.6386	5.9311	6.1673	7.7048	6.1966	0.1494	0.8458
453.125	6.7606	6.2097	5.6574	6.9083	7.8242	6.2301	9.4205	6.8226	7.0581	8.9928	7.2388	6.6989	9.956	8.8282	7.3536	4.9032	5.9055	3.5419	6.5815	6.9542	7.5926	8.1038	7.5779	7.9396	5.9653	6.0739	8.0477	6.2861	0.0801	0.8829
457.0312	7.1398	6.5631	5.6863	7.2357	8.2226	6.5585	9.6868	7.0028	7.2136	9.2746	7.2649	6.8763	10.3549	9.2827	7.601	5.2456	6.2663	3.6322	7.0056	7.2459	7.9753	8.451	7.7823	8.2865	6.0079	6.0271	8.3901	6.3529	-0.1271	0.8225
460.9375	7.5004	6.8365	5.6378	7.4968	8.5707	6.8385	9.877	7.1139	7.2916	9.4858	7.2267	7.0006	10.7117	9.701	7.9277	5.5809	6.7333	3.7763	7.5086	7.5224	8.3421	8.8698	8.0026	8.6654	6.0477	6.0137	8.705	6.382	-0.4169	0.7078
464.8438	7.8773	7.0902	5.5934	7.7536	8.9156	7.117	10.0149	7.1728	7.2969	9.6377	7.1349	7.0666	11.0438	10.1047	8.3321	5.955	7.3198	4.0133	8.0897	7.8282	8.7251	9.3622	8.2536	9.0633	6.0808	6.0196	8.9746	6.3629	-0.7246	0.5898
468.75	8.3029	7.3877	5.6273	8.0697	9.3047	7.4413	10.1325	7.2054	7.2469	9.7505	7.005	7.0731	11.3709	10.5163	8.8068	6.4052	8.0126	4.3656	8.7314	8.1993	9.1514	9.9199	8.5409	9.4673	6.1086	6.0293	9.189	6.2876	-0.9895	0.5154
472.6562	8.7975	7.7808	5.7914	8.4949	9.7739	7.8465	10.2617	7.24	7.1673	9.8475	6.8524	7.0194	11.7079	10.9515	9.3477	6.9509	8.7742	4.8352	9.4035	8.6557	9.6365	10.5249	8.8591	9.8633	6.1346	6.0259	9.3439	6.1499	-1.1657	0.5178
476.5625	9.3632	8.2982	6.1049	9.0539	10.3387	8.3457	10.4269	7.3	7.0861	9.9484	6.6899	6.9045	12.0593	11.4138	9.9548	7.5892	9.5512	5.4041	10.0686	9.1967	10.1793	11.15	9.1928	10.2358	6.1607	5.9916	9.4377	5.9452	-1.2294	0.6096
480.4688	9.9808	8.9384	6.5514	9.7393	10.9886	8.9248	10.6402	7.3992	7.0283	10.0655	6.5272	6.7274	12.416	11.8924	10.6263	8.2937	10.2854	6.036	10.6883	9.8003	10.7615	11.7619	9.52	10.5671	6.1841	5.9098	9.4698	5.6723	-1.1829	0.7813
484.375	10.6117	9.6675	7.0833	10.5103	11.6881	9.5434	10.8992	7.5394	7.0122	10.2019	6.3718	6.4896	12.7573	12.3638	11.3463	9.0178	10.9252	6.6808	11.2278	10.4261	11.3492	12.3235	9.8155	10.838	6.1965	5.7674	9.4392	5.3355	-1.0535	1.0024
488.2812	11.2037	10.4242	7.6314	11.299	12.3814	10.1429	11.1892	7.7119	7.0483	10.3532	6.2308	6.1978	13.0556	12.7959	12.0769	9.7019	11.4328	7.2805	11.6595	11.0211	11.8988	12.7983	10.0554	11.0304	6.1849	5.5581	9.3464	4.9462	-0.8887	1.228
492.1875	11.7007	11.1298	8.1191	12.0206	13.003	10.6577	11.4882	7.9026	7.1407	10.5104	6.1138	5.8665	13.2837	13.1555	12.7577	10.2842	11.7892	7.7774	11.9646	11.5285	12.3642	13.1551	10.2213	11.1306	6.1363	5.2857	9.1954	4.5246	-0.7465	1.4068
496.0938	12.0536	11.7029	8.4776	12.5895	13.49	11.0294	11.7736	8.0984	7.2902	10.665	6.0339	5.5198	13.4235	13.4162	13.3175	10.7114	11.994	8.1237	12.1358	11.898	12.7057	13.3735	10.3034	11.134	6.0425	4.9666	8.9971	4.0994	-0.6819	1.492
500	12.2298	12.0751	8.6572	12.9358	13.7949	11.2187	12.0281	8.2917	7.4959	10.8126	6.0075	5.1895	13.471	13.5642	13.6936	10.9495	12.0625	8.2908	12.1777	12.0954	12.8986	13.4474	10.3032	11.048	5.9037	4.6289	8.7705	3.7056	-0.7359	1.4508
503.9062	12.2203	12.205	8.6347	13.0201	13.8964	11.2141	12.2433	8.482	7.7556	10.9535	6.052	4.9114	13.4387	13.6016	13.8507	10.9894	12.0199	8.2739	12.1063	12.1087	12.9369	13.3864	10.2324	10.8922	5.7301	4.3093	8.5421	3.38	-0.9262	1.2705
507.8125	12.0415	12.0863	8.4142	12.8421	13.8035	11.0348	12.4204	8.674	8.0643	11.0929	6.1819	4.7198	13.3523	13.5458	13.791	10.8475	11.8948	8.0922	11.9456	11.9498	12.8349	13.2141	10.1103	10.6955	5.5396	4.0463	8.3415	3.1546	-1.246	0.9606
511.7188	11.7313	11.7494	8.024	12.4419	13.5546	10.7275	12.5686	8.8737	8.4125	11.2378	6.4051	4.6415	13.2449	13.4249	13.5524	10.5608	11.7123	7.7821	11.7228	11.6512	12.6229	12.9633	9.9591	10.4905	5.3538	3.8729	8.1968	3.0512	-1.6672	0.5505
515.625	11.3425	11.2555	7.5117	11.893	13.2106	10.3575	12.7009	9.0839	8.7848	11.395	6.7198	4.6909	13.1494	13.2724	13.1962	10.1782	11.4896	7.3877	11.4634	11.2589	12.3416	12.67	9.7987	10.3073	5.1924	3.809	8.1287	3.0771	-2.149	0.0826
519.5312	10.933	10.6859	6.937	11.2892	12.8441	9.9974	12.8312	9.3021	9.1611	11.5697	7.1142	4.8684	13.0918	13.1201	12.7911	9.751	11.2344	6.9495	11.1868	10.8231	12.0342	12.3673	9.6426	10.1678	5.068	3.8564	8.1458	3.2236	-2.6461	-0.3953
523.4375	10.5562	10.1275	6.3655	10.728	12.5276	9.7135	12.9708	9.5198	9.5196	11.7647	7.5678	5.1608	13.087	12.9941	12.3993	9.325	10.9471	6.4975	10.9044	10.391	11.7401	12.0805	9.4961	10.0823	4.9824	3.9977	8.2434	3.4685	-3.1175	-0.8381
527.3438	10.2534	9.6587	5.8609	10.2943	12.3217	9.5552	13.1275	9.7254	9.8415	11.9816	8.0551	5.5447	13.1393	12.9113	12.0687	8.9363	10.6247	6.0488	10.6207	10.0008	11.4905	11.8251	9.3564	10.0499	4.9255	4.1995	8.4049	3.7814	-3.5307	-1.2097
531.25	10.0498	9.339	5.4768	10.0476	12.2671	9.5481	13.3063	9.9081	10.115	12.2224	8.5495	5.9925	13.2442	12.8807	11.8316	8.6108	10.2674	5.612	10.3371	9.6805	11.3068	11.6086	9.2165	10.0615	4.8781	4.4205	8.6069	4.1308	-3.8647	-1.4863
535.1562	9.9536	9.2014	5.2494	10.0138	12.3796	9.6918	13.5104	10.0621	10.3375	12.4899	9.0275	6.4774	13.3941	12.9048	11.7061	8.3657	9.8846	5.194	10.0568	9.4477	11.2015	11.4347	9.0705	10.1061	4.818	4.6213	8.8258	4.4917	-4.1092	-1.6578
539.0625	9.9576	9.2497	5.1906	10.183	12.6477	9.9609	13.7421	10.1876	10.5148	12.7874	9.4701	6.9777	13.5814	12.9822	11.6969	8.2112	9.4984	4.8074	9.7904	9.311	11.1781	11.3081	8.9188	10.1767	4.7273	4.7751	9.0443	4.8498	-4.2636	-1.7264
542.9688	10.0414	9.4582	5.2851	10.5102	13.0334	10.3091	14	10.289	10.6563	13.1147	9.8628	7.4771	13.8008	13.1079	11.7918	8.1486	9.1418	4.4733	9.5559	9.2684	11.2305	11.2362	8.7713	10.2732	4.5994	4.8734	9.2546	5.2032	-4.3349	-1.7046
546.875	10.1736	9.7741	5.4902	10.9218	13.4754	10.6756	14.2761	10.3709	10.77	13.4636	10.193	7.9633	14.0466	13.2712	11.959	8.1679	8.8513	4.2173	9.3753	9.3055	11.3413	11.2279	8.645	10.4015	4.4429	4.9282	9.4582	5.5588	-4.336	-1.6125
550.7812	10.3141	10.1225	5.7407	11.3256	13.8963	10.9935	14.5525	10.4334	10.8563	13.8146	10.4477	8.4245	14.3093	13.4526	12.1453	8.2436	8.6549	4.0607	9.265	9.3918	11.4788	11.2864	8.5578	10.568	4.2795	4.967	9.6614	5.9266	-4.2848	-1.4756
554.6875	10.4175	10.416	5.9583	11.6248	14.2134	11.2005	14.7998	10.4695	10.9058	14.1351	10.6128	8.846	14.57	13.6218	12.2829	8.3331	8.5585	4.0098	9.2245	9.481	11.598	11.402	8.5199	10.7709	4.1385	5.0239	9.8692	6.312	-4.2035	-1.3225
558.5938	10.4379	10.5671	6.0648	11.7331	14.3526	11.2486	14.9809	10.4646	10.9009	14.3839	10.6749	9.2102	14.7992	13.7384	12.3022	8.3795	8.5366	4.0485	9.2291	9.5146	11.6444	11.5455	8.5261	10.9943	4.0476	5.1296	10.0788	6.711	-4.1168	-1.182
562.5	10.3351	10.5029	5.9968	11.5898	14.2609	11.1111	15.0572	10.4006	10.8209	14.5191	10.6255	9.4989	14.9589	13.7574	12.1498	8.32	8.5323	4.1381	9.2287	9.4301	11.5623	11.6687	8.5534	11.2059	4.0247	5.3024	10.2781	7.1098	-4.0486	-1.0799
566.4062	10.0812	10.1791	5.7196	11.1701	13.9157	10.7865	14.9977	10.2609	10.6499	14.5074	10.4659	9.6986	15.0097	13.6373	11.8038	8.098	8.4668	4.2246	9.1569	9.1742	11.3058	11.7114	8.5651	11.3625	4.073	5.5448	10.4467	7.4882	-4.0174	-1.0349
570.3125	9.6662	9.5899	5.2352	10.4897	13.3289	10.297	14.7863	10.0365	10.383	14.3333	10.2105	9.8053	14.9197	13.3499	11.2828	7.6773	8.2584	4.2529	8.9474	8.7148	10.8499	11.6152	8.5207	11.4194	4.1807	5.8443	10.5615	7.8264	-4.0316	-1.0551
574.2188	9.1009	8.7704	4.583	9.6016	12.5433	9.6836	14.426	9.729	10.0295	14.0033	9.8872	9.827	14.6726	12.8884	10.6424	7.0525	7.8464	4.1813	8.5539	8.0516	10.198	11.3397	8.3889	11.3429	4.325	6.1776	10.603	8.1109	-4.087	-1.1365
578.125	8.4165	7.7916	3.8314	8.5862	11.6245	8.9975	13.9388	9.3512	9.6114	13.5455	9.5333	9.7833	14.2734	12.2706	9.9638	6.2557	7.2109	3.9937	7.9672	7.22	9.3848	10.8755	8.1599	11.1205	4.4794	6.517	10.5614	8.3386	-4.1685	-1.2638
582.0312	7.6605	6.7477	3.0635	7.5369	10.6488	8.2912	13.3613	8.924	9.159	13.0043	9.1889	9.7009	13.7483	11.538	9.3342	5.3542	6.3842	3.7023	7.2228	6.2882	8.4724	10.2511	7.8496	10.7662	4.6205	6.8365	10.4392	8.5165	-4.2547	-1.4152
585.9375	6.8889	5.7398	2.3584	6.5441	9.6907	7.6094	12.738	8.4727	8.705	12.4313	8.8908	9.608	13.1407	10.7491	8.8264	4.4407	5.4475	3.3433	6.3965	5.3467	7.5402	9.5281	7.4958	10.3185	4.7336	7.1158	10.252	8.6586	-4.3253	-1.5678
589.8438	6.1568	4.8575	1.7736	5.6813	8.8119	6.9834	12.1136	8.0217	8.2793	11.8762	8.6668	9.5287	12.5039	9.9695	8.4825	3.616	4.5139	2.9639	5.5871	4.4915	6.6713	8.7885	7.1469	9.8325	4.8134	7.3417	10.0241	8.7808	-4.3689	-1.7047
593.75	5.5091	4.1645	1.3332	4.9947	8.0542	6.4281	11.5263	7.5911	7.9057	11.3781	8.533	9.4796	11.8916	9.26	8.3054	2.9689	3.7026	2.6086	4.8938	3.8051	5.9371	8.1164	6.8469	9.3683	4.863	7.5088	9.7838	8.8959	-4.3877	-1.8194
597.6562	4.9733	3.6891	1.0255	4.499	7.4358	5.9429	11.003	7.1944	7.6006	10.9626	8.4944	9.4686	11.3497	8.6665	8.2609	2.5568	3.1114	2.3077	4.3922	3.3396	5.3842	7.5786	6.6241	8.9779	4.8911	7.618	9.5573	9.0105	-4.3984	-1.9181
601.5625	4.5564	3.4219	0.8092	4.1785	6.952	5.5157	10.5581	6.8396	7.3742	10.6414	8.547	9.4967	10.9106	8.2129	8.2875	2.3923	2.7937	2.0719	4.1169	3.1046	5.0258	7.2117	6.4844	8.6965	4.9094	7.6767	9.3641	9.1246	-4.4283	-2.0168
605.4688	4.2453	3.32	0.6258	3.9926	6.579	5.1278	10.1939	6.5309	7.232	10.4148	8.6799	9.5596	10.5889	7.8976	8.3114	2.4387	2.7463	1.8925	4.0542	3.0653	4.84	7.0151	6.4127	8.5365	4.9301	7.6964	9.2145	9.2334	-4.5075	-2.1374
609.375	4.0112	3.3155	0.4144	3.884	6.2796	4.7596	9.9025	6.271	7.1749	10.2748	8.8775	9.6495	10.3813	7.6955	8.2614	2.6176	2.9102	1.7458	4.1453	3.1482	4.7737	6.9537	6.3786	8.4873	4.9636	7.6906	9.1086	9.3287	-4.6614	-2.3014
613.2812	3.8156	3.3288	0.126	3.7887	6.0096	4.394	9.669	6.0616	7.1992	10.2075	9.1199	9.7553	10.2685	7.5635	8.0822	2.824	3.1829	1.5996	4.2999	3.2569	4.7539	6.9674	6.3447	8.5192	5.0164	7.6717	9.0368	9.4011	-4.9035	-2.5241
617.1875	3.6185	3.2825	-0.2661	3.6462	5.7258	4.0193	9.4741	5.9031	7.2951	10.1952	9.3843	9.8637	10.2197	7.4507	7.7431	2.9502	3.4413	1.4198	4.4157	3.2926	4.7026	6.9855	6.2752	8.5904	5.0885	7.6475	8.9826	9.4416	-5.2318	-2.8105
621.0938	3.386	3.117	-0.7615	3.4099	5.3931	3.63	9.2985	5.7923	7.4464	10.2174	9.6463	9.9596	10.199	7.31	7.2441	2.9092	3.5682	1.1768	4.4004	3.1763	4.5544	6.9426	6.1424	8.6566	5.1719	7.6196	8.9259	9.4424	-5.6276	-3.1532
625	3.098	2.8012	-1.3346	3.0554	4.9917	3.2275	9.1258	5.7219	7.6309	10.2531	9.8827	10.0287	10.1732	7.1089	6.6157	2.6538	3.4788	0.8506	4.1921	2.8661	4.2703	6.7931	5.9319	8.68	5.2501	7.5832	8.8483	9.3983	-6.0583	-3.5324
628.9062	2.7524	2.3397	-1.9412	2.5856	4.5217	2.8199	8.9462	5.68	7.8233	10.283	10.075	10.0597	10.1176	6.8369	5.9156	2.1875	3.1391	0.4364	3.7721	2.3673	3.847	6.5195	5.6444	8.6359	5.3009	7.5288	8.7363	9.3066	-6.4814	-3.9184
632.8125	2.3663	1.7722	-2.5279	2.0322	4.0041	2.4224	8.7571	5.6524	7.9981	10.2919	10.2112	10.047	10.0201	6.5071	5.2211	1.5626	2.5734	-0.0512	3.1685	1.7312	3.3171	6.1349	5.2946	8.5161	5.3005	7.4451	8.5844	9.1678	-6.851	-4.2754
636.7188	1.9742	1.1677	-3.0402	1.4516	3.4781	2.0565	8.563	5.6251	8.1334	10.2704	10.287	9.9908	9.8822	6.1523	4.6187	0.8692	1.8578	-0.577	2.4497	1.0435	2.7419	5.6782	4.9084	8.3287	5.2293	7.323	8.3961	8.9857	-7.1244	-4.5663
640.625	1.6207	0.6119	-3.4295	0.9162	2.9937	1.7469	8.3728	5.5863	8.2129	10.215	10.3041	9.8965	9.7173	5.8163	4.1905	0.2158	1.1026	-1.087	1.7092	0.4059	2.1977	5.205	4.5181	8.0951	5.0775	7.1588	8.1828	8.7674	-7.2681	-4.758
644.5312	1.3524	0.1911	-3.6575	0.5006	2.6002	1.5163	8.1958	5.5279	8.2271	10.1273	10.2673	9.7724	9.5461	5.5439	3.998	-0.2937	0.4282	-1.5178	1.0471	-0.0855	1.759	4.7758	4.1563	7.845	4.8484	6.957	7.9615	8.5228	-7.2629	-4.8264
648.4375	1.2069	-0.0253	-3.7008	0.266	2.3357	1.379	8.0389	5.4457	8.1739	10.0121	10.1816	9.6265	9.3917	5.3699	4.0668	-0.5815	-0.0599	-1.8087	0.5504	-0.3608	1.4831	4.4433	3.8505	7.6107	4.5594	6.7306	7.7513	8.2634	-7.1078	-4.7611
652.3438	1.2047	0.0007	-3.554	0.2471	2.218	1.3379	7.9054	5.3397	8.0583	9.8757	10.0501	9.4642	9.2747	5.3131	4.3785	-0.6106	-0.2906	-1.9172	0.2784	-0.3892	1.3995	4.2442	3.6194	7.4219	4.2395	6.4996	7.5704	8.0016	-6.8213	-4.5684
656.25	1.3448	0.2685	-3.2328	0.4441	2.2424	1.3836	7.7964	5.2148	7.8919	9.7259	9.8734	9.2869	9.2099	5.3745	4.8722	-0.3899	-0.2376	-1.8293	0.255	-0.1822	1.507	4.1948	3.4714	7.3015	3.924	6.2863	7.4329	7.7476	-6.44	-4.2714
660.1562	1.6058	0.7394	-2.7743	0.8231	2.3847	1.4987	7.7128	5.0812	7.6917	9.5714	9.6503	9.0915	9.2049	5.54	5.4589	0.032	0.0797	-1.5649	0.4683	0.2123	1.7779	4.2918	3.4059	7.2626	3.6493	6.1109	7.3474	7.5085	-6.0133	-3.9078
664.0625	1.951	1.3456	-2.2335	1.3234	2.6081	1.6626	7.658	4.9539	7.4785	9.4212	9.3788	8.8716	9.2594	5.7856	6.043	0.579	0.6036	-1.1734	0.8757	0.7241	2.1664	4.5155	3.415	7.3064	3.4458	5.9859	7.3148	7.2854	-5.5957	-3.5235
667.9688	2.3363	2.0039	-1.6756	1.8699	2.872	1.8563	7.6382	4.8514	7.2738	9.284	9.0581	8.6186	9.3662	6.0832	6.5454	1.1648	1.2495	-0.7241	1.4125	1.2755	2.6195	4.8346	3.4829	7.4222	3.3331	5.9122	7.3282	7.0727	-5.2363	-3.1655
671.875	2.719	2.6307	-1.1643	2.3875	3.1393	2.0665	7.6607	4.7928	7.0971	9.1666	8.6899	8.3249	9.5118	6.4047	6.9207	1.7077	1.9195	-0.2912	2.0005	1.7958	3.0849	5.2096	3.5855	7.5884	3.316	5.8783	7.3734	6.859	-4.9709	-2.8725
675.7812	3.0655	3.1558	-0.7509	2.814	3.3822	2.286	7.7323	4.7941	6.9627	9.0741	8.2809	7.9879	9.679	6.7246	7.1624	2.1429	2.517	0.0606	2.5586	2.2309	3.5181	5.5966	3.6897	7.7768	3.3835	5.8617	7.4313	6.6293	-4.8158	-2.669
679.6875	3.3562	3.5312	-0.4651	3.1093	3.5839	2.5128	7.8552	4.8644	6.8776	9.0093	7.844	7.613	9.8494	7.0221	7.2973	2.4302	2.9608	0.2886	3.0124	2.5482	3.8859	5.9517	3.7558	7.9571	3.5103	5.8345	7.482	6.3704	-4.7668	-2.561
683.5938	3.5863	3.7361	-0.3113	3.2596	3.7377	2.7455	8.0246	5.0019	6.8389	8.973	7.3971	7.2153	10.0068	7.2811	7.3701	2.5575	3.1973	0.3778	3.3047	2.738	4.1679	6.2361	3.7432	8.1033	3.6613	5.7691	7.5081	6.0745	-4.802	-2.5365
687.5	3.7632	3.7759	-0.2721	3.2758	3.8437	2.9786	8.2258	5.1914	6.8331	8.9637	6.9608	6.818	10.1385	7.4912	7.4254	2.5392	3.2082	0.3407	3.4038	2.8111	4.3572	6.4216	3.6195	8.1973	3.7977	5.6451	7.4984	5.7437	-4.8889	-2.5695
691.4062	3.9007	3.678	-0.3161	3.1871	3.9052	3.1979	8.4344	5.4036	6.8366	8.9761	6.5539	6.4479	10.2368	7.6473	7.4919	2.4112	3.013	0.2105	3.3098	2.7943	4.459	6.4958	3.3692	8.2316	3.8843	5.4538	7.4492	5.3899	-4.9916	-2.627
695.3125	4.0141	3.4837	-0.4084	3.0321	3.9249	3.3789	8.619	5.5986	6.8191	9.0016	6.1898	6.1297	10.2983	7.7498	7.5746	2.2234	2.665	0.0321	3.0557	2.7248	4.4899	6.465	3.0006	8.2094	3.8968	5.2004	7.3645	5.0335	-5.0797	-2.6776
699.2188	4.1152	3.2389	-0.5198	2.8491	3.9035	3.4907	8.7463	5.7335	6.7499	9.0278	5.8736	5.8808	10.3233	7.8048	7.6562	2.0296	2.2417	-0.148	2.7031	2.6433	4.4742	6.3542	2.5469	8.1431	3.827	4.9031	7.2553	4.699	-5.1332	-2.698
703.125	4.2106	2.985	-0.6312	2.6686	3.8408	3.5028	8.7887	5.7711	6.606	9.0413	5.603	5.7079	10.3145	7.8221	7.7079	1.878	1.83	-0.289	2.3302	2.5873	4.4404	6.202	2.0618	8.0504	3.6854	4.5903	7.1367	4.4094	-5.1447	-2.6769
707.0312	4.301	2.7519	-0.7336	2.5084	3.7358	3.3944	8.7293	5.6887	6.3778	9.0297	5.3707	5.6063	10.2762	7.8134	7.7038	1.8021	1.5094	-0.3604	2.0164	2.5838	4.4149	6.0521	1.6088	7.951	3.5	4.2942	7.0257	4.1817	-5.117	-2.6155
710.9375	4.3816	2.5544	-0.8248	2.372	3.5888	3.1618	8.5659	5.4822	6.0728	8.9833	5.1687	5.5611	10.2125	7.7888	7.6326	1.815	1.3367	-0.3437	1.8245	2.6436	4.4154	5.9434	1.248	7.8626	3.3108	4.045	6.9371	4.0225	-5.0586	-2.524
714.8438	4.4432	2.3923	-0.906	2.2503	3.4002	2.8208	8.3097	5.1656	5.7134	8.8965	4.9915	5.5513	10.127	7.7534	7.5029	1.907	1.3355	-0.2333	1.7877	2.7573	4.4456	5.9011	1.0245	7.7977	3.1618	3.8645	6.8806	3.927	-4.9784	-2.4175
718.75	4.4734	2.2536	-0.979	2.1262	3.1712	2.4043	7.9822	4.767	5.3312	8.7681	4.8374	5.5532	10.0225	7.7058	7.3412	2.0482	1.4931	-0.0355	1.9034	2.8973	4.4939	5.9315	0.9596	7.7625	3.0916	3.7624	6.859	3.8803	-4.883	-2.3114
722.6562	4.4599	2.1205	-1.0452	1.9807	2.9042	1.9564	7.6112	4.3224	4.9595	8.6013	4.7083	5.5449	9.9022	7.6394	7.1841	2.1962	1.7662	0.2321	2.1368	3.0237	4.5364	6.0233	1.0493	7.7572	3.1254	3.7342	6.8671	3.8606	-4.7756	-2.2177
726.5625	4.3948	1.9765	-1.1054	1.8012	2.6053	1.5249	7.2265	3.8696	4.6257	8.404	4.6064	5.5093	9.7712	7.5463	7.0694	2.3076	2.0923	0.5433	2.4319	3.0957	4.5456	6.1532	1.2672	7.778	3.27	3.7638	6.8939	3.8446	-4.6567	-2.1435
730.4688	4.2796	1.8133	-1.1582	1.5885	2.2884	1.1545	6.8577	3.443	4.3469	8.1876	4.5311	5.4356	9.6379	7.4231	7.028	2.3511	2.4063	0.8672	2.728	3.0856	4.5012	6.2951	1.5727	7.8194	3.5132	3.8276	6.9254	3.8119	-4.5264	-2.0895
734.375	4.1293	1.636	-1.1983	1.3602	1.9781	0.8823	6.5323	3.0712	4.1283	7.9669	4.4761	5.3198	9.5156	7.2766	7.0787	2.3174	2.6562	1.1744	2.9756	2.9898	4.4006	6.4298	1.9215	7.877	3.8275	3.9009	6.9486	3.7497	-4.3858	-2.0502
738.2812	3.9735	1.4657	-1.2155	1.1511	1.7101	0.7343	6.2753	2.7755	3.9654	7.7584	4.4283	5.1638	9.4222	7.1271	7.2253	2.226	2.8158	1.4433	3.1499	2.8357	4.2651	6.5523	2.2744	7.9489	4.1773	3.9632	6.9561	3.6541	-4.2377	-2.0155
742.1875	3.853	1.3362	-1.195	1.0068	1.5271	0.7243	6.1075	2.5704	3.8486	7.5781	4.37	4.9738	9.3788	7.0075	7.4556	2.1222	2.8906	1.6644	3.2554	2.6797	4.139	6.6732	2.6044	8.0364	4.5261	4.003	6.9477	3.5298	-4.0869	-1.9726
746.0938	3.8124	1.2877	-1.1201	0.9735	1.4704	0.8535	6.0439	2.4651	3.7687	7.4409	4.2833	4.7586	9.406	6.9575	7.7406	2.0685	2.9151	1.8423	3.3234	2.5955	4.0815	6.816	2.8986	8.1431	4.8429	4.0193	6.9319	3.3884	-3.9392	-1.9096
750	3.89	1.3564	-0.9775	1.0863	1.5704	1.1107	6.0919	2.4645	3.7205	7.3587	4.1554	4.529	9.5194	7.0149	8.0373	2.128	2.9415	1.9928	3.4	2.6561	4.1518	7.0088	3.1568	8.2731	5.1058	4.0198	6.9229	3.2443	-3.8004	-1.8174
753.9062	4.1073	1.5638	-0.7613	1.3582	1.837	1.4741	6.2496	2.569	3.7044	7.3396	3.9833	4.2968	9.7255	7.2049	8.2951	2.3469	3.0241	2.1374	3.5316	2.9139	4.3933	7.2738	3.3862	8.4285	5.3023	4.017	6.9374	3.1117	-3.6745	-1.6923
757.8125	4.463	1.9097	-0.4761	1.776	2.2563	1.914	6.5051	2.7724	3.7251	7.3865	3.7756	4.0745	10.0183	7.5337	8.4684	2.7401	3.2031	2.2963	3.7493	3.3846	4.8207	7.6192	3.5955	8.6083	5.4276	4.0227	6.9887	3.0009	-3.5622	-1.5363
761.7188	4.9311	2.3701	-0.1364	2.3016	2.792	2.3967	6.8377	3.0593	3.7877	7.496	3.5512	3.8744	10.3794	7.984	8.5302	3.2843	3.4926	2.4821	4.0593	4.0398	5.4136	8.0338	3.7901	8.806	5.4822	4.0431	7.0827	2.9163	-3.4593	-1.3553
765.625	5.4639	2.9011	0.2363	2.8798	3.3918	2.8875	7.2203	3.404	3.8949	7.6581	3.3359	3.7071	10.7784	8.5172	8.4853	3.9197	3.8744	2.6958	4.4388	4.8099	6.1178	8.4869	3.9675	9.0096	5.4683	4.0753	7.2137	2.8551	-3.3561	-1.1572
769.5312	6.0003	3.4467	0.6167	3.4492	3.9974	3.3535	7.6219	3.7706	4.0442	7.8565	3.1572	3.5796	11.1768	9.0789	8.3747	4.5602	4.2982	2.925	4.8388	5.596	6.8547	8.9323	4.116	9.2004	5.3874	4.106	7.364	2.8075	-3.2381	-0.9503
773.4375	6.4749	3.9501	0.9788	3.9538	4.5539	3.7657	8.012	4.1168	4.2278	8.0697	3.0386	3.4939	11.5324	9.6074	8.2707	5.1091	4.6905	3.1456	5.1939	6.2892	7.535	9.3167	4.2156	9.355	5.2387	4.1136	7.5065	2.7582	-3.0886	-0.7415
777.3438	6.829	4.364	1.2984	4.3528	5.019	4.1007	8.3636	4.4004	4.4343	8.2749	2.9956	3.4465	11.8058	10.0448	8.2608	5.4783	4.9693	3.3266	5.4353	6.7912	8.0764	9.5889	4.2413	9.4481	5.0189	4.0729	7.6102	2.6899	-2.8918	-0.5361
781.25	7.0213	4.6587	1.5553	4.626	5.3688	4.3438	8.6579	4.5868	4.6511	8.4518	3.0334	3.4289	11.9675	10.3477	8.4264	5.6055	5.0632	3.4377	5.5066	7.0346	8.4192	9.7112	4.1696	9.4578	4.7245	3.9609	7.6477	2.5866	-2.6364	-0.337
785.1562	7.0354	4.827	1.7378	4.7754	5.6003	4.4921	8.8867	4.6571	4.8676	8.5872	3.1467	3.4305	12.0049	10.4964	8.8208	5.4674	4.9298	3.4578	5.3777	6.995	8.5385	9.6676	3.9868	9.3722	4.3555	3.7643	7.6026	2.4382	-2.3189	-0.1456
789.0625	6.8848	4.8832	1.8471	4.8224	5.7304	4.557	9.0546	4.6133	5.0769	8.6779	3.3212	3.4403	11.9257	10.499	9.4541	5.0846	4.5683	3.3824	5.0534	6.6962	8.4493	9.4694	3.6957	9.1942	3.9186	3.4833	7.4739	2.2425	-1.9444	0.0394
792.9688	6.6104	4.8594	1.8995	4.8016	5.7911	4.5632	9.1778	4.4795	5.2771	8.7313	3.5359	3.4497	11.7586	10.3904	10.2875	4.5179	4.0226	3.2274	4.5747	6.2039	8.2024	9.1541	3.3184	8.9439	3.43	3.1337	7.2771	2.007	-1.5259	0.2206
796.875	6.2734	4.7976	1.9236	4.7531	5.8221	4.5452	9.2803	4.2974	5.4698	8.7634	3.7672	3.4538	11.5472	10.2242	11.2412	3.8554	3.3721	3.0266	4.01	5.6119	7.8738	8.7782	2.8943	8.6555	2.9147	2.7446	7.0411	1.7469	-1.0827	0.4019
