time	FP1	F3	F7	FC3	C3	C5	P3	P7	PO7	PO3	O1	Oz	Pz	CPz	FP2	Fz	F4	F8	FC4	FCz	Cz	C4	C6	P4	P8	PO8	PO4	O2	HEOG_left	HEOG_right
-199.2188	2.5073	1.1511	2.0394	2.1202	1.7632	0.3153	-1.4713	0.2978	-0.9176	-1.6812	-1.2905	-0.9806	-1.8356	-1.1865	1.096	2.0828	1.3462	0.3353	0.7668	2.3387	0.3463	-0.3733	-0.8704	-2.269	-2.679	-2.3219	-2.4679	-1.5291	1.5533	0.6907
-195.3125	2.585	1.4534	2.1898	2.4546	1.8248	0.8884	-1.0409	0.147	-0.8794	-1.3669	-1.4567	-1.0732	-1.1278	-0.5729	1.2166	2.4558	1.5322	0.5287	1.0929	2.7361	0.9038	-0.0065	-0.3411	-1.5293	-2.1179	-1.9814	-1.96	-1.3341	1.6485	0.9555
-191.4062	2.6723	1.7369	2.3324	2.7757	1.913	1.417	-0.5936	0.0357	-0.7862	-1.0109	-1.5155	-1.0813	-0.4219	0.032	1.3326	2.8188	1.7124	0.7351	1.4153	3.1357	1.455	0.3737	0.1838	-0.7849	-1.5583	-1.6125	-1.4152	-1.0837	1.7494	1.21
-187.5	2.7583	1.9681	2.4447	3.0526	2.0318	1.8468	-0.1326	-0.0124	-0.6115	-0.5972	-1.4021	-0.9584	0.2596	0.6021	1.4149	3.141	1.8665	0.9434	1.7152	3.5155	1.9735	0.7622	0.6857	-0.0523	-1.011	-1.207	-0.8249	-0.7551	1.842	1.4296
-183.5938	2.8214	2.1098	2.4998	3.2534	2.1741	2.1365	0.3279	0.0122	-0.3501	-0.1279	-1.0903	-0.6882	0.8869	1.1052	1.4348	3.3878	1.973	1.1372	1.9707	3.8433	2.4256	1.1457	1.141	0.6432	-0.4905	-0.7677	-0.1998	-0.3456	1.9074	1.5891
-179.6875	2.8318	2.1254	2.4702	3.3474	2.3207	2.2627	0.7629	0.1021	-0.0205	0.3735	-0.5982	-0.2895	1.4236	1.5057	1.3701	3.523	2.0119	1.2962	2.1586	4.0788	2.7731	1.5023	1.5221	1.267	-0.0155	-0.3109	0.4278	0.1239	1.9234	1.6653
-175.7812	2.7584	1.9863	2.3329	3.3087	2.4432	2.2208	1.1392	0.2343	0.3376	0.866	0.0151	0.1875	1.832	1.77	1.2108	3.5159	1.9678	1.3998	2.2581	4.1808	2.9794	1.8047	1.801	1.7789	0.3927	0.1341	1.0075	0.6105	1.8685	1.6413
-171.875	2.5774	1.681	2.0753	3.1211	2.5087	2.0236	1.4219	0.3749	0.6716	1.298	0.6626	0.6726	2.0804	1.8742	0.9635	3.3478	1.8341	1.4316	2.2546	4.1161	3.0174	2.0248	1.9546	2.1395	0.7137	0.529	1.4803	1.0563	1.7271	1.5103
-167.9688	2.2803	1.2216	1.7005	2.7824	2.4869	1.6981	1.5819	0.4876	0.9273	1.6185	1.2481	1.0904	2.1504	1.8109	0.6512	3.018	1.615	1.3826	2.1434	3.8692	2.878	2.1398	1.9705	2.3185	0.932	0.8337	1.7909	1.3997	1.4936	1.2785
-164.0625	1.8769	0.6453	1.2282	2.307	2.3566	1.281	1.6029	0.5412	1.0609	1.7881	1.6855	1.3756	2.0424	1.5935	0.3087	2.5468	1.3263	1.2525	1.9322	3.4484	2.5743	2.1369	1.8511	2.3027	1.0409	1.0149	1.9009	1.5878	1.1746	0.965
-160.1562	1.3928	0.0093	0.6931	1.726	2.1115	0.8136	1.4856	0.516	1.0481	1.7872	1.9154	1.4861	1.7772	1.2553	-0.0266	1.9735	0.9925	1.0497	1.6399	2.8863	2.1419	2.0159	1.6144	2.1003	1.0452	1.0545	1.7973	1.5885	0.7882	0.5991
-156.25	0.8637	-0.619	0.1401	1.0841	1.7622	0.3378	1.2489	0.4068	0.8888	1.6199	1.9148	1.4107	1.3938	0.845	-0.3229	1.3506	0.6427	0.7904	1.294	2.2352	1.6329	1.7888	1.2913	1.7411	0.9609	0.955	1.4978	1.398	0.3618	0.2157
-152.3438	0.3289	-1.1739	-0.3826	0.4344	1.3363	-0.1075	0.9267	0.2224	0.6072	1.3138	1.6995	1.1709	0.9441	0.4183	-0.558	0.7363	0.307	0.4968	0.9263	1.5587	1.1068	1.478	0.9199	1.2733	0.8136	0.7406	1.0481	1.0437	-0.0716	-0.1499
-148.4375	-0.1742	-1.6024	-0.8304	-0.1676	0.8742	-0.4888	0.5631	-0.0169	0.2469	0.915	1.3194	0.8159	0.4855	0.0295	-0.7202	0.1869	0.0122	0.1959	0.5684	0.9217	0.6207	1.1131	0.539	0.7556	0.6347	0.4548	0.5152	0.5819	-0.4768	-0.4661
-144.5312	-0.612	-1.8711	-1.1679	-0.6705	0.4232	-0.7806	0.2049	-0.2836	-0.1381	0.4798	0.8461	0.4128	0.0731	-0.2771	-0.8046	-0.2505	-0.2199	-0.0829	0.2475	0.3805	0.2206	0.7264	0.182	0.2491	0.4569	0.1532	-0.0237	0.0877	-0.8202	-0.7083
-140.625	-0.9564	-1.9685	-1.3737	-1.0334	0.0289	-0.9665	-0.1055	-0.5469	-0.4942	0.0653	0.3579	0.0318	-0.2476	-0.4729	-0.8113	-0.5434	-0.3754	-0.3131	-0.0165	-0.0252	-0.0651	0.3494	-0.1265	-0.1921	0.3088	-0.1068	-0.4943	-0.3584	-1.0738	-0.8606
-136.7188	-1.1855	-1.9033	-1.4416	-1.2309	-0.272	-1.04	-0.3371	-0.7773	-0.7783	-0.2806	-0.0763	-0.2676	-0.4474	-0.5481	-0.7449	-0.6782	-0.4492	-0.4752	-0.2133	-0.2764	-0.2273	0.0082	-0.3718	-0.5288	0.2102	-0.2768	-0.8374	-0.6863	-1.2189	-0.9175
-132.8125	-1.2854	-1.6989	-1.38	-1.2566	-0.458	-1.0045	-0.4741	-0.9488	-0.9652	-0.5262	-0.4094	-0.4481	-0.5167	-0.5119	-0.6151	-0.6615	-0.4462	-0.5613	-0.3421	-0.3765	-0.2757	-0.2785	-0.5481	-0.7414	0.1687	-0.3282	-1.0183	-0.8506	-1.2482	-0.8823
-128.9062	-1.2528	-1.3883	-1.2095	-1.1237	-0.5257	-0.8715	-0.5175	-1.0421	-1.0495	-0.6596	-0.6209	-0.4995	-0.4662	-0.3889	-0.4386	-0.519	-0.3814	-0.5767	-0.4106	-0.349	-0.2342	-0.5008	-0.6559	-0.8321	0.1788	-0.2587	-1.031	-0.8387	-1.167	-0.7668
-125	-1.0973	-1.009	-0.9594	-0.8638	-0.4895	-0.6604	-0.4833	-1.0462	-1.0433	-0.6879	-0.7158	-0.4371	-0.3242	-0.2146	-0.2387	-0.2928	-0.2783	-0.5382	-0.4321	-0.2336	-0.1362	-0.6573	-0.7013	-0.8218	0.2243	-0.0926	-0.8974	-0.6725	-0.9917	-0.5886
-121.0938	-0.844	-0.6003	-0.6633	-0.522	-0.3774	-0.3965	-0.3983	-0.9608	-0.9688	-0.6328	-0.7166	-0.2942	-0.1314	-0.0287	-0.043	-0.0353	-0.166	-0.4695	-0.4235	-0.0796	-0.0185	-0.754	-0.694	-0.7444	0.2821	0.1256	-0.6614	-0.4008	-0.7478	-0.3696
-117.1875	-0.5314	-0.2009	-0.3548	-0.1513	-0.2252	-0.1098	-0.2936	-0.7961	-0.8518	-0.5247	-0.6533	-0.1115	0.0673	0.1315	0.121	0.1979	-0.0753	-0.3953	-0.4018	0.061	0.0843	-0.8014	-0.6471	-0.6377	0.3292	0.3427	-0.3783	-0.0862	-0.4663	-0.1338
-113.2812	-0.2069	0.1531	-0.0631	0.1946	-0.0698	0.1675	-0.1982	-0.5731	-0.7154	-0.3966	-0.5557	0.0722	0.2304	0.238	0.2318	0.3574	-0.0326	-0.3349	-0.3818	0.1425	0.1452	-0.8114	-0.5758	-0.5352	0.3478	0.5107	-0.104	0.2092	-0.1801	0.0953
-109.375	0.0812	0.4306	0.1898	0.4689	0.0578	0.4053	-0.134	-0.3208	-0.5783	-0.2791	-0.4489	0.2256	0.3272	0.2768	0.2788	0.408	-0.0553	-0.2985	-0.3736	0.1331	0.1492	-0.7943	-0.495	-0.4599	0.3295	0.597	0.1157	0.4369	0.0804	0.297
-105.4688	0.2922	0.6086	0.391	0.6383	0.1372	0.5804	-0.1127	-0.0735	-0.4549	-0.197	-0.3523	0.3279	0.3425	0.2498	0.2641	0.3358	-0.1473	-0.2855	-0.3808	0.0206	0.0962	-0.7559	-0.4177	-0.4212	0.2758	0.5909	0.2515	0.5682	0.2907	0.4565
-101.5625	0.4024	0.6759	0.5364	0.688	0.1625	0.6812	-0.1344	0.1349	-0.3556	-0.1662	-0.2798	0.3691	0.279	0.1741	0.2014	0.1507	-0.2975	-0.2861	-0.4001	-0.1849	0.0012	-0.6961	-0.351	-0.4149	0.1961	0.5023	0.2942	0.5965	0.435	0.5655
-97.6562	0.4097	0.6367	0.6295	0.6241	0.1423	0.7113	-0.1879	0.2777	-0.2871	-0.1911	-0.2398	0.3486	0.1557	0.0781	0.1117	-0.1141	-0.4802	-0.2841	-0.421	-0.4525	-0.1082	-0.6088	-0.2951	-0.4263	0.104	0.3565	0.2532	0.5334	0.5084	0.6242
-93.75	0.3356	0.5124	0.6792	0.4714	0.0977	0.689	-0.2529	0.3415	-0.2503	-0.2635	-0.2338	0.2748	0.0036	-0.0053	0.02	-0.4084	-0.6591	-0.261	-0.4283	-0.736	-0.1977	-0.4841	-0.2426	-0.4344	0.0131	0.1844	0.1523	0.4024	0.518	0.6406
-89.8438	0.2202	0.3401	0.6973	0.2679	0.0561	0.642	-0.3043	0.3293	-0.2405	-0.3627	-0.2553	0.163	-0.1404	-0.0459	-0.0491	-0.6743	-0.7936	-0.2	-0.405	-0.9833	-0.234	-0.3121	-0.1809	-0.4178	-0.0665	0.0148	0.0228	0.2321	0.4813	0.6292
-85.9375	0.1125	0.1671	0.6953	0.0552	0.0434	0.5977	-0.3179	0.2598	-0.2472	-0.4605	-0.2911	0.0335	-0.2421	-0.0239	-0.0735	-0.8587	-0.8475	-0.0901	-0.3378	-1.1483	-0.1941	-0.0883	-0.0969	-0.3595	-0.1295	-0.1319	-0.1034	0.05	0.4232	0.6081
-82.0312	0.0568	0.041	0.681	-0.1312	0.076	0.5742	-0.2769	0.1603	-0.2581	-0.5275	-0.3244	-0.0922	-0.2775	0.0652	-0.0365	-0.9253	-0.7978	0.0709	-0.2214	-1.2011	-0.0728	0.1819	0.0176	-0.2515	-0.1751	-0.2445	-0.2	-0.1208	0.3689	0.5939
-78.125	0.0806	-0.0012	0.6566	-0.2698	0.1546	0.5734	-0.1762	0.0595	-0.2616	-0.5398	-0.3391	-0.1951	-0.2378	0.2092	0.0695	-0.8634	-0.6416	0.2739	-0.0631	-1.1362	0.1142	0.4794	0.1618	-0.0968	-0.2052	-0.3188	-0.2499	-0.2632	0.3378	0.5974
-74.2188	0.187	0.0578	0.6184	-0.3561	0.2635	0.5818	-0.0244	-0.02	-0.2495	-0.4848	-0.3236	-0.2619	-0.1306	0.3823	0.2403	-0.6911	-0.3985	0.4988	0.1168	-0.9732	0.3321	0.7726	0.3241	0.0907	-0.2227	-0.3546	-0.2462	-0.3659	0.3383	0.6198
-70.3125	0.3529	0.2113	0.5592	-0.4017	0.3734	0.5749	0.1589	-0.0653	-0.216	-0.3626	-0.2719	-0.2857	0.0224	0.5513	0.4577	-0.4517	-0.1084	0.7162	0.2874	-0.7533	0.5342	1.0213	0.4833	0.2892	-0.2297	-0.3527	-0.1921	-0.4234	0.3653	0.6512
-66.4062	0.5346	0.4298	0.4711	-0.4286	0.4481	0.5264	0.3472	-0.0739	-0.1569	-0.1854	-0.1824	-0.2658	0.1911	0.6829	0.6903	-0.2041	0.1764	0.8916	0.4122	-0.5298	0.6713	1.1836	0.6132	0.4729	-0.2277	-0.3148	-0.0991	-0.4346	0.4015	0.6719
-62.5	0.677	0.6667	0.3479	-0.4634	0.4523	0.4151	0.513	-0.0513	-0.068	0.0257	-0.0576	-0.2072	0.3421	0.7489	0.8968	-0.0114	0.4005	0.9904	0.4564	-0.3584	0.7016	1.2233	0.6861	0.6156	-0.2181	-0.2443	0.0147	-0.4029	0.421	0.6555
-58.5938	0.7253	0.8677	0.1866	-0.5311	0.3587	0.2306	0.6314	-0.0074	0.0538	0.2445	0.0969	-0.1191	0.4448	0.7301	1.0321	0.072	0.5166	0.9835	0.3938	-0.2868	0.5976	1.1168	0.6778	0.6946	-0.2033	-0.1492	0.1271	-0.336	0.3956	0.5748
-54.6875	0.6372	0.982	-0.0122	-0.6499	0.1535	-0.0251	0.6844	0.0475	0.2085	0.4437	0.2714	-0.0144	0.475	0.6177	1.0558	0.0101	0.4947	0.8545	0.213	-0.3472	0.35	0.8585	0.5724	0.6931	-0.1865	-0.0422	0.2155	-0.2453	0.302	0.4096
-50.7812	0.3919	0.9724	-0.2443	-0.8279	-0.1614	-0.338	0.6623	0.105	0.3902	0.5989	0.4515	0.0918	0.419	0.4137	0.9412	-0.208	0.3289	0.6042	-0.0787	-0.5506	-0.0314	0.4639	0.3673	0.6042	-0.1714	0.0604	0.2612	-0.145	0.1285	0.1533
-46.875	-0.0046	0.8231	-0.5007	-1.0609	-0.5676	-0.6848	0.5655	0.1604	0.586	0.6922	0.6191	0.1838	0.2756	0.1314	0.6823	-0.5664	0.0396	0.2532	-0.454	-0.8854	-0.5184	-0.0311	0.0765	0.4323	-0.1607	0.1421	0.2551	-0.0498	-0.1202	-0.1821
-42.9688	-0.5201	0.5431	-0.7685	-1.3332	-1.0329	-1.0362	0.4042	0.2121	0.7768	0.715	0.7538	0.2482	0.0568	-0.2052	0.298	-1.0253	-0.3307	-0.1595	-0.8692	-1.319	-1.068	-0.5733	-0.2685	0.1944	-0.1549	0.1912	0.2001	0.0271	-0.4225	-0.5666
-39.0625	-1.1013	0.1642	-1.0323	-1.6198	-1.5159	-1.3612	0.1965	0.2614	0.9405	0.6679	0.8365	0.2754	-0.2139	-0.5638	-0.1692	-1.5288	-0.7259	-0.5831	-1.2718	-1.8034	-1.6275	-1.1009	-0.6234	-0.082	-0.1522	0.2035	0.1114	0.0766	-0.7446	-0.9575
-35.1562	-1.6841	-0.2655	-1.2766	-1.8911	-1.9734	-1.6318	-0.0347	0.3114	1.0561	0.5597	0.8529	0.2613	-0.5059	-0.9079	-0.6599	-2.0155	-1.0881	-0.9655	-1.6108	-2.285	-2.1428	-1.554	-0.9408	-0.3634	-0.1487	0.1842	0.0124	0.0951	-1.0484	-1.3087
-31.25	-2.2053	-0.6919	-1.4889	-2.1194	-2.3685	-1.8278	-0.2675	0.3647	1.1065	0.4029	0.7958	0.2066	-0.7884	-1.2045	-1.1097	-2.4301	-1.3709	-1.2639	-1.8483	-2.7141	-2.5672	-1.8868	-1.1817	-0.6174	-0.1404	0.1453	-0.072	0.0834	-1.3003	-1.5818
-27.3438	-2.6147	-1.0652	-1.6617	-2.2845	-2.6779	-1.9411	-0.4855	0.421	1.0809	0.209	0.6643	0.1145	-1.0381	-1.431	-1.4626	-2.7336	-1.5482	-1.4549	-1.968	-3.0546	-2.8705	-2.0775	-1.3278	-0.8195	-0.1234	0.1012	-0.1232	0.0455	-1.4787	-1.7536
-23.4375	-2.8824	-1.3487	-1.7938	-2.3795	-2.8958	-1.9775	-0.6819	0.4737	0.9749	-0.0158	0.4625	-0.0125	-1.2447	-1.5811	-1.6837	-2.9098	-1.6187	-1.5385	-1.98	-3.2895	-3.0447	-2.1343	-1.3878	-0.959	-0.0961	0.0636	-0.1356	-0.0153	-1.5785	-1.8206
-19.5312	-3.0027	-1.5243	-1.8892	-2.4116	-3.0334	-1.956	-0.8601	0.5091	0.7904	-0.2714	0.1976	-0.1743	-1.4136	-1.6669	-1.7654	-2.9659	-1.6033	-1.5371	-1.9182	-3.422	-3.1052	-2.0938	-1.3969	-1.0413	-0.0601	0.0369	-0.1185	-0.098	-1.6098	-1.7979
-15.625	-2.9911	-1.5926	-1.9561	-2.4009	-3.1138	-1.9057	-1.0309	0.507	0.5356	-0.562	-0.1203	-0.3732	-1.5637	-1.7152	-1.727	-2.9285	-1.5379	-1.4886	-1.8324	-3.4713	-3.086	-2.0135	-1.4088	-1.0864	-0.0207	0.0169	-0.0946	-0.2048	-1.5949	-1.7138
-11.7188	-2.8774	-1.569	-2.0044	-2.373	-3.1636	-1.8596	-1.2069	0.4458	0.2257	-0.8902	-0.4765	-0.6105	-1.7208	-1.7599	-1.6061	-2.8343	-1.4622	-1.4361	-1.7758	-3.4642	-3.0306	-1.9579	-1.4799	-1.1226	0.0134	-0.0072	-0.0928	-0.3392	-1.5609	-1.6032
-7.8125	-2.6958	-1.4766	-2.042	-2.3507	-3.2043	-1.847	-1.3955	0.3101	-0.1157	-1.2498	-0.8487	-0.8819	-1.9079	-1.8309	-1.4461	-2.719	-1.4089	-1.4173	-1.7915	-3.426	-2.9793	-1.9823	-1.6527	-1.1782	0.0323	-0.0483	-0.1391	-0.5024	-1.5327	-1.4989
-3.9062	-2.4756	-1.3372	-2.0709	-2.3452	-3.2451	-1.8855	-1.5924	0.0984	-0.4555	-1.6211	-1.2053	-1.173	-2.1356	-1.9442	-1.2824	-2.6072	-1.3945	-1.4556	-1.9005	-3.3713	-2.9583	-2.1178	-1.9408	-1.2724	0.0268	-0.116	-0.2477	-0.6903	-1.5257	-1.4245
0	-2.2334	-1.1649	-2.0841	-2.3508	-3.2797	-1.9749	-1.7796	-0.1705	-0.7525	-1.9688	-1.5063	-1.4577	-2.3962	-2.0957	-1.1331	-2.5055	-1.4154	-1.5545	-2.0949	-3.2999	-2.9724	-2.3617	-2.3217	-1.4087	-0.0089	-0.2133	-0.4156	-0.8913	-1.5408	-1.3893
3.9062	-1.9708	-0.9626	-2.0649	-2.3454	-3.2878	-2.0964	-1.9264	-0.457	-0.9618	-2.2465	-1.7086	-1.701	-2.6623	-2.2622	-0.9948	-2.4022	-1.4492	-1.6979	-2.3395	-3.1976	-3.0047	-2.677	-2.7408	-1.5732	-0.0773	-0.3367	-0.6235	-1.0873	-1.5635	-1.3866
7.8125	-1.6781	-0.7232	-1.9905	-2.2972	-3.2415	-2.2157	-1.9967	-0.7061	-1.0434	-2.4056	-1.7735	-1.8652	-2.8927	-2.4072	-0.8477	-2.2722	-1.4617	-1.8548	-2.5792	-3.042	-3.0219	-3.0005	-3.1235	-1.7385	-0.1779	-0.4779	-0.8409	-1.2575	-1.5673	-1.3965
11.7188	-1.3415	-0.4357	-1.8388	-2.1736	-3.1135	-2.2918	-1.9574	-0.8597	-0.9705	-2.4057	-1.6751	-1.918	-3.0417	-2.4918	-0.6647	-2.0868	-1.4171	-1.9879	-2.7527	-2.8117	-2.9856	-3.2573	-3.3936	-1.8706	-0.3086	-0.6271	-1.0344	-1.3815	-1.5222	-1.393
15.625	-0.9531	-0.0916	-1.5973	-1.9522	-2.8853	-2.2873	-1.7881	-0.8724	-0.7376	-2.2254	-1.4072	-1.8396	-3.0703	-2.4845	-0.4234	-1.8241	-1.2885	-2.0626	-2.8063	-2.4951	-2.8635	-3.3788	-3.4924	-1.9374	-0.4654	-0.7745	-1.1759	-1.4431	-1.4048	-1.352
19.5312	-0.5182	0.3087	-1.2706	-1.6287	-2.5525	-2.1779	-1.4877	-0.725	-0.3641	-1.8685	-0.9862	-1.6282	-2.9559	-2.37	-0.1152	-1.4769	-1.0652	-2.0548	-2.707	-2.0965	-2.6393	-3.3186	-3.393	-1.9172	-0.6419	-0.9113	-1.2472	-1.4326	-1.2063	-1.2588
23.4375	-0.0582	0.7519	-0.8831	-1.2199	-2.1268	-1.9587	-1.0777	-0.4325	0.1062	-1.3671	-0.4526	-1.3024	-2.6984	-2.1532	0.2517	-1.0576	-0.7551	-1.9547	-2.4497	-1.6385	-2.3182	-3.063	-3.107	-1.8035	-0.8291	-1.0293	-1.2433	-1.349	-0.9377	-1.1129
27.3438	0.392	1.2122	-0.4759	-0.7618	-1.6349	-1.6463	-0.5999	-0.0433	0.6099	-0.7782	0.1328	-0.9008	-2.3222	-1.8584	0.6534	-0.5964	-0.3833	-1.7676	-2.058	-1.1584	-1.9267	-2.6342	-2.6815	-1.6079	-1.015	-1.1214	-1.1711	-1.2011	-0.628	-0.9273
31.25	0.7914	1.6548	-0.0993	-0.3022	-1.1155	-1.2757	-0.1102	0.3705	1.0735	-0.1766	0.6953	-0.4775	-1.8721	-1.5252	1.0567	-0.1364	0.0143	-1.5114	-1.5789	-0.7011	-1.5084	-2.0849	-2.1875	-1.3578	-1.1863	-1.1812	-1.0466	-1.0069	-0.3181	-0.7246
35.1562	1.1025	2.0426	0.199	0.1093	-0.613	-0.8929	0.3313	0.729	1.4258	0.3581	1.1569	-0.0939	-1.4062	-1.2005	1.4269	0.2758	0.3985	-1.2129	-1.0726	-0.31	-1.1147	-1.488	-1.7035	-1.0904	-1.33	-1.2036	-0.8897	-0.7915	-0.05	-0.5305
39.0625	1.3005	2.3439	0.3845	0.4314	-0.1714	-0.545	0.6716	0.9626	1.6118	0.7553	1.4512	0.1933	-0.9846	-0.9303	1.7339	0.6002	0.734	-0.9023	-0.601	-0.0183	-0.7949	-0.9226	-1.2995	-0.845	-1.4345	-1.1842	-0.7188	-0.5817	0.1428	-0.3662
42.9688	1.3783	2.5389	0.4444	0.6382	0.1726	-0.2707	0.8751	1.0281	1.6052	0.9675	1.5366	0.3442	-0.6587	-0.7516	1.9578	0.8107	0.9945	-0.609	-0.2174	0.1568	-0.5869	-0.4612	-1.0255	-0.6548	-1.4898	-1.1182	-0.546	-0.3995	0.2435	-0.2438
46.875	1.3462	2.6228	0.3881	0.7202	0.3948	-0.0936	0.9296	0.9182	1.4155	0.9795	1.4077	0.3444	-0.4626	-0.6869	2.0895	0.8982	1.1636	-0.3589	0.0399	0.214	-0.5113	-0.1594	-0.9063	-0.5404	-1.4875	-0.9986	-0.3749	-0.256	0.2524	-0.1662
50.7812	1.2266	2.6041	0.2431	0.6819	0.4853	-0.0212	0.8473	0.6626	1.0878	0.8113	1.0978	0.2087	-0.4086	-0.7428	2.1294	0.8695	1.2335	-0.1727	0.15	0.1641	-0.5711	-0.0503	-0.942	-0.5068	-1.4203	-0.8142	-0.2003	-0.1465	0.1827	-0.1312
54.6875	1.0461	2.4989	0.0441	0.5356	0.4476	-0.0479	0.6598	0.3194	0.6947	0.5125	0.6732	-0.0228	-0.4888	-0.9112	2.083	0.7404	1.2017	-0.0669	0.1085	0.024	-0.7541	-0.1426	-1.1119	-0.5447	-1.2832	-0.5521	-0.0116	-0.0526	0.0513	-0.1378
58.5938	0.8269	2.3238	-0.1764	0.2967	0.2959	-0.1601	0.4097	-0.0387	0.3224	0.1511	0.2202	-0.2959	-0.6809	-1.1741	1.956	0.5301	1.0692	-0.0541	-0.0757	-0.1901	-1.0388	-0.4221	-1.3815	-0.6355	-1.0759	-0.2021	0.2013	0.051	-0.128	-0.1915
62.5	0.5819	2.0917	-0.3956	-0.0193	0.0511	-0.3411	0.1407	-0.3393	0.0531	-0.2009	-0.1739	-0.5552	-0.9555	-1.5077	1.7516	0.2559	0.8401	-0.1425	-0.3822	-0.4641	-1.399	-0.8556	-1.7086	-0.7578	-0.8067	0.2355	0.4411	0.1866	-0.3478	-0.3044
66.4062	0.3146	1.8111	-0.6028	-0.3956	-0.2606	-0.5732	-0.1092	-0.5236	-0.0508	-0.4814	-0.4379	-0.7572	-1.2828	-1.8856	1.4703	-0.0673	0.5243	-0.3333	-0.7819	-0.7858	-1.8067	-1.3951	-2.0504	-0.8927	-0.4944	0.744	0.6989	0.3629	-0.6053	-0.4894
70.3125	0.023	1.4896	-0.7972	-0.8111	-0.6091	-0.838	-0.3121	-0.5546	0.0413	-0.648	-0.5308	-0.8783	-1.6356	-2.2801	1.1143	-0.425	0.1407	-0.6173	-1.2368	-1.1405	-2.2322	-1.9835	-2.3684	-1.0267	-0.1686	1.2863	0.9523	0.5698	-0.8967	-0.753
74.2188	-0.2935	1.1396	-0.983	-1.2374	-0.9607	-1.1149	-0.4504	-0.4221	0.3227	-0.6832	-0.448	-0.9167	-1.9893	-2.6608	0.6932	-0.7989	-0.2809	-0.9723	-1.7027	-1.5075	-2.6431	-2.5601	-2.6319	-1.1514	0.1341	1.8076	1.1692	0.7793	-1.2129	-1.0879
78.125	-0.6276	0.7823	-1.1632	-1.6383	-1.2801	-1.3809	-0.5155	-0.1423	0.7512	-0.5948	-0.2198	-0.8886	-2.3207	-2.995	0.2293	-1.1645	-0.6999	-1.3636	-2.1318	-1.8575	-3.0036	-3.0657	-2.8182	-1.2617	0.375	2.2424	1.313	0.9511	-1.5369	-1.471
82.0312	-0.9607	0.4488	-1.3348	-1.9721	-1.5324	-1.6116	-0.506	0.2452	1.2577	-0.4103	0.0983	-0.8211	-2.6051	-3.2474	-0.2393	-1.4908	-1.0683	-1.7459	-2.4769	-2.1548	-3.2766	-3.4488	-2.9126	-1.3535	0.5204	2.5241	1.3502	1.0424	-1.8442	-1.8649
85.9375	-1.2627	0.1772	-1.486	-2.1971	-1.688	-1.7838	-0.4256	0.6827	1.7601	-0.17	0.4391	-0.7427	-2.8155	-3.3831	-0.6605	-1.7425	-1.3365	-2.0683	-2.6968	-2.3607	-3.4263	-3.669	-2.9059	-1.4221	0.5468	2.5962	1.2566	1.0175	-2.1054	-2.2239
89.8438	-1.497	0.0064	-1.5965	-2.2786	-1.7261	-1.8788	-0.2824	1.1019	2.1778	0.0829	0.7389	-0.6763	-2.924	-3.3715	-0.9747	-1.8855	-1.4603	-2.2816	-2.7606	-2.4402	-3.4235	-3.6999	-2.7927	-1.461	0.4448	2.422	1.0215	0.855	-2.2899	-2.5006
93.75	-1.6268	-0.0299	-1.641	-2.1943	-1.6384	-1.885	-0.0874	1.4329	2.4445	0.3097	0.9488	-0.635	-2.904	-3.1904	-1.1243	-1.8921	-1.4078	-2.3446	-2.6515	-2.3684	-3.249	-3.5311	-2.57	-1.4627	0.2197	1.9906	0.6497	0.5517	-2.3696	-2.6526
97.6562	-1.6211	0.0917	-1.5935	-1.9378	-1.4289	-1.7988	0.1466	1.6136	2.5165	0.4826	1.0405	-0.6214	-2.7341	-2.83	-1.0642	-1.7456	-1.1636	-2.2293	-2.3673	-2.1342	-2.8972	-3.1677	-2.2378	-1.4202	-0.1109	1.3191	0.1616	0.1218	-2.3214	-2.6465
101.5625	-1.4594	0.3823	-1.4323	-1.5172	-1.1111	-1.6214	0.407	1.6001	2.3753	0.5883	1.0076	-0.6302	-2.4014	-2.2942	-0.7696	-1.4413	-0.7311	-1.9232	-1.9208	-1.7421	-2.3753	-2.6296	-1.7999	-1.3279	-0.5214	0.4497	-0.4092	-0.4057	-2.1282	-2.4604
105.4688	-1.1326	0.8412	-1.142	-0.9521	-0.7024	-1.3559	0.6842	1.3755	2.0275	0.6282	0.8628	-0.6503	-1.9046	-1.6005	-0.2402	-0.9857	-0.13	-1.4285	-1.3366	-1.2095	-1.7021	-1.9496	-1.2662	-1.1836	-0.9827	-0.5555	-1.0183	-0.991	-1.7797	-2.0833
109.375	-0.643	1.4568	-0.7168	-0.2689	-0.2196	-1.0035	0.9727	0.9536	1.5016	0.6171	0.6341	-0.667	-1.2557	-0.7784	0.4993	-0.3943	0.6072	-0.7607	-0.6492	-0.5635	-0.9055	-1.1711	-0.6556	-0.9895	-1.467	-1.6225	-1.6153	-1.5875	-1.2722	-1.5157
113.2812	-0.0036	2.2066	-0.1614	0.5002	0.3233	-0.5643	1.2703	0.3777	0.8417	0.5778	0.3586	-0.6646	-0.4815	0.1319	1.4024	0.3096	1.439	0.053	0.0997	0.1628	-0.0213	-0.345	0.0019	-0.7536	-1.9498	-2.6739	-2.1493	-2.1455	-0.6116	-0.7703
117.1875	0.761	3.0567	0.507	1.318	0.9121	-0.0428	1.5736	-0.2891	0.0998	0.5329	0.0747	-0.6299	0.3758	1.0804	2.4055	1.0944	2.319	0.9738	0.8629	0.9316	0.9068	0.4726	0.6641	-0.4909	-2.4114	-3.6375	-2.5761	-2.6187	0.1843	0.1264
121.0938	1.6148	3.9603	1.2574	2.1403	1.5274	0.5457	1.8735	-0.977	-0.6737	0.4968	-0.1876	-0.5576	1.2595	2.0092	3.4356	1.9196	3.1981	1.9518	1.5905	1.7018	1.8272	1.2244	1.2788	-0.2234	-2.8366	-4.4539	-2.8653	-2.9702	1.0827	1.1332
125	2.5109	4.8597	2.0452	2.9161	2.1401	1.1689	2.1511	-1.6242	-1.4374	0.4707	-0.4133	-0.4533	2.1025	2.8554	4.4194	2.7365	4.028	2.9285	2.2332	2.4291	2.6822	1.8565	1.7899	0.0212	-3.2131	-5.0812	-3.0039	-3.1775	2.0356	2.1949
128.9062	3.3946	5.6902	2.8147	3.5907	2.7101	1.7773	2.379	-2.186	-2.1618	0.442	-0.6042	-0.3334	2.8347	3.557	5.2922	3.4907	4.7639	3.8411	2.7477	3.0686	3.412	2.3251	2.1484	0.2145	-3.5293	-5.4949	-2.9961	-3.2343	2.9826	3.2468
132.8125	4.2076	6.3871	3.5049	4.1106	3.1894	2.3095	2.5259	-2.6381	-2.8267	0.3904	-0.7744	-0.2209	3.3921	4.0595	6.0036	4.1273	5.3673	4.6289	3.1021	3.5776	3.9617	2.6017	2.3232	0.3319	-3.7719	-5.6867	-2.8608	-3.1489	3.857	4.2208
136.7188	4.8927	6.8942	4.057	4.4306	3.5283	2.7031	2.5641	-2.9749	-3.4172	0.2949	-0.9425	-0.1385	3.7248	4.3225	6.5213	4.5969	5.8086	5.2393	3.2796	3.9195	4.2873	2.6764	2.3083	0.3569	-3.9266	-5.6615	-2.6261	-2.9411	4.5943	5.0531
140.625	5.4006	7.171	4.4231	4.5202	3.6829	2.9068	2.475	-3.2037	-3.9178	0.1407	-1.1227	-0.104	3.8017	4.3227	6.8311	4.8611	6.0688	5.6332	3.2792	4.0669	4.361	2.5578	2.1242	0.2833	-3.9801	-5.4358	-2.3261	-2.6394	5.1395	5.6896
144.5312	5.6964	7.1981	4.573	4.3684	3.6225	2.8897	2.2536	-3.3396	-4.3102	-0.0769	-1.3196	-0.1267	3.6122	4.0561	6.9357	4.8979	6.1407	5.7892	3.1145	4.0046	4.1734	2.2692	1.8122	0.1139	-3.9243	-5.0362	-1.9973	-2.2774	5.4543	6.0919
148.4375	5.765	6.9797	4.4981	3.986	3.3349	2.647	1.9089	-3.3997	-4.5726	-0.352	-1.526	-0.2068	3.1649	3.5364	6.8527	4.7043	6.0298	5.7055	2.8096	3.7316	3.7336	1.8437	1.4247	-0.1412	-3.7596	-4.4976	-1.6752	-1.8906	5.5223	6.2403
152.3438	5.6131	6.5422	4.2117	3.4054	2.8313	2.2005	1.4628	-3.3976	-4.6833	-0.6706	-1.7249	-0.3365	2.4857	2.7936	6.6118	4.2978	5.7538	5.4009	2.3948	3.2622	3.0683	1.3191	1.0141	-0.4668	-3.4952	-3.8592	-1.3901	-1.5114	5.3513	6.1363
156.25	5.2669	5.929	3.7452	2.6762	2.1464	1.5959	0.9473	-3.3396	-4.6243	-1.0127	-1.8929	-0.5015	1.6148	1.8718	6.25	3.7137	5.3415	4.9131	1.9022	2.6256	2.2184	0.7326	0.622	-0.8433	-3.1471	-3.159	-1.1628	-1.165	4.9728	5.8039
160.1562	4.7661	5.1935	3.1427	1.8584	1.3357	0.8964	0.4011	-3.2224	-4.3874	-1.3557	-2.0067	-0.6839	0.6041	0.8256	5.8069	3.0007	4.829	4.2951	1.3609	1.8636	1.2357	0.117	0.2736	-1.2477	-2.7345	-2.429	-1.0005	-0.865	4.4382	5.2868
164.0625	4.1563	4.3901	2.4533	1.0137	0.4684	0.1737	-0.1341	-3.0344	-3.9787	-1.6777	-2.0485	-0.8656	-0.4872	-0.2842	5.3189	2.2133	4.2547	3.608	0.7945	1.0261	0.1777	-0.5017	-0.0251	-1.6544	-2.2764	-1.6929	-0.8968	-0.6139	3.8115	4.6441
167.9688	3.4827	3.5664	1.7245	0.1962	-0.383	-0.5021	-0.6189	-2.7615	-3.4212	-1.9599	-2.012	-1.032	-1.5969	-1.3963	4.8155	1.4035	3.6532	2.9131	0.2191	0.1652	-0.8983	-1.106	-0.2835	-2.0369	-1.789	-0.9661	-0.8336	-0.4053	3.1588	3.9422
171.875	2.7857	2.7591	0.9963	-0.5537	-1.1546	-1.0735	-1.0208	-2.3949	-2.755	-2.1894	-1.9053	-1.1761	-2.667	-2.4548	4.3173	0.6135	3.0507	2.2629	-0.3562	-0.6706	-1.94	-1.6859	-0.5208	-2.3709	-1.2863	-0.2595	-0.7871	-0.2299	2.5391	3.245
175.7812	2.0991	1.9912	0.2988	-1.2132	-1.8013	-1.5054	-1.3187	-1.9395	-2.0328	-2.3602	-1.7512	-1.3003	-3.6492	-3.4159	3.8366	-0.129	2.4617	1.6943	-0.9278	-1.4428	-2.9059	-2.2374	-0.7574	-2.6375	-0.7826	0.415	-0.7351	-0.0815	1.9953	2.6047
179.6875	1.4515	1.2743	-0.3483	-1.7779	-2.3037	-1.7901	-1.5066	-1.4184	-1.3139	-2.4742	-1.5838	-1.4168	-4.5102	-4.2512	3.3797	-0.8124	1.8891	1.2248	-1.4951	-2.1263	-3.7676	-2.7589	-1.009	-2.8264	-0.2957	1.0403	-0.6631	0.0386	1.5505	2.0552
183.5938	0.867	0.6115	-0.933	-2.2588	-2.6689	-1.9481	-1.5944	-0.8719	-0.6555	-2.5402	-1.4424	-1.5441	-5.2331	-4.9493	2.9496	-1.4378	1.3279	0.8527	-2.0571	-2.7121	-4.5114	-3.2487	-1.2816	-2.9366	0.1516	1.5917	-0.5682	0.1211	1.2084	1.6094
187.5	0.367	0.0027	-1.4468	-2.6767	-2.9259	-2.021	-1.606	-0.3504	-0.1061	-2.5714	-1.3636	-1.702	-5.8165	-5.5136	2.5486	-2.0133	0.7702	0.561	-2.6094	-3.2054	-5.1362	-3.7021	-1.5717	-2.9761	0.5318	2.0388	-0.4587	0.1515	0.9573	1.262
191.4062	-0.0298	-0.551	-1.8802	-3.0549	-3.1158	-2.0599	-1.5725	0.0956	0.3018	-2.5817	-1.3732	-1.9055	-6.2684	-5.9559	2.1807	-2.5464	0.2115	0.324	-3.1425	-3.6218	-5.649	-4.1101	-1.8679	-2.959	0.8163	2.3505	-0.3506	0.1154	0.7786	0.996
195.3125	-0.3068	-1.0422	-2.219	-3.4099	-3.278	-2.1099	-1.5243	0.4284	0.5555	-2.5807	-1.4783	-2.1578	-6.5987	-6.2891	1.8546	-3.0377	-0.3445	0.1156	-3.6405	-3.9805	-6.0584	-4.4583	-2.1541	-2.9	0.9812	2.5013	-0.2618	0.0046	0.6549	0.7919
199.2188	-0.4494	-1.4555	-2.4434	-3.7448	-3.438	-2.197	-1.4808	0.6329	0.6649	-2.5678	-1.662	-2.4458	-6.8107	-6.519	1.5853	-3.4772	-0.8838	-0.0839	-4.0826	-4.2962	-6.368	-4.7286	-2.4117	-2.8107	1.012	2.4779	-0.2056	-0.1784	0.5779	0.6366
203.125	-0.4462	-1.7673	-2.5291	-4.0453	-3.5985	-2.3203	-1.4433	0.7213	0.6611	-2.5295	-1.8831	-2.7391	-6.8959	-6.6392	1.3941	-3.8444	-1.3829	-0.2816	-4.4443	-4.5733	-6.5718	-4.9006	-2.6217	-2.6949	0.9073	2.2838	-0.1856	-0.4181	0.5517	0.5288
207.0312	-0.2905	-1.9505	-2.4528	-4.2828	-3.7374	-2.453	-1.3926	0.7314	0.5915	-2.4393	-2.0826	-2.9928	-6.8327	-6.6297	1.3048	-4.1131	-1.8126	-0.4699	-4.7007	-4.8027	-6.6529	-4.9552	-2.7656	-2.5475	0.6803	1.9412	-0.1934	-0.6863	0.5914	0.4803
210.9375	0.0166	-1.9811	-2.1985	-4.4203	-3.814	-2.5502	-1.2938	0.716	0.5117	-2.2636	-2.1949	-3.1562	-6.5912	-6.4614	1.3374	-4.2592	-2.1441	-0.6282	-4.83	-4.964	-6.5874	-4.8771	-2.826	-2.3564	0.3578	1.4899	-0.2097	-0.9462	0.7179	0.5113
214.8438	0.4637	-1.8468	-1.765	-4.422	-3.7801	-2.5617	-1.1061	0.7293	0.4742	-1.9709	-2.164	-3.1838	-6.1425	-6.1045	1.4996	-4.2689	-2.3559	-0.7288	-4.8172	-5.0319	-6.3524	-4.6583	-2.7877	-2.1064	-0.0239	0.9819	-0.2093	-1.1601	0.948	0.6422
218.75	1.0257	-1.5543	-1.1727	-4.2632	-3.5956	-2.4454	-0.7973	0.8115	0.5169	-1.5433	-1.9577	-3.0481	-5.471	-5.5396	1.7806	-4.1461	-2.44	-0.745	-4.6586	-4.9851	-5.9358	-4.301	-2.6407	-1.7864	-0.4235	0.473	-0.1686	-1.2971	1.2849	0.8835
222.6562	1.6627	-1.1328	-0.4653	-3.9382	-3.2418	-2.1795	-0.3566	0.9769	0.6548	-0.9864	-1.5783	-2.7484	-4.5862	-4.7686	2.1466	-3.9163	-2.4063	-0.6611	-4.365	-4.8166	-5.3458	-3.8201	-2.3848	-1.3957	-0.8017	0.0134	-0.0739	-1.342	1.7109	1.2268
226.5625	2.3199	-0.6339	0.2933	-3.465	-2.7298	-1.7693	0.197	1.2102	0.8753	-0.3338	-1.0643	-2.3143	-3.5289	-3.821	2.5431	-3.6247	-2.2826	-0.479	-3.9637	-4.539	-4.6148	-3.244	-2.0335	-0.9495	-1.1257	-0.3601	0.0733	-1.2983	2.185	1.6412
230.4688	2.9312	-0.1241	1.0275	-2.884	-2.1002	-1.2486	0.8156	1.47	1.1416	0.3554	-0.4834	-1.801	-2.3703	-2.7541	2.9023	-3.3297	-2.11	-0.2195	-3.4961	-4.1857	-3.7979	-2.6131	-1.6154	-0.4784	-1.3728	-0.6271	0.2557	-1.1864	2.6485	2.0772
234.375	3.4268	0.3263	1.6636	-2.2524	-1.4157	-0.6736	1.4305	1.7003	1.4008	1.0066	0.0811	-1.2782	-1.2027	-1.645	3.1568	-3.0906	-1.9341	0.0824	-3.011	-3.8028	-2.9629	-1.9741	-1.171	-0.0236	-1.5313	-0.7836	0.4449	-1.0367	3.0362	2.4772
238.2812	3.7448	0.657	2.1422	-1.6336	-0.7475	-0.112	1.9666	1.8445	1.5971	1.5431	0.5479	-0.8161	-0.1242	-0.5778	3.2556	-2.9546	-1.7933	0.3865	-2.5542	-3.4379	-2.1765	-1.3723	-0.7444	0.3709	-1.5993	-0.8377	0.6085	-0.8817	3.2914	2.79
242.1875	3.8435	0.8297	2.4285	-1.0861	-0.1604	0.3706	2.3578	1.8598	1.6833	1.9005	0.8531	-0.4724	0.7781	0.372	3.1771	-2.9453	-1.709	0.6573	-2.1583	-3.1268	-1.4901	-0.8426	-0.3734	0.6679	-1.5836	-0.8068	0.7168	-0.7494	3.3792	2.9837
246.0938	3.7114	0.8358	2.5173	-0.6527	0.2997	0.7239	2.5597	1.726	1.6311	2.0381	0.9607	-0.2835	1.4417	1.1506	2.9359	-3.0577	-1.6801	0.8727	-1.8358	-2.8842	-0.9291	-0.4044	-0.0805	0.8438	-1.498	-0.714	0.7486	-0.6598	3.2944	3.0533
250	3.3714	0.6969	2.432	-0.3532	0.6139	0.9229	2.558	1.4502	1.4353	1.9455	0.866	-0.2604	1.8388	1.7346	2.5802	-3.259	-1.6838	1.0269	-1.5777	-2.7004	-0.4896	-0.0587	0.1309	0.8933	-1.3617	-0.5856	0.694	-0.6235	3.0605	3.0192
253.9062	2.8778	0.4587	2.2191	-0.182	0.7923	0.9731	2.3706	1.0653	1.1149	1.6447	0.5952	-0.3895	1.979	2.1328	2.1813	-3.4973	-1.6829	1.129	-1.3579	-2.5447	-0.1411	0.2097	0.2747	0.8302	-1.1966	-0.4478	0.5565	-0.6414	2.7227	2.92
257.8125	2.3066	0.1811	1.9383	-0.1096	0.8715	0.9086	2.0455	0.6239	0.7091	1.1879	0.1995	-0.6351	1.9076	2.3826	1.8184	-3.7138	-1.6366	1.1979	-1.1417	-2.3742	0.1639	0.4277	0.3763	0.6862	-1.0241	-0.3226	0.3541	-0.7038	2.3362	2.801
261.7188	1.7417	-0.0746	1.652	-0.0908	0.9068	0.7839	1.6545	0.1883	0.2731	0.652	-0.2521	-0.9443	1.6976	2.5418	1.5616	-3.8553	-1.5119	1.2545	-0.8956	-2.1455	0.478	0.6276	0.4649	0.5068	-0.861	-0.2228	0.1195	-0.7898	1.9542	2.7025
265.625	1.259	-0.2563	1.4125	-0.074	0.9613	0.66	1.2827	-0.1801	-0.1295	0.1295	-0.6808	-1.2524	1.4392	2.6766	1.4585	-3.8863	-1.293	1.3159	-0.5959	-1.8263	0.8466	0.8426	0.5678	0.3471	-0.7152	-0.1478	-0.1001	-0.8668	1.6174	2.6516
269.5312	0.9124	-0.3311	1.2522	-0.0139	1.0942	0.5898	1.0163	-0.4314	-0.4331	-0.2825	-1.0075	-1.4889	1.2258	2.8499	1.526	-3.7953	-0.9852	1.3895	-0.2332	-1.4043	1.2976	1.1012	0.7061	0.2646	-0.583	-0.0812	-0.2477	-0.8925	1.348	2.6567
273.4375	0.7237	-0.2895	1.1766	0.1198	1.3486	0.6055	0.9292	-0.5323	-0.5791	-0.4956	-1.1621	-1.5857	1.1395	3.11	1.7473	-3.5971	-0.615	1.472	0.186	-0.8906	1.8357	1.4238	0.8926	0.3125	-0.449	0.0078	-0.2622	-0.8204	1.146	2.7062
277.3438	0.6773	-0.1473	1.1635	0.3358	1.7434	0.714	1.0719	-0.4691	-0.5237	-0.4428	-1.092	-1.4866	1.2391	3.4835	2.075	-3.3283	-0.2239	1.5499	0.6417	-0.3181	2.4424	1.8201	1.1314	0.5311	-0.289	0.1587	-0.0895	-0.6074	0.9904	2.7703
281.25	0.7235	0.0593	1.1697	0.6212	2.2699	0.8981	1.4643	-0.2449	-0.2448	-0.0882	-0.7701	-1.1569	1.5528	3.972	2.4381	-3.0392	0.1404	1.6036	1.106	0.2668	3.0813	2.2874	1.419	0.9422	-0.075	0.4118	0.3081	-0.2238	0.8438	2.8068
285.1562	0.7888	0.2814	1.1439	0.9474	2.8943	1.1247	2.0949	0.1231	0.2543	0.5678	-0.1983	-0.5905	2.0776	4.5559	2.7541	-2.7808	0.4348	1.6128	1.5499	0.8151	3.708	2.8119	1.7463	1.5459	0.218	0.7972	0.943	0.3383	0.6614	2.7692
289.0625	0.7933	0.4706	1.0419	1.2795	3.5668	1.3561	2.9253	0.6084	0.9463	1.4905	0.5933	0.1877	2.7851	5.2017	2.944	-2.5924	0.631	1.5629	1.95	1.2881	4.2826	3.3707	2.1002	2.3208	0.6048	1.3276	1.7982	1.0619	0.403	2.6188
292.9688	0.6706	0.5914	0.8408	1.5889	4.2333	1.5617	3.8996	1.1801	1.786	2.6187	1.5531	1.1263	3.6317	5.8722	2.9488	-2.49	0.7231	1.4504	2.2945	1.6674	4.7798	3.9369	2.4669	3.229	1.0852	1.9928	2.8289	1.9066	0.0453	2.335
296.875	0.3859	0.6327	0.5469	1.8629	4.8489	1.7278	4.956	1.8072	2.7188	3.876	2.6182	2.1577	4.5698	6.5374	2.7439	-2.4608	0.7301	1.2861	2.586	1.9602	5.1963	4.4852	2.8336	4.2219	1.6419	2.7609	3.9697	2.816	-0.4083	1.9239
300.7812	-0.0531	0.6124	0.1962	2.1099	5.3865	1.861	6.0358	2.4633	3.6892	5.1837	3.7251	3.2107	5.5572	7.1807	2.3475	-2.4633	0.6931	1.0948	2.8408	2.1975	5.5514	4.9973	3.1911	5.2473	2.2427	3.5829	5.144	3.7277	-0.9254	1.4198
304.6875	-0.5956	0.5739	-0.1536	2.3565	5.8406	1.9857	7.0892	3.1276	4.6461	6.468	4.8156	4.2206	6.5605	7.8011	1.8189	-2.4361	0.667	0.9113	3.0848	2.4266	5.8813	5.465	3.5341	6.2541	2.8442	4.3994	6.2739	4.5828	-1.4502	0.8794
308.5938	-1.1594	0.5746	-0.4374	2.6381	6.2231	2.1346	8.0755	3.7825	5.5435	7.6643	5.8375	5.1344	7.5536	8.4073	1.2477	-2.3125	0.707	0.7726	3.3452	2.6977	6.228	5.889	3.8604	7.1946	3.3979	5.1485	7.2882	5.3313	-1.9169	0.3687
312.5	-1.65	0.6697	-0.5993	2.9857	6.5528	2.336	8.9594	4.4077	6.3384	8.7154	6.7414	5.9105	8.5116	9.0087	0.7338	-2.0375	0.8552	0.7079	3.6417	3.0504	6.6251	6.2747	4.1672	8.0245	3.8565	5.7717	8.1263	5.9354	-2.2678	-0.0543
316.4062	-1.9835	0.8971	-0.6067	3.4139	6.8455	2.6019	9.7069	4.9762	6.9891	9.5703	7.4774	6.5158	9.4046	9.6065	0.3656	-1.582	1.1299	0.7308	3.979	3.5042	7.088	6.6256	4.4468	8.7028	4.1801	6.2204	8.7408	6.368	-2.4695	-0.354
320.3125	-2.1064	1.2692	-0.4569	3.9153	7.1065	2.9235	10.284	5.4528	7.4569	10.1841	7.9957	6.9228	10.1958	10.1884	0.1996	-0.9497	1.5218	0.8354	4.3448	4.0552	7.609	6.9385	4.6841	9.1935	4.3419	6.4603	9.0985	6.6116	-2.5222	-0.526
324.2188	-2.0049	1.7733	-0.1749	4.4627	7.3312	3.274	10.6602	5.8001	7.7114	10.5222	8.253	7.1098	10.8443	10.7308	0.25	-0.1734	1.9988	0.9992	4.7146	4.6831	8.1625	7.2033	4.8591	9.4699	4.3331	6.4754	9.1828	6.656	-2.4579	-0.5949
328.125	-1.704	2.3809	0.197	5.019	7.5124	3.6188	10.8158	5.989	7.7384	10.5672	8.2219	7.063	11.3129	11.2067	0.4899	0.6968	2.5178	1.1912	5.0611	5.3617	8.7155	7.4076	4.9544	9.5216	4.1646	6.2711	8.9961	6.4982	-2.3288	-0.6026
332.0312	-1.2546	3.0597	0.6132	5.5499	7.6505	3.9295	10.7501	6.0099	7.5464	10.3258	7.9008	6.7823	11.5783	11.5963	0.8632	1.6092	3.0394	1.3836	5.3663	6.0712	9.2415	7.5448	4.9653	9.3603	3.8683	5.8747	8.5629	6.1441	-2.1893	-0.5916
335.9375	-0.7167	3.784	1.0374	6.0346	7.7616	4.1946	10.4875	5.8803	7.1698	9.833	7.3204	6.2857	11.6396	11.8954	1.3033	2.5241	3.5406	1.5623	5.63	6.8044	9.7298	7.6216	4.908	9.0234	3.4936	5.3354	7.931	5.6127	-2.0789	-0.5889
339.8438	-0.1446	4.5382	1.4473	6.4701	7.878	4.4233	10.0771	5.644	6.6659	9.1513	6.5435	5.6126	11.5205	12.1171	1.7497	3.4194	4.0185	1.7307	5.8705	7.5651	10.1883	7.6601	4.8205	8.5717	3.1017	4.7195	7.1702	4.9395	-2.0122	-0.5974
343.75	0.4207	5.3129	1.8334	6.8675	8.0385	4.6395	9.5855	5.3623	6.1067	8.3628	5.6589	4.8229	11.266	12.286	2.1579	4.2872	4.4861	1.9062	6.1183	8.3588	10.6361	7.693	4.7552	8.0798	2.7557	4.1026	6.3646	4.1772	-1.9791	-0.5984
347.6562	0.9509	6.0969	2.1919	7.2431	8.2746	4.8701	9.0857	5.0998	5.5681	7.5587	4.7685	3.9921	10.9324	12.4273	2.5013	5.1241	4.9603	2.1101	6.4026	9.1797	11.0915	7.7524	4.7641	7.6236	2.5092	3.5581	5.6026	3.3932	-1.9534	-0.5623
351.5625	1.4255	6.8695	2.5176	7.6077	8.5957	5.1321	8.6442	4.9098	5.119	6.8269	3.9744	3.2035	10.5758	12.5555	2.7676	5.9201	5.4482	2.3558	6.7386	10.0019	11.5588	7.8582	4.8826	7.2657	2.3963	3.1461	4.9649	2.6617	-1.9065	-0.4636
355.4688	1.8273	7.5966	2.7991	7.96	8.9821	5.4233	8.311	4.8238	4.8126	6.2417	3.3652	2.5398	10.2425	12.6677	2.9525	6.652	5.9391	2.6396	7.1191	10.7773	12.0209	8.0095	5.1178	7.0459	2.4257	2.9039	4.5138	2.0551	-1.8188	-0.2938
359.375	2.139	8.2337	3.0192	8.2835	9.3871	5.7212	8.1143	4.8485	4.682	5.8565	3.0059	2.0728	9.9635	12.744	3.0547	7.2825	6.4021	2.9381	7.5134	11.4423	12.439	8.1831	5.4436	6.976	2.5804	2.8425	4.2866	1.6337	-1.6881	-0.0679
363.2812	2.3449	8.7326	3.1586	8.5504	9.7493	5.9892	8.061	4.9694	4.7387	5.7011	2.932	1.8554	9.754	12.7544	3.0738	7.7674	6.7925	3.2123	7.8736	11.932	12.761	8.3388	5.8072	7.042	2.823	2.9471	4.2933	1.4368	-1.5298	0.178
367.1875	2.4338	9.0529	3.2023	8.7293	10.0107	6.1887	8.142	5.1613	4.9748	5.7822	3.1475	1.9141	9.6179	12.6712	3.0104	8.0666	7.0628	3.4168	8.1469	12.1951	12.9345	8.4312	6.1411	7.2115	3.1047	3.1828	4.5183	1.4779	-1.3716	0.395
371.0938	2.4028	9.1712	3.146	8.7958	10.1328	6.2929	8.3391	5.3983	5.3661	6.0861	3.6259	2.2446	9.5538	12.481	2.8681	8.1556	7.1753	3.512	8.2889	12.2082	12.9221	8.4224	6.381	7.4436	3.3754	3.5025	4.9251	1.7428	-1.2449	0.5352
375	2.2594	9.0884	3.0002	8.7397	10.1072	6.2963	8.6315	5.6621	5.8757	6.5811	4.314	2.8108	9.5602	12.1923	2.6561	8.0344	7.1125	3.4747	8.2746	11.9821	12.7126	8.2929	6.4812	7.6987	3.5936	3.8556	5.4626	2.1931	-1.1754	0.5638
378.9062	2.0205	8.8297	2.7889	8.5691	9.9555	6.2169	8.9979	5.9423	6.4576	7.2206	5.1377	3.5478	9.6364	11.8358	2.39	7.7299	6.8825	3.3038	8.1037	11.5603	12.3252	8.0469	6.4247	7.9445	3.7329	4.1965	6.0714	2.7713	-1.1772	0.467
382.8125	1.7108	8.4394	2.5439	8.3084	9.7206	6.091	9.4149	6.232	7.0595	7.944	6.009	4.3694	9.7796	11.457	2.0922	7.2915	6.5175	3.0208	7.8002	11.0095	11.8064	7.7108	6.2259	8.1581	3.7853	4.4899	6.6892	3.4092	-1.2514	0.2543
386.7188	1.3577	7.9704	2.2961	7.992	9.4516	5.96	9.8536	6.5201	7.6265	8.68	6.8363	5.1797	9.9798	11.1038	1.7895	6.7803	6.0669	2.6638	7.405	10.4055	11.22	7.3256	5.9233	8.3247	3.7592	4.7141	7.2558	4.0365	-1.3888	-0.0471
390.625	0.9872	7.4732	2.0677	7.6561	9.189	5.8567	10.2765	6.7869	8.106	9.351	7.5343	5.8859	10.2145	10.8129	1.5097	6.2568	5.5863	2.278	6.966	9.818	10.6329	6.9353	5.5681	8.4346	3.6745	4.8606	7.7175	4.5892	-1.575	-0.4007
394.5312	0.6205	6.9859	1.8668	7.3306	8.9542	5.7939	10.6374	7.0028	8.452	9.8803	8.034	6.4104	10.4477	10.6008	1.2774	5.768	5.1257	1.9065	6.5277	9.2976	10.1014	6.577	5.2095	8.4804	3.5556	4.9326	8.0319	5.0167	-1.7955	-0.7709
398.4375	0.2722	6.5293	1.6866	7.034	8.7457	5.7598	10.8858	7.1333	8.6299	10.2009	8.29	6.7002	10.6329	10.4604	1.1098	5.3398	4.7213	1.5823	6.1231	8.8682	9.661	6.2734	4.8839	8.456	3.4251	4.9418	8.1727	5.2866	-2.0384	-1.1285
402.3438	-0.05	6.1065	1.5099	6.7703	8.5431	5.7215	10.9746	7.1468	8.6203	10.2647	8.284	6.7317	10.7205	10.3633	1.0138	4.9745	4.3904	1.3252	5.77	8.5254	9.321	6.0305	4.6093	8.3572	3.3004	4.9061	8.1341	5.3878	-2.2942	-1.4541
406.25	-0.3428	5.7059	1.3157	6.5299	8.3153	5.6338	10.869	7.0229	8.4204	10.0509	8.0245	6.5124	10.6673	10.2682	0.9841	4.6542	4.1315	1.1414	5.4705	8.2414	9.0664	5.8394	4.3851	8.1839	3.1921	4.8464	7.9327	5.3304	-2.5535	-1.7352
410.1562	-0.6062	5.308	1.0879	6.293	8.0309	5.453	10.5537	6.7582	8.0448	9.5692	7.5446	6.0773	10.4458	10.13	1.0042	4.3482	3.9281	1.0261	5.2139	7.9734	8.8634	5.6818	4.1982	7.9418	3.1056	4.7844	7.6058	5.1426	-2.8034	-1.9631
414.0625	-0.8407	4.8917	0.8218	6.0342	7.6673	5.149	10.0371	6.3671	7.524	8.8602	6.8962	5.4843	10.0489	9.91	1.0501	4.0218	3.7543	0.9682	4.982	7.6752	8.669	5.5361	4.0305	7.6429	3.043	4.7383	7.2052	4.866	-3.0261	-2.1289
417.9688	-1.0457	4.4407	0.5264	5.7288	7.2164	4.7141	9.3502	5.8782	6.9013	7.9883	6.1436	4.8049	9.4916	9.5824	1.0966	3.6455	3.5825	0.9548	4.7551	7.3077	8.4404	5.384	3.8685	7.3048	3.0043	4.7209	6.7883	4.5484	-3.1986	-2.2219
421.875	-1.2196	3.948	0.223	5.3572	6.6867	4.1656	8.5415	5.3272	6.2269	7.0323	5.3556	4.1142	8.8063	9.1386	1.1246	3.2007	3.3899	0.9756	4.5167	6.8472	8.1429	5.2147	3.7085	6.9475	2.9888	4.7372	6.4076	4.2363	-3.2966	-2.2311
425.7812	-1.3602	3.4183	-0.0617	4.91	6.1013	3.5418	7.6687	4.7503	5.552	6.0727	4.597	3.4806	8.0372	8.5867	1.1252	2.6842	3.1627	1.0239	4.2571	6.2889	7.7561	5.0261	3.5576	6.5908	2.9959	4.7855	6.1015	3.9685	-3.3002	-2.1488
429.6875	-1.4662	2.8689	-0.3032	4.3912	5.4946	2.8941	6.7892	4.1786	4.9213	5.1801	3.9217	2.9561	7.2317	7.9501	1.101	2.1092	2.8979	1.0965	3.9744	5.6485	7.2757	4.8228	3.4294	6.2501	3.0249	4.8587	5.8885	3.771	-3.2003	-1.9757
433.5938	-1.5382	2.3291	-0.4846	3.8203	4.9076	2.277	5.9532	3.6365	4.3674	4.4072	3.3675	2.571	6.4349	7.2627	1.0635	1.5044	2.6027	1.1919	3.6744	4.9584	6.7143	4.6131	3.3382	5.9346	3.0739	4.9458	5.7655	3.6541	-3.0027	-1.7238
437.5	-1.5771	1.838	-0.5992	3.2321	4.3823	1.7397	5.1988	3.1405	3.9078	3.7843	2.9537	2.3325	5.6849	6.5651	1.029	0.9106	2.2923	1.3084	3.3698	4.2635	6.0992	4.4054	3.2934	5.6463	3.139	5.0319	5.7106	3.6116	-2.7278	-1.4163
441.4062	-1.5821	1.4407	-0.6474	2.6744	3.9575	1.32	4.5513	2.7012	3.5444	3.3195	2.682	2.2275	5.0109	5.8999	1.0151	0.3766	1.9874	1.444	3.0786	3.6151	5.469	4.2065	3.2971	5.3807	3.2122	5.0977	5.6881	3.6223	-2.4047	-1.0821
445.3125	-1.5476	1.1826	-0.6314	2.2039	3.664	1.0432	4.0241	2.3247	3.2668	3.0019	2.5385	2.2275	4.4338	5.3087	1.039	-0.0468	1.7127	1.5985	2.8228	3.0657	4.8697	4.0224	3.3444	5.1288	3.2804	5.1184	5.6561	3.6535	-2.0621	-0.7474
449.2188	-1.4608	1.103	-0.5507	1.8779	3.5222	0.923	3.6219	2.014	3.0562	2.8063	2.4966	2.294	3.967	4.8286	1.1186	-0.3128	1.4952	1.7747	2.6276	2.6633	4.3499	3.8592	3.4264	4.8806	3.3261	5.0648	5.5735	3.6653	-1.7192	-0.4275
453.125	-1.3028	1.2288	-0.3994	1.7461	3.5391	0.9625	3.3432	1.7707	2.8888	2.6985	2.5188	2.3837	3.6185	4.4899	1.2734	-0.3848	1.3629	1.9808	2.5191	2.4465	3.9555	3.7261	3.5329	4.6284	3.3298	4.9066	5.4062	3.6169	-1.3801	-0.1211
457.0312	-1.052	1.5682	-0.1677	1.841	3.7088	1.1553	3.1816	1.5936	2.7391	2.6401	2.5595	2.4518	3.3915	4.3138	1.5233	-0.2422	1.3425	2.2289	2.5215	2.4395	3.7255	3.6364	3.656	4.3701	3.2742	4.6193	5.132	3.4721	-1.0339	0.1897
460.9375	-0.6915	2.1082	0.1537	2.1712	4.0132	1.4858	3.1276	1.4773	2.5824	2.5935	2.5685	2.4567	3.2863	4.3113	1.8847	0.1159	1.4553	2.5327	2.6546	2.6499	3.6872	3.6075	3.7925	4.1117	3.1501	4.1922	4.7446	3.2061	-0.6604	0.5343
464.8438	-0.2178	2.8132	0.5684	2.7169	4.4253	1.9296	3.1688	1.4112	2.3976	2.5273	2.4975	2.3651	3.3003	4.4824	2.3634	0.669	1.7125	2.9023	2.9289	3.0669	3.8529	3.659	3.9457	3.8682	2.9603	3.6354	4.2554	2.8122	-0.2403	0.9431
468.75	0.3523	3.6283	1.0696	3.432	4.9135	2.4549	3.2911	1.3797	2.1706	2.4203	2.3081	2.1574	3.4287	4.8164	2.9473	1.3762	2.1093	3.3389	3.3418	3.6632	4.2176	3.8076	4.126	3.6624	2.723	2.9841	3.6937	2.3054	0.2355	1.4362
472.6562	0.9786	4.4847	1.6364	4.2489	5.4458	3.0256	3.4795	1.3658	1.8975	2.2661	1.9807	1.8327	3.6635	5.2914	3.602	2.1792	2.6208	3.8307	3.8745	4.3965	4.7578	4.062	4.3472	3.5214	2.4697	2.296	3.1049	1.7237	0.7581	2.0138
476.5625	1.5999	5.3066	2.2353	5.0879	5.9917	3.6026	3.7192	1.3558	1.5878	2.0748	1.5228	1.4116	3.9929	5.8751	4.2718	3.0078	3.2016	4.3518	4.4912	5.2127	5.432	4.417	4.6211	3.4715	2.2406	1.6438	2.5453	1.1238	1.2988	2.6514
480.4688	2.1436	6.0207	2.8226	5.8676	6.5238	4.1468	3.9953	1.3433	1.2649	1.8709	0.9722	0.9355	4.3998	6.5257	4.8874	3.7876	3.7901	4.8641	5.1411	6.0498	6.1833	4.8514	4.9497	3.5328	2.0766	1.1019	2.0751	0.5729	1.8137	3.3018
484.375	2.5384	6.5632	3.3505	6.515	7.0152	4.6199	4.2912	1.3306	0.9636	1.6875	0.3919	0.4606	4.8608	7.1929	5.3776	4.4475	4.3161	5.323	5.7642	6.8411	6.9438	5.3278	5.3191	3.7128	2.0098	0.733	1.749	0.1372	2.2518	3.9025
488.2812	2.7284	6.8869	3.772	6.9725	7.4377	4.9865	4.5855	1.3255	0.722	1.5558	-0.1419	0.047	5.3433	7.8198	5.6831	4.9275	4.7125	5.6833	6.2984	7.52	7.6407	5.7973	5.6969	4.0023	2.0556	0.5755	1.6066	-0.1309	2.5659	4.3874
492.1875	2.6852	6.9647	4.0471	7.2024	7.7593	5.2164	4.8489	1.3343	0.572	1.4947	-0.5579	-0.2534	5.8057	8.3459	5.7685	5.1835	4.9256	5.9058	6.688	8.0249	8.2025	6.2052	6.0358	4.3725	2.2074	0.6366	1.6642	-0.2033	2.7213	4.6985
496.0938	2.4138	6.7914	4.147	7.1883	7.9446	5.287	5.0436	1.3545	0.5294	1.502	-0.8068	-0.4083	6.1974	8.7115	5.629	5.1909	4.9234	5.9616	6.8911	8.3047	8.5667	6.4989	6.2821	4.7773	2.437	0.8915	1.9103	-0.0824	2.7022	4.7972
500	1.9519	6.3834	4.0575	6.9331	7.9579	5.1858	5.1262	1.3712	0.5879	1.5532	-0.8727	-0.4115	6.4641	8.8631	5.2914	4.9456	4.7	5.8369	6.8843	8.3247	8.6858	6.635	6.3858	5.1578	2.6988	1.289	2.3059	0.2005	2.5136	4.6708
503.9062	1.3625	5.7757	3.7824	6.4569	7.7697	4.9122	5.0551	1.3594	0.7192	1.6071	-0.7747	-0.2822	6.5544	8.7618	4.8079	4.4636	4.2753	5.5355	6.6655	8.0714	8.5331	6.5849	6.3111	5.4502	2.9386	1.7603	2.7895	0.5913	2.1809	4.3349
507.8125	0.721	5.0182	3.3434	5.7938	7.3635	4.477	4.7999	1.291	0.8796	1.6163	-0.5588	-0.0584	6.4286	8.3896	4.2455	3.7792	3.6903	5.0787	6.2524	7.5558	8.1066	6.338	6.0431	5.5951	3.1021	2.2298	3.2852	1.0242	1.7451	3.8304
511.7188	0.1003	4.1704	2.778	4.9894	6.743	3.9025	4.3502	1.1443	1.0196	1.54	-0.2849	0.2122	6.0673	7.7551	3.6723	2.942	2.9992	4.5033	5.6788	6.8144	7.43	5.9018	5.5897	5.5453	3.1432	2.6241	3.7123	1.4326	1.2567	3.2162
515.625	-0.4423	3.2962	2.135	4.0983	5.9359	3.2205	3.7215	0.9115	1.095	1.3544	-0.0118	0.4825	5.4765	6.8955	3.1467	2.0139	2.2613	3.8575	4.9892	5.9074	6.5518	5.3009	4.9802	5.272	3.0296	2.8798	3.9951	1.7583	0.7678	2.559
519.5312	-0.8708	2.4595	1.4682	3.1824	4.9949	2.4722	2.9557	0.604	1.0766	1.0576	0.2131	0.7125	4.6894	5.8741	2.7098	1.0661	1.535	3.1943	4.2349	4.9144	5.5422	4.575	4.2615	4.769	2.7461	2.9492	4.0722	1.9577	0.326	1.9232
523.4375	-1.1708	1.7206	0.8319	2.3087	3.9941	1.7073	2.1166	0.2522	0.9545	0.6694	0.3604	0.8737	3.7633	4.7752	2.3854	0.1751	0.8742	2.5664	3.4707	3.9273	4.4873	3.7759	3.492	4.0544	2.2961	2.8037	3.9031	2.0029	-0.0309	1.3637
527.3438	-1.3423	1.1346	0.277	1.5454	3.0228	0.9834	1.2814	-0.0983	0.7392	0.2254	0.4187	0.9496	2.7736	3.6945	2.1823	-0.582	0.3271	2.0213	2.7526	3.0411	3.4812	2.9642	2.7347	3.1691	1.7006	2.4363	3.4734	1.8813	-0.2766	0.9214
531.25	-1.3927	0.7484	-0.1501	0.9552	2.1749	0.3622	0.5292	-0.395	0.4582	-0.2307	0.3924	0.934	1.8041	2.7287	2.099	-1.1344	-0.0651	1.5981	2.135	2.3423	2.6162	2.2036	2.0506	2.1738	0.9967	1.8617	2.7963	1.5941	-0.397	0.6227
535.1562	-1.3306	0.5977	-0.4098	0.5879	1.537	-0.0976	-0.0703	-0.5893	0.1478	-0.6563	0.2956	0.8293	0.9364	1.9628	2.1268	-1.4257	-0.27	1.3262	1.6684	1.8982	1.9715	1.5558	1.4934	1.1425	0.2346	1.1164	1.9117	1.1549	-0.3881	0.481
539.0625	-1.164	0.7021	-0.472	0.4717	1.1744	-0.3493	-0.4687	-0.6484	-0.1549	-1.0188	0.1453	0.6427	0.2386	1.4597	2.2526	-1.4217	-0.2667	1.2251	1.3942	1.7478	1.6025	1.0742	1.1064	0.1552	-0.5261	0.2557	0.8825	0.5889	-0.2546	0.4996
542.9688	-0.9003	1.0608	-0.3216	0.6082	1.1209	-0.3673	-0.6468	-0.5642	-0.4222	-1.3023	-0.0452	0.3839	-0.2441	1.2511	2.4613	-1.116	-0.0491	1.3046	1.3406	1.8963	1.5328	0.7988	0.9191	-0.7111	-1.2228	-0.6503	-0.212	-0.0674	-0.0082	0.673
546.875	-0.5483	1.6494	0.0366	0.9717	1.3718	-0.1536	-0.6175	-0.3571	-0.6412	-1.5094	-0.2706	0.0637	-0.4944	1.334	2.7378	-0.5328	0.3719	1.5636	1.5172	2.3155	1.7515	0.7507	0.9457	-1.3911	-1.7958	-1.5221	-1.2837	-0.7674	0.332	0.9861
550.7812	-0.1207	2.4201	0.5749	1.5135	1.8853	0.2625	-0.4226	-0.0719	-0.8164	-1.6585	-0.5334	-0.3051	-0.5225	1.673	3.0679	0.2761	0.9668	1.9883	1.9115	2.9487	2.216	0.9295	1.1819	-1.8367	-2.1954	-2.2782	-2.2425	-1.4564	0.7394	1.4138
554.6875	0.3649	3.3059	1.2437	2.1704	2.5906	0.829	-0.1227	0.2316	-0.9652	-1.776	-0.8399	-0.7048	-0.3599	2.2086	3.4373	1.2364	1.6881	2.5491	2.4883	3.7195	2.8604	1.3124	1.6038	-2.0205	-2.3867	-2.8412	-3.003	-2.0741	1.1796	1.9193
558.5938	0.8854	4.2269	1.9766	2.8743	3.3997	1.4797	0.2165	0.4905	-1.1104	-1.8862	-1.1914	-1.1088	-0.0504	2.8677	3.8291	2.2605	2.4731	3.1992	3.1916	4.5426	3.6064	1.8557	2.1687	-1.9354	-2.3533	-3.146	-3.4909	-2.5587	1.6113	2.4555
562.5	1.4137	5.0994	2.699	3.5599	4.2217	2.1442	0.5371	0.6512	-1.2705	-2.0027	-1.5767	-1.4792	0.3601	3.5755	4.2211	3.2565	3.2494	3.875	3.9496	5.3336	4.3741	2.4997	2.8186	-1.5938	-2.0993	-3.147	-3.6502	-2.8528	1.9897	2.9678
566.4062	1.9201	5.8465	3.3389	4.1713	4.9743	2.7564	0.7988	0.6788	-1.453	-2.1233	-1.9673	-1.7684	0.8295	4.264	4.5855	4.1377	3.9417	4.5021	4.6829	6.0166	5.0905	3.1742	3.4857	-1.0261	-1.6492	-2.8268	-3.4508	-2.9114	2.2718	3.4005
570.3125	2.3758	6.4065	3.8375	4.6644	5.592	3.2614	0.9834	0.5634	-1.6515	-2.2314	-2.3204	-1.9261	1.3231	4.8772	4.8911	4.8303	4.4816	5.0044	5.3131	6.5303	5.6949	3.8073	4.1003	-0.279	-1.0471	-2.2022	-2.8965	-2.7109	2.4233	3.7043
574.2188	2.7551	6.7397	4.1563	5.008	6.0303	3.6193	1.0924	0.321	-1.8487	-2.3019	-2.5868	-1.9107	1.8123	5.3733	5.108	5.2812	4.8171	5.3162	5.773	6.8316	6.1416	4.3329	4.5986	0.5855	-0.3534	-1.3266	-2.0292	-2.2568	2.4255	3.8449
578.125	3.0384	6.8313	4.2813	5.1838	6.2657	3.8066	1.141	-0.0109	-2.0222	-2.3096	-2.7239	-1.7016	2.2729	5.7247	5.2138	5.4629	4.9211	5.3951	6.0158	6.8984	6.4014	4.7	4.9313	1.4945	0.3608	-0.2873	-0.9289	-1.5877	2.281	3.8105
582.0312	3.2139	6.6902	4.2224	5.1854	6.2942	3.8159	1.1509	-0.3816	-2.1517	-2.2375	-2.7069	-1.3079	2.6826	5.9169	5.2005	5.3769	4.7969	5.2314	6.0219	6.7315	6.4622	4.8789	5.0711	2.3695	1.0216	0.8048	0.2941	-0.773	2.0155	3.6151
585.9375	3.2796	6.347	4.0092	5.0187	6.1296	3.6555	1.1431	-0.7377	-2.2242	-2.0812	-2.5346	-0.7692	3.0209	5.9489	5.0788	5.0543	4.4786	4.8515	5.8023	6.3554	6.3297	4.865	5.0159	3.1349	1.5617	1.8305	1.5123	0.0964	1.6751	3.2977
589.8438	3.2441	5.8495	3.686	4.7024	5.8023	3.3488	1.1332	-1.0334	-2.2357	-1.8501	-2.2297	-0.1498	3.2696	5.8322	4.8781	4.5524	4.0263	4.3151	5.396	5.8168	6.0269	4.6782	4.7888	3.7261	1.9292	2.6787	2.5982	0.922	1.3195	2.9162
593.75	3.1253	5.2582	3.304	4.2672	5.3559	2.9318	1.1295	-1.2371	-2.1913	-1.5658	-1.8334	0.4724	3.4141	5.5894	4.6417	3.9465	3.515	3.7036	4.8629	5.1791	5.5917	4.3566	4.4316	4.0949	2.0916	3.2612	3.4403	1.6125	1.0108	2.5363
597.6562	2.9476	4.6395	2.9142	3.7539	4.8432	2.45	1.1308	-1.337	-2.1035	-1.2589	-1.3982	1.0186	3.4425	5.2496	4.417	3.3186	3.0204	3.1046	4.2716	4.5137	5.0709	3.9461	3.9952	4.2133	2.0371	3.5215	3.9552	2.0954	0.8019	2.218
601.5625	2.7374	4.058	2.5585	3.2074	4.3181	1.9508	1.1266	-1.3416	-1.9904	-0.9664	-0.9802	1.4205	3.345	4.8434	4.244	2.7436	2.6039	2.5945	3.6862	3.8877	4.5119	3.4897	3.5289	4.072	1.7715	3.4387	4.0952	2.3248	0.7242	2.0028
605.4688	2.5172	3.5659	2.2634	2.6692	3.8271	1.4761	1.0973	-1.2784	-1.8725	-0.7277	-0.6319	1.6285	3.1129	4.3962	4.1444	2.2753	2.3001	2.2237	3.1548	3.351	3.9544	3.0184	3.0712	3.6798	1.3152	3.0262	3.8505	2.2849	0.7813	1.9045
609.375	2.3008	3.1941	2.0354	2.1688	3.4002	1.0531	1.0169	-1.1874	-1.7695	-0.5811	-0.3955	1.6181	2.7402	3.9241	4.1149	1.9368	2.1109	2.0092	2.7017	2.9273	3.4224	2.5473	2.6446	3.0609	0.7019	2.3281	3.2485	1.9889	0.9477	1.9069
613.2812	2.0899	2.9466	1.8618	1.7179	3.0453	0.6898	0.8569	-1.1125	-1.6963	-0.5575	-0.2967	1.3921	2.2262	3.4323	4.1273	1.7174	2.0068	1.9346	2.3267	2.6103	2.9217	2.0774	2.2561	2.254	-0.0222	1.4147	2.3497	1.477	1.1757	1.97
617.1875	1.8755	2.8001	1.7161	1.3094	2.7492	0.3751	0.5931	-1.0914	-1.6616	-0.6762	-0.3411	0.9808	1.5802	2.9174	4.1355	1.5764	1.936	1.9588	2.0094	2.3672	2.4419	1.6018	1.9017	1.311	-0.7983	0.3767	1.2424	0.8106	1.4063	2.0414
621.0938	1.6418	2.7105	1.5666	0.9221	2.4828	0.0844	0.2119	-1.1471	-1.6675	-0.9402	-0.5143	0.4366	0.8241	2.3727	4.0872	1.4542	1.8378	2.0278	1.7172	2.1485	1.9624	1.1136	1.5722	0.2953	-1.5581	-0.683	0.033	0.0654	1.5839	2.0708
625	1.3721	2.6234	1.3852	0.5288	2.2109	-0.2106	-0.2846	-1.2847	-1.7124	-1.3353	-0.7855	-0.1744	-0.0058	1.7936	3.9367	1.2869	1.657	2.0878	1.4153	1.9003	1.4611	0.6117	1.2586	-0.7225	-2.2312	-1.6602	-1.1657	-0.6788	1.6666	2.0216
628.9062	1.0548	2.4858	1.1541	0.106	1.9024	-0.5337	-0.8771	-1.4925	-1.7948	-1.8324	-1.115	-0.7832	-0.8618	1.1829	3.6556	1.0202	1.3557	2.0951	1.0743	1.5763	0.9223	0.1035	0.9539	-1.6709	-2.7544	-2.4614	-2.2475	-1.3477	1.6329	1.8774
632.8125	0.6864	2.2573	0.8679	-0.3591	1.5382	-0.8976	-1.5303	-1.7476	-1.9155	-2.392	-1.4627	-1.3288	-1.6897	0.5534	3.2382	0.6207	0.9204	2.0227	0.676	1.1475	0.3426	-0.3965	0.6524	-2.4853	-3.0822	-3.0165	-3.1249	-1.8822	1.4818	1.6421
636.7188	0.273	1.9182	0.5327	-0.8637	1.1169	-1.3015	-2.1978	-2.0233	-2.0781	-2.9691	-1.7943	-1.7651	-2.4348	-0.0711	2.7037	0.0833	0.3646	1.8628	0.2172	0.6074	-0.2664	-0.8694	0.3499	-3.1145	-3.1949	-3.2881	-3.7381	-2.2446	1.2299	1.3363
640.625	-0.1691	1.4746	0.1639	-1.3872	0.6573	-1.7296	-2.8264	-2.2945	-2.2856	-3.5177	-2.0846	-2.0651	-3.047	-0.6572	2.0938	-0.567	-0.2729	1.6279	-0.2887	-0.0251	-0.8778	-1.2947	0.0449	-3.5262	-3.1012	-3.2765	-4.0594	-2.4209	0.9073	0.9923
644.5312	-0.6142	0.9592	-0.217	-1.8933	0.1974	-2.1528	-3.3617	-2.5395	-2.5358	-3.9931	-2.3171	-2.2197	-3.4847	-1.1637	1.4684	-1.2774	-0.9331	1.3486	-0.8111	-0.707	-1.4518	-1.6516	-0.2572	-3.7076	-2.8352	-3.0165	-4.0924	-2.4198	0.5532	0.6491
648.4375	-1.0283	0.4275	-0.5847	-2.3339	-0.2114	-2.5309	-3.7527	-2.7404	-2.8164	-4.3535	-2.4819	-2.2347	-3.7162	-1.5458	0.8989	-1.9748	-1.5448	1.0683	-1.3052	-1.3751	-1.9393	-1.9187	-0.5401	-3.6638	-2.4489	-2.5691	-3.867	-2.2672	0.2116	0.348
652.3438	-1.372	-0.0516	-0.9111	-2.6579	-0.5129	-2.8193	-3.9564	-2.881	-3.1033	-4.5622	-2.5726	-2.1262	-3.7216	-1.7605	0.4584	-2.5766	-2.0344	0.8359	-1.7175	-1.9548	-2.2895	-2.0746	-0.7747	-3.4144	-2.0008	-2.0089	-3.432	-2	-0.0729	0.1279
656.25	-1.6061	-0.4092	-1.1678	-2.8208	-0.6589	-2.9768	-3.9439	-2.9465	-3.3622	-4.5912	-2.5854	-1.9171	-3.4952	-1.7752	0.211	-3.0048	-2.3382	0.6954	-1.994	-2.3717	-2.458	-2.0998	-0.9226	-2.9894	-1.5467	-1.4114	-2.8472	-1.6606	-0.2613	0.0203
660.1562	-1.6993	-0.5916	-1.3288	-2.7961	-0.6207	-2.976	-3.7056	-2.9258	-3.5545	-4.4263	-2.52	-1.6356	-3.0489	-1.5762	0.1997	-3.201	-2.4127	0.6763	-2.0914	-2.5671	-2.4174	-1.9819	-0.9458	-2.4276	-1.1321	-0.8426	-2.1772	-1.2918	-0.3263	0.0433
664.0625	-1.6364	-0.5725	-1.3751	-2.5826	-0.3973	-2.811	-3.2564	-2.8141	-3.6453	-4.0718	-2.3814	-1.3132	-2.4153	-1.1764	0.4381	-3.1383	-2.2438	0.787	-1.9872	-2.5126	-2.1659	-1.7211	-0.8179	-1.7751	-0.7888	-0.3524	-1.4854	-0.9343	-0.2574	0.1974
667.9688	-1.4239	-0.3604	-1.3002	-2.2068	-0.0176	-2.5018	-2.6364	-2.6159	-3.611	-3.553	-2.1809	-0.9832	-1.6486	-0.6193	0.905	-2.8292	-1.8511	1.012	-1.6872	-2.2205	-1.7329	-1.3361	-0.5361	-1.0832	-0.5341	0.0288	-0.8293	-0.624	-0.0639	0.4634
671.875	-1.0916	0.003	-1.114	-1.7196	0.464	-2.0922	-1.9084	-2.3455	-3.4446	-2.9145	-1.9348	-0.6772	-0.8212	0.0241	1.5469	-2.3254	-1.2865	1.3159	-1.2276	-1.7462	-1.1781	-0.8657	-0.1272	-0.4062	-0.3716	0.2902	-0.2562	-0.3886	0.2264	0.8044
675.7812	-0.6872	0.4513	-0.843	-1.1874	0.9769	-1.6416	-1.1489	-2.0248	-3.1568	-2.214	-1.6621	-0.4206	-0.0167	0.6639	2.2848	-1.71	-0.6283	1.649	-0.6721	-1.1813	-0.5844	-0.3662	0.3538	0.2026	-0.2941	0.4371	0.1997	-0.245	0.5718	1.172
679.6875	-0.2673	0.9081	-0.527	-0.6805	1.4465	-1.2132	-0.4372	-1.6783	-2.7743	-1.514	-1.3801	-0.2289	0.6805	1.2064	3.0274	-1.0826	0.0303	1.9574	-0.1023	-0.637	-0.0446	0.0958	0.8321	0.6952	-0.2875	0.4873	0.5195	-0.1973	0.9251	1.5146
683.5938	0.1145	1.302	-0.2113	-0.2608	1.8053	-0.8608	0.157	-1.3283	-2.3345	-0.8729	-1.1029	-0.1055	1.1966	1.5688	3.6867	-0.542	0.5952	2.191	0.3953	-0.2229	0.3537	0.4545	1.2285	1.0339	-0.3351	0.4644	0.6983	-0.2359	1.2424	1.7871
687.5	0.418	1.5797	0.0621	0.0276	2.0024	-0.6204	0.5823	-0.9936	-1.8799	-0.3386	-0.8401	-0.0429	1.4774	1.6938	4.192	-0.1686	0.9856	2.3117	0.7436	-0.0253	0.5432	0.6566	1.4753	1.1938	-0.4222	0.3927	0.7435	-0.3401	1.4915	1.9589
691.4062	0.6228	1.7132	0.2623	0.1631	2.0078	-0.5069	0.8105	-0.6895	-1.4528	0.0538	-0.5996	-0.0267	1.4945	1.5573	4.5009	-0.0117	1.1472	2.298	0.8879	-0.0908	0.4869	0.6704	1.5307	1.1646	-0.5396	0.292	0.6699	-0.4825	1.657	2.0194
695.3125	0.73	1.7011	0.3748	0.1461	1.8133	-0.5173	0.8348	-0.432	-1.0914	0.2819	-0.3899	-0.0415	1.2459	1.1702	4.6041	-0.084	1.0603	2.1482	0.8037	-0.4191	0.1826	0.4905	1.386	0.9504	-0.6849	0.1731	0.4945	-0.6357	1.7423	1.9782
699.2188	0.7594	1.5643	0.4024	-0.0056	1.4302	-0.6369	0.6652	-0.2404	-0.8269	0.3327	-0.2232	-0.0772	0.754	0.5737	4.5251	-0.3618	0.7427	1.88	0.5001	-0.9653	-0.3392	0.1359	1.0645	0.5671	-0.8627	0.0358	0.2322	-0.7798	1.7669	1.8619
703.125	0.7439	1.3389	0.363	-0.2627	0.8865	-0.8462	0.3222	-0.1382	-0.682	0.2007	-0.1167	-0.1336	0.06	-0.1699	4.3139	-0.7913	0.246	1.5276	0.0162	-1.6507	-1.0212	-0.3555	0.6148	0.0396	-1.0823	-0.1305	-0.1075	-0.908	1.7607	1.7077
707.0312	0.7216	1.0685	0.2835	-0.5903	0.2233	-1.1252	-0.1688	-0.1503	-0.6705	-0.1135	-0.0909	-0.2211	-0.7821	-0.9879	4.0367	-1.3002	-0.3541	1.1369	-0.5869	-2.3783	-1.7894	-0.9361	0.0977	-0.6021	-1.3545	-0.3445	-0.5211	-1.0287	1.7567	1.5554
710.9375	0.7279	0.7972	0.1943	-0.9521	-0.5082	-1.4547	-0.7805	-0.2981	-0.7976	-0.6023	-0.1666	-0.3575	-1.7118	-1.8089	3.7628	-1.8091	-0.9724	0.7579	-1.2373	-3.0505	-2.5637	-1.5573	-0.4271	-1.3261	-1.6868	-0.6266	-1.0087	-1.1628	1.7835	1.4398
714.8438	0.7885	0.564	0.1224	-1.3127	-1.2506	-1.8166	-1.4837	-0.5928	-1.0607	-1.2482	-0.3604	-0.5627	-2.6663	-2.5712	3.5525	-2.2448	-1.5291	0.4378	-1.8642	-3.5844	-3.2689	-2.1761	-0.9128	-2.1003	-2.0792	-0.9925	-1.5694	-1.3371	1.8588	1.3844
718.75	0.9146	0.3982	0.0868	-1.64	-1.9448	-2.1931	-2.2448	-1.0292	-1.4486	-2.0209	-0.6796	-0.8513	-3.5842	-3.2282	3.4471	-2.5503	-1.9625	0.2132	-2.4082	-3.9225	-3.8436	-2.7585	-1.3321	-2.892	-2.5205	-1.4448	-2.1938	-1.5745	1.9853	1.3985
722.6562	1.1011	0.3168	0.0962	-1.9067	-2.5358	-2.566	-3.0232	-1.5827	-1.941	-2.8746	-1.1167	-1.2246	-4.4066	-3.7495	3.4646	-2.6914	-2.2374	0.1058	-2.8282	-4.0374	-4.2459	-3.2793	-1.6768	-3.6657	-2.9859	-1.9673	-2.8584	-1.8842	2.1517	1.4765
726.5625	1.3289	0.3231	0.1487	-2.0928	-2.9784	-2.9155	-3.769	-2.2089	-2.506	-3.7468	-1.6457	-1.6655	-5.0787	-4.1189	3.5984	-2.6602	-2.3467	0.1198	-3.1039	-3.9327	-4.4552	-3.7197	-1.9518	-4.3804	-3.4385	-2.523	-3.5213	-2.2547	2.3348	1.6008
730.4688	1.5684	0.4079	0.2341	-2.1872	-3.2424	-3.2205	-4.4235	-2.847	-3.0989	-4.561	-2.2195	-2.1356	-5.5514	-4.33	3.8213	-2.4736	-2.3094	0.2425	-3.2343	-3.638	-4.4715	-4.0641	-2.1663	-4.9888	-3.8332	-3.056	-4.1233	-2.6516	2.506	1.7466
734.375	1.7859	0.5514	0.3374	-2.188	-3.3154	-3.4587	-4.9237	-3.4269	-3.6638	-5.2329	-2.7724	-2.5773	-5.7844	-4.3829	4.0909	-2.1695	-2.1631	0.4474	-3.2333	-3.2031	-4.3124	-4.2974	-2.3248	-5.4393	-4.1227	-3.4987	-4.5935	-3.0209	2.6372	1.8869
738.2812	1.9489	0.727	0.4414	-2.1033	-3.2039	-3.6096	-5.2106	-3.8802	-4.1395	-5.6813	-3.2291	-2.9224	-5.7505	-4.2814	4.358	-1.7993	-1.9554	0.6984	-3.1244	-2.6893	-4.0082	-4.4047	-2.4233	-5.6816	-4.2653	-3.7816	-4.86	-3.2976	2.7046	1.9967
742.1875	2.0307	0.9051	0.5295	-1.9483	-2.9319	-3.6585	-5.2401	-4.1531	-4.4689	-5.8419	-3.5175	-3.1043	-5.4415	-4.0339	4.5744	-1.42	-1.7347	0.9564	-2.9348	-2.1614	-3.5982	-4.373	-2.449	-5.6753	-4.2325	-3.8459	-4.8638	-3.4187	2.6928	2.0557
746.0938	2.0141	1.0579	0.5868	-1.744	-2.5372	-3.6004	-4.9925	-4.2168	-4.609	-5.68	-3.5846	-3.0726	-4.8718	-3.6555	4.7021	-1.0844	-1.5417	1.1849	-2.6916	-1.6793	-3.1261	-4.1948	-2.3857	-5.3992	-4.0155	-3.6551	-4.5723	-3.3363	2.5949	2.0502
750	1.8943	1.1639	0.6027	-1.513	-2.0661	-3.4416	-4.4797	-4.0736	-4.5404	-5.1997	-3.4086	-2.806	-4.0815	-3.17	4.7191	-0.8338	-1.4037	1.3557	-2.4189	-1.2914	-2.6368	-3.8731	-2.222	-4.8596	-3.6289	-3.2038	-3.9893	-3.0287	2.4145	1.9746
753.9062	1.6804	1.2115	0.5721	-1.2769	-1.5676	-3.1987	-3.7457	-3.7544	-4.2707	-4.4457	-3.0044	-2.3186	-3.1338	-2.6111	4.6247	-0.6915	-1.3315	1.4522	-2.1377	-1.029	-2.1722	-3.4252	-1.9584	-4.0934	-3.1094	-2.5215	-3.1583	-2.5064	2.1658	1.8326
757.8125	1.396	1.2012	0.4979	-1.0535	-1.0882	-2.8964	-2.8616	-3.3101	-3.8332	-3.4969	-2.4201	-1.6584	-2.109	-2.0207	4.4391	-0.66	-1.3203	1.4702	-1.8659	-0.9039	-1.768	-2.8843	-1.6121	-3.1655	-2.5106	-1.67	-2.1577	-1.8115	1.8724	1.6379
761.7188	1.0773	1.1457	0.3908	-0.8575	-0.6676	-2.5648	-1.9161	-2.8007	-3.2804	-2.4544	-1.7268	-0.8989	-1.0959	-1.4445	4.1997	-0.7218	-1.353	1.4148	-1.6195	-0.9077	-1.4508	-2.298	-1.2168	-2.1616	-1.896	-0.7362	-1.0886	-1.0115	1.5653	1.4115
765.625	0.7693	1.0666	0.2677	-0.7013	-0.3369	-2.2371	-1.0028	-2.284	-2.6748	-1.4252	-1.0053	-0.1274	-0.1816	-0.9274	3.9535	-0.8446	-1.4061	1.2963	-1.4136	-1.015	-1.2355	-1.7238	-0.8181	-1.1767	-1.3299	0.1794	-0.0594	-0.1899	1.2768	1.1778
769.5312	0.5181	0.9886	0.1476	-0.5985	-0.1176	-1.9464	-0.2097	-1.8084	-2.0798	-0.5078	-0.333	0.568	0.5583	-0.5088	3.7471	-0.988	-1.456	1.1242	-1.2629	-1.1886	-1.1262	-1.2218	-0.4651	-0.3027	-0.8697	0.9749	0.8302	0.5652	1.0343	0.9579
773.4375	0.3629	0.9337	0.0476	-0.5645	-0.0224	-1.7231	0.3918	-1.4067	-1.5509	0.2205	0.2261	1.1108	1.0663	-0.2184	3.6174	-1.1129	-1.4849	0.9032	-1.1816	-1.3873	-1.1172	-0.847	-0.2021	0.3832	-0.5598	1.5597	1.5024	1.1718	0.8547	0.7652
777.3438	0.3286	0.9159	-0.0203	-0.616	-0.0556	-1.5904	0.7549	-1.0936	-1.1291	0.7124	0.6285	1.445	1.3097	-0.0742	3.5854	-1.1889	-1.4836	0.6327	-1.1814	-1.5738	-1.1962	-0.6407	-0.0599	0.828	-0.4269	1.866	1.9104	1.5648	0.7421	0.6024
781.25	0.4217	0.9395	-0.0509	-0.7665	-0.2127	-1.5604	0.8628	-0.8657	-0.8365	0.9549	0.8556	1.5431	1.283	-0.0796	3.6542	-1.1989	-1.4516	0.3079	-1.2688	-1.721	-1.3468	-0.6238	-0.0513	1.0101	-0.4769	1.859	2.0425	1.7055	0.6889	0.4634
785.1562	0.6315	1.0002	-0.046	-1.0208	-0.4807	-1.6311	0.7309	-0.7048	-0.6742	0.9683	0.9146	1.4095	1.0096	-0.2233	3.8111	-1.1401	-1.3953	-0.075	-1.442	-1.8148	-1.5513	-0.7927	-0.169	0.9424	-0.6947	1.5434	1.9221	1.5896	0.679	0.3366
789.0625	0.933	1.0887	-0.0121	-1.3706	-0.8367	-1.7866	0.4043	-0.5852	-0.6229	0.8016	0.8356	1.0798	0.5395	-0.4786	4.0335	-1.0218	-1.3235	-0.5142	-1.6891	-1.8548	-1.7914	-1.1189	-0.389	0.6698	-1.046	0.9649	1.6024	1.2495	0.6936	0.2099
792.9688	1.2935	1.1938	0.0407	-1.7922	-1.2498	-1.9997	-0.0492	-0.4807	-0.647	0.5227	0.6662	0.6158	-0.0567	-0.8068	4.2946	-0.8615	-1.2448	-0.9992	-1.9883	-1.8516	-2.0491	-1.5533	-0.6759	0.2622	-1.4824	0.204	1.1573	0.7506	0.7156	0.0753
796.875	1.6776	1.3058	0.1019	-2.2494	-1.6828	-2.2369	-0.5504	-0.3704	-0.7021	0.2068	0.4627	0.0948	-0.6976	-1.1618	4.5687	-0.6798	-1.1653	-1.5099	-2.3109	-1.8227	-2.3069	-2.035	-0.9903	-0.1977	-1.9495	-0.6364	0.6692	0.1799	0.7331	-0.0695
