time	FP1	F3	F7	FC3	C3	C5	P3	P7	PO7	PO3	O1	Oz	Pz	CPz	FP2	Fz	F4	F8	FC4	FCz	Cz	C4	C6	P4	P8	PO8	PO4	O2	HEOG_left	HEOG_right
-199.2188	0.0645	0.7984	-0.0033	0.675	1.6184	0.5209	0.1285	-0.2275	-0.1467	0.7843	1.1469	1.0019	1.8074	1.0377	-0.8258	1.365	0.1044	-0.1762	1.6836	1.2161	1.639	2.1963	2.0068	2.1706	1.2875	0.6943	1.3044	-0.0761	-1.6433	-1.3599
-195.3125	-0.0815	0.8108	-0.1148	0.8456	1.6746	0.7784	0.666	0.1055	0.2146	0.9743	1.1271	1.3054	2.1178	1.5231	-0.4936	1.2278	0.3899	-0.0035	1.8346	1.3776	1.8884	2.3083	1.8947	2.3791	1.2244	0.907	1.4278	0.2501	-1.5862	-1.2183
-191.4062	-0.1754	0.8641	-0.191	1.0364	1.7614	1.0417	1.2086	0.4309	0.5637	1.1736	1.1297	1.6081	2.4356	2.01	-0.1671	1.1593	0.6949	0.1826	2.0163	1.5708	2.1582	2.4472	1.8217	2.5858	1.1868	1.1362	1.5807	0.5956	-1.5092	-1.0648
-187.5	-0.1867	0.9788	-0.2092	1.2533	1.896	1.3075	1.7415	0.7366	0.8844	1.3825	1.1651	1.8989	2.7522	2.4833	0.1438	1.1964	1.0191	0.3831	2.2366	1.8082	2.4522	2.6188	1.8079	2.7738	1.1839	1.3819	1.771	0.96	-1.4006	-0.8983
-183.5938	-0.1042	1.158	-0.1587	1.4928	2.0813	1.5679	2.2425	1.0083	1.1637	1.594	1.2346	2.1626	3.0492	2.9201	0.4221	1.3466	1.3519	0.5915	2.4876	2.086	2.7611	2.8158	1.8596	2.9222	1.2164	1.6348	1.9924	1.3344	-1.2589	-0.7199
-179.6875	0.062	1.3868	-0.0426	1.7414	2.3048	1.8101	2.6821	1.2299	1.3913	1.7931	1.327	2.3792	3.298	3.2898	0.6461	1.5856	1.6719	0.7927	2.7446	2.3825	3.0616	3.016	1.9676	3.0058	1.2755	1.8751	2.2219	1.6976	-1.0922	-0.5336
-175.7812	0.2837	1.6344	0.1232	1.9769	2.5406	2.0158	3.0256	1.3843	1.5579	1.9568	1.418	2.5253	3.4625	3.5573	0.7964	1.8642	1.9494	0.9645	2.97	2.6633	3.3194	3.1856	2.1075	2.9981	1.3422	2.0731	2.4216	2.0166	-0.9153	-0.3473
-171.875	0.5218	1.8618	0.3138	2.1726	2.7542	2.1633	3.2378	1.4569	1.6549	2.0574	1.4737	2.5755	3.5049	3.6891	0.8625	2.1208	2.1503	1.0811	3.1206	2.8892	3.4952	3.2853	2.2441	2.8754	1.3903	2.1927	2.5447	2.2487	-0.7439	-0.1728
-167.9688	0.7345	2.0297	0.5005	2.3022	2.9096	2.2321	3.289	1.4384	1.6741	2.067	1.4573	2.506	3.3933	3.66	0.8469	2.2963	2.2427	1.1172	3.156	3.0243	3.5525	3.2775	2.3368	2.6217	1.3894	2.1975	2.5442	2.3486	-0.59	-0.0243
-164.0625	0.8857	2.107	0.6557	2.3454	2.9751	2.2066	3.1611	1.3282	1.6091	1.9633	1.3368	2.297	3.108	3.4585	0.7648	2.3479	2.203	1.0537	3.0476	3.0436	3.4647	3.1342	2.3454	2.2341	1.3108	2.0578	2.3833	2.2766	-0.4587	0.0838
-160.1562	0.9503	2.0767	0.7574	2.2917	2.9287	2.081	2.8535	1.1364	1.4575	1.7343	1.0933	1.9365	2.6474	3.0901	0.6393	2.2578	2.022	0.8825	2.7854	2.9376	3.2206	2.8426	2.2371	1.7254	1.133	1.7574	2.0439	2.0086	-0.3489	0.1408
-156.25	0.9186	1.9386	0.7921	2.1427	2.7616	1.8608	2.386	0.8828	1.2237	1.3829	0.7263	1.4252	2.0298	2.5782	0.4965	2.0363	1.7092	0.6099	2.382	2.7133	2.8272	2.41	1.9932	1.1258	0.8484	1.3003	1.5338	1.5443	-0.2552	0.1429
-152.3438	0.797	1.7092	0.7561	1.912	2.4787	1.5638	1.7988	0.5939	0.9202	0.9287	0.2571	0.7819	1.2942	1.9623	0.36	1.7181	1.2932	0.2584	1.872	2.393	2.3104	1.8645	1.615	0.4805	0.4681	0.7142	0.8889	0.9127	-0.1709	0.0964
-148.4375	0.6067	1.418	0.6556	1.6233	2.0989	1.2169	1.1486	0.2995	0.5688	0.4074	-0.2721	0.0473	0.4967	1.2939	0.2466	1.3543	0.8175	-0.1352	1.3068	2.0107	1.7118	1.2524	1.127	-0.1547	0.0235	0.0498	0.1709	0.1728	-0.0896	0.0176
-144.5312	0.3795	1.1016	0.5049	1.3058	1.6525	0.8537	0.5011	0.0278	0.1993	-0.1318	-0.8027	-0.7151	-0.2948	0.6312	0.1648	1.0017	0.3342	-0.5238	0.7467	1.6068	1.0839	0.6326	0.5756	-0.7195	-0.4365	-0.6238	-0.5413	-0.592	-0.0062	-0.0692
-140.625	0.1521	0.7977	0.3254	0.99	1.1785	0.5087	-0.0778	-0.1971	-0.1531	-0.6317	-1.2676	-1.4252	-1.0089	0.0323	0.1155	0.7113	-0.1045	-0.8574	0.2504	1.222	0.4836	0.0684	0.0233	-1.1562	-0.8532	-1.2288	-1.1632	-1.2854	0.0835	-0.136
-136.7188	-0.0402	0.5386	0.1422	0.7028	0.7192	0.2126	-0.5328	-0.3579	-0.4519	-1.034	-1.6016	-1.9969	-1.579	-0.4518	0.095	0.5199	-0.4531	-1.0901	-0.1336	0.8929	-0.0352	-0.3821	-0.4614	-1.4169	-1.1681	-1.691	-1.6192	-1.8136	0.1832	-0.1567
-132.8125	-0.1693	0.3474	-0.0186	0.4642	0.3158	-0.0121	-0.826	-0.4454	-0.6648	-1.2881	-1.7527	-2.3546	-1.9531	-0.7831	0.098	0.4451	-0.6787	-1.1884	-0.3739	0.6475	-0.4283	-0.6744	-0.8161	-1.4703	-1.3346	-1.9527	-1.8546	-2.1025	0.2969	-0.1123
-128.9062	-0.2195	0.2349	-0.1342	0.2854	0.0016	-0.1542	-0.9423	-0.4589	-0.7694	-1.36	-1.6925	-2.4486	-2.1022	-0.942	0.1206	0.4843	-0.7643	-1.1368	-0.4594	0.502	-0.6666	-0.7843	-0.9963	-1.3074	-1.3267	-1.9842	-1.8452	-2.1127	0.4272	0.0046
-125	-0.1907	0.199	-0.1892	0.1677	-0.2026	-0.2147	-0.889	-0.4067	-0.7581	-1.2398	-1.4226	-2.2674	-2.0252	-0.9296	0.1613	0.6164	-0.7109	-0.9411	-0.4007	0.4581	-0.7402	-0.7123	-0.9833	-0.9447	-1.1443	-1.7896	-1.6004	-1.8479	0.5738	0.1882
-121.0938	-0.0979	0.2248	-0.1796	0.1029	-0.2922	-0.2056	-0.6932	-0.3052	-0.64	-0.946	-0.9756	-1.8425	-1.7502	-0.7679	0.2201	0.8061	-0.5386	-0.6286	-0.228	0.502	-0.6598	-0.4836	-0.788	-0.4247	-0.8142	-1.4066	-1.1615	-1.3558	0.7306	0.4186
-117.1875	0.0311	0.2875	-0.1145	0.0751	-0.2793	-0.1468	-0.3972	-0.1762	-0.4406	-0.5242	-0.4102	-1.243	-1.3298	-0.4956	0.296	1.0091	-0.2851	-0.2438	0.0133	0.6054	-0.4551	-0.1454	-0.4493	0.1887	-0.3849	-0.8994	-0.5931	-0.7192	0.884	0.6654
-113.2812	0.1621	0.3564	-0.0155	0.0635	-0.1909	-0.0628	-0.0518	-0.0446	-0.1974	-0.0402	0.1986	-0.5634	-0.8325	-0.1634	0.3845	1.1795	-0.0013	0.1578	0.2687	0.7286	-0.1708	0.2407	-0.027	0.8174	0.0815	-0.3467	0.027	-0.0411	1.0129	0.8923
-109.375	0.261	0.4002	0.0868	0.0455	-0.0646	0.0205	0.2896	0.066	0.0467	0.4316	0.7713	0.0939	-0.3316	0.1743	0.4756	1.2764	0.2573	0.5185	0.4828	0.8267	0.14	0.6072	0.4079	1.3811	0.5202	0.1733	0.6213	0.5751	1.0912	1.0638
-105.4688	0.3003	0.392	0.1592	0.0009	0.0577	0.0788	0.5778	0.136	0.2503	0.8206	1.2356	0.6366	0.1064	0.4657	0.5534	1.2701	0.4397	0.787	0.6078	0.8571	0.4241	0.8917	0.7846	1.8087	0.8742	0.5952	1.1233	1.0431	1.0931	1.1518
-101.5625	0.2632	0.3137	0.172	-0.0858	0.1363	0.0913	0.7732	0.1523	0.3813	1.0723	1.5367	0.9966	0.43	0.6684	0.5983	1.146	0.5093	0.9252	0.6107	0.7871	0.6355	1.0456	1.043	2.0493	1.1032	0.8771	1.4861	1.3084	0.9989	1.1401
-97.6562	0.1461	0.1584	0.106	-0.223	0.1404	0.042	0.8494	0.1097	0.4207	1.1562	1.6438	1.139	0.609	0.7534	0.5905	0.9062	0.4509	0.9129	0.4788	0.5999	0.7418	1.0415	1.1421	2.0794	1.1887	1.0041	1.6867	1.3554	0.8017	1.0263
-93.75	-0.0414	-0.0683	-0.0434	-0.4109	0.0533	-0.0771	0.7955	0.0104	0.3656	1.0689	1.5535	1.0642	0.6354	0.7091	0.5145	0.568	0.2736	0.7496	0.2209	0.2982	0.7283	0.876	1.0647	1.9043	1.1349	0.9881	1.7256	1.2065	0.5115	0.822
-89.8438	-0.2772	-0.3488	-0.2635	-0.6408	-0.1246	-0.2643	0.6159	-0.1361	0.2276	0.8318	1.2878	0.8051	0.5223	0.5415	0.3632	0.1611	0.0079	0.4536	-0.1347	-0.0952	0.5992	0.5685	0.8183	1.5547	0.9652	0.8615	1.6237	0.9155	0.1559	0.5502
-85.9375	-0.5286	-0.655	-0.5246	-0.8942	-0.3757	-0.5053	0.3297	-0.3137	0.0305	0.4859	0.8892	0.4189	0.299	0.2737	0.1408	-0.277	-0.3005	0.0596	-0.5461	-0.5406	0.3751	0.1565	0.4324	1.0784	0.7155	0.6686	1.4156	0.5547	-0.2225	0.2416
-82.0312	-0.7564	-0.951	-0.7843	-1.1439	-0.6676	-0.7729	-0.0317	-0.5007	-0.1947	0.0829	0.412	-0.023	0.0049	-0.0584	-0.1359	-0.705	-0.6008	-0.3854	-0.9652	-0.988	0.0886	-0.3122	-0.0471	0.5306	0.4256	0.4547	1.1425	0.2002	-0.573	-0.0691
-78.125	-0.9208	-1.1974	-0.9936	-1.3561	-0.959	-1.0293	-0.4271	-0.6711	-0.414	-0.3234	-0.0855	-0.4474	-0.3177	-0.4117	-0.4379	-1.0823	-0.8461	-0.8278	-1.3462	-1.3855	-0.2226	-0.7875	-0.5659	-0.0352	0.1313	0.2569	0.8437	-0.083	-0.845	-0.3486
-74.2188	-0.9882	-1.3572	-1.1057	-1.4953	-1.2069	-1.2316	-0.8101	-0.7972	-0.5955	-0.6852	-0.5482	-0.7914	-0.6293	-0.7434	-0.727	-1.3726	-1.0017	-1.2142	-1.6522	-1.6895	-0.5232	-1.2247	-1.0684	-0.5737	-0.1421	0.0974	0.5499	-0.2528	-0.997	-0.5687
-70.3125	-0.9382	-1.4019	-1.0845	-1.5305	-1.3743	-1.3398	-1.135	-0.8537	-0.7135	-0.9672	-0.9294	-1.0126	-0.8972	-1.0182	-0.9612	-1.548	-1.0487	-1.4969	-1.8598	-1.8716	-0.7856	-1.5898	-1.5049	-1.0521	-0.3828	-0.0196	0.2785	-0.2967	-1.0024	-0.7093
-66.4062	-0.7679	-1.3175	-0.9118	-1.4425	-1.4375	-1.3252	-1.3649	-0.8224	-0.7526	-1.1496	-1.1953	-1.0953	-1.0982	-1.2142	-1.1011	-1.593	-0.9856	-1.6403	-1.9609	-1.9238	-0.9942	-1.8619	-1.8363	-1.4505	-0.592	-0.1064	0.0328	-0.2326	-0.8529	-0.7608
-62.5	-0.4925	-1.1082	-0.5914	-1.2292	-1.3902	-1.178	-1.479	-0.6974	-0.711	-1.2282	-1.3279	-1.0511	-1.2193	-1.3249	-1.1178	-1.5072	-0.8256	-1.6247	-1.9613	-1.8578	-1.1452	-2.0335	-2.037	-1.7613	-0.7792	-0.1865	-0.1954	-0.1024	-0.5596	-0.7237
-58.5938	-0.1425	-0.7973	-0.1498	-0.9086	-1.2454	-0.9102	-1.4781	-0.4888	-0.6014	-1.213	-1.3278	-0.9143	-1.258	-1.3594	-0.9987	-1.3078	-0.5936	-1.448	-1.8765	-1.7014	-1.2446	-2.1075	-2.0959	-1.986	-0.9558	-0.2865	-0.4205	0.0381	-0.1503	-0.6075
-54.6875	0.2423	-0.4249	0.3661	-0.5182	-1.0342	-0.556	-1.3852	-0.2229	-0.45	-1.1242	-1.2146	-0.7318	-1.2225	-1.3386	-0.7517	-1.0284	-0.3214	-1.1258	-1.7262	-1.4923	-1.3051	-2.0941	-2.0159	-2.1317	-1.128	-0.427	-0.6565	0.133	0.3335	-0.428
-50.7812	0.618	-0.0436	0.895	-0.111	-0.8009	-0.167	-1.2406	0.0611	-0.2917	-0.9892	-1.0236	-0.5523	-1.1304	-1.291	-0.4059	-0.716	-0.0434	-0.6899	-1.5306	-1.2712	-1.3431	-2.008	-1.8138	-2.2083	-1.2922	-0.6155	-0.9115	0.1389	0.8398	-0.2053
-46.875	0.9414	0.288	1.3677	0.251	-0.5972	0.1945	-1.0931	0.3177	-0.1631	-0.8385	-0.7998	-0.4153	-1.0079	-1.2475	-0.0097	-0.4261	0.2054	-0.1853	-1.3097	-1.0769	-1.377	-1.8677	-1.5195	-2.2266	-1.4336	-0.8424	-1.1845	0.0338	1.3106	0.0387
-42.9688	1.173	0.5116	1.716	0.5044	-0.474	0.4644	-0.9894	0.5034	-0.0948	-0.7019	-0.5885	-0.3455	-0.8864	-1.237	0.3763	-0.216	0.3908	0.332	-1.0855	-0.9442	-1.4262	-1.6971	-1.1755	-2.1978	-1.5298	-1.0827	-1.4656	-0.1794	1.6872	0.2795
-39.0625	1.2794	0.5767	1.8816	0.5933	-0.4745	0.5859	-0.9649	0.5846	-0.1051	-0.6048	-0.4258	-0.3502	-0.7982	-1.2831	0.6874	-0.1385	0.4795	0.7999	-0.8862	-0.9026	-1.5111	-1.5269	-0.8345	-2.1351	-1.5575	-1.3012	-1.738	-0.4754	1.9174	0.4907
-35.1562	1.236	0.4479	1.8252	0.4787	-0.6262	0.5177	-1.0381	0.5429	-0.1966	-0.5648	-0.332	-0.4217	-0.7718	-1.4015	0.8659	-0.2336	0.4407	1.1566	-0.747	-0.9756	-1.6517	-1.3939	-0.5551	-2.0542	-1.4999	-1.4616	-1.9826	-0.813	1.9634	0.644
-31.25	1.0314	0.1127	1.534	0.1467	-0.935	0.2418	-1.2079	0.3778	-0.3564	-0.5895	-0.3091	-0.5412	-0.8265	-1.5981	0.8713	-0.5214	0.2514	1.3507	-0.7074	-1.1778	-1.8643	-1.3378	-0.3935	-1.9734	-1.3526	-1.5352	-2.1817	-1.1448	1.8092	0.7132
-27.3438	0.6708	-0.4138	1.0271	-0.3858	-1.3828	-0.2319	-1.4561	0.1053	-0.5597	-0.6756	-0.3429	-0.6835	-0.9686	-1.8682	0.6891	-0.9954	-0.0977	1.3511	-0.8025	-1.5114	-2.1576	-1.3934	-0.3933	-1.9113	-1.127	-1.5074	-2.3227	-1.4262	1.4655	0.6798
-23.4375	0.1794	-1.0872	0.3551	-1.0703	-1.9285	-0.8645	-1.7525	-0.2464	-0.7768	-0.8106	-0.4098	-0.8205	-1.1903	-2.1973	0.3356	-1.6201	-0.5952	1.1557	-1.0529	-1.9626	-2.529	-1.5816	-0.5755	-1.8834	-0.8486	-1.3803	-2.3987	-1.6233	0.9707	0.5394
-19.5312	-0.3977	-1.8387	-0.4047	-1.8333	-2.515	-1.5922	-2.0618	-0.6421	-0.9801	-0.9751	-0.4846	-0.925	-1.4703	-2.5629	-0.1431	-2.334	-1.2059	0.7952	-1.4554	-2.5001	-2.9626	-1.9022	-0.9313	-1.8978	-0.5528	-1.1717	-2.4083	-1.717	0.3865	0.3063
-15.625	-0.9991	-2.5843	-1.1603	-2.5871	-3.0789	-2.3355	-2.3488	-1.0453	-1.15	-1.1473	-0.5484	-0.9737	-1.7777	-2.9372	-0.6781	-3.0581	-1.8718	0.3287	-1.9778	-3.0769	-3.4298	-2.3304	-1.4225	-1.952	-0.2777	-0.9101	-2.355	-1.704	-0.2112	0.0144
-11.7188	-1.5548	-3.2384	-1.819	-3.2447	-3.5609	-3.0117	-2.5833	-1.4219	-1.2771	-1.3062	-0.5934	-0.9509	-2.0775	-3.2902	-1.1897	-3.7082	-2.5184	-0.1663	-2.5615	-3.6361	-3.8925	-2.8184	-1.9863	-2.0313	-0.0563	-0.6282	-2.2451	-1.5944	-0.7445	-0.2876
-7.8125	-1.9971	-3.7278	-2.3039	-3.7343	-3.9156	-3.5479	-2.7412	-1.7435	-1.3616	-1.4346	-0.6238	-0.8514	-2.3355	-3.5925	-1.6018	-4.2091	-3.0661	-0.6082	-3.1305	-4.1188	-4.3091	-3.3035	-2.5477	-2.1106	0.0897	-0.3562	-2.0874	-1.4079	-1.147	-0.5458
-3.9062	-2.2736	-4.0041	-2.5679	-4.0106	-4.117	-3.8935	-2.8069	-1.9887	-1.4098	-1.5211	-0.653	-0.6828	-2.5238	-3.8192	-1.8573	-4.5076	-3.4443	-0.9277	-3.6064	-4.4738	-4.6402	-3.7196	-3.0328	-2.1601	0.1534	-0.1166	-1.8923	-1.1686	-1.3755	-0.7126
0	-2.3587	-4.0523	-2.6029	-4.0617	-4.1618	-4.0284	-2.7755	-2.1456	-1.4307	-1.5609	-0.6976	-0.4653	-2.6255	-3.9534	-1.9305	-4.582	-3.6061	-1.0807	-3.9247	-4.6678	-4.8565	-4.011	-3.3829	-2.1518	0.1421	0.0783	-1.6725	-0.9009	-1.4179	-0.7594
3.9062	-2.2601	-3.8932	-2.4405	-3.9096	-4.0674	-3.9652	-2.6558	-2.2115	-1.4321	-1.5558	-0.7708	-0.2288	-2.6366	-3.9906	-1.8327	-4.4458	-3.5388	-1.0571	-4.0499	-4.6916	-4.9436	-4.1434	-3.5651	-2.0679	0.0735	0.2254	-1.4431	-0.6261	-1.2955	-0.6835
7.8125	-2.0188	-3.5782	-2.1443	-3.6046	-3.8679	-3.7451	-2.4723	-2.1934	-1.4193	-1.5132	-0.8761	-0.0078	-2.5676	-3.9399	-1.609	-4.1435	-3.2687	-0.8811	-3.9823	-4.5632	-4.9064	-4.1114	-3.5764	-1.9055	-0.0302	0.3284	-1.2212	-0.3613	-1.0578	-0.51
11.7188	-1.7001	-3.1791	-1.795	-3.215	-3.6067	-3.4271	-2.2622	-2.1042	-1.3935	-1.4439	-1.0047	0.1664	-2.4406	-3.8239	-1.3266	-3.7418	-2.8568	-0.604	-3.7576	-4.3234	-4.7684	-3.939	-3.4426	-1.6795	-0.1481	0.3935	-1.0248	-0.1181	-0.7723	-0.2849
15.625	-1.3784	-2.7736	-1.4711	-2.8139	-3.3286	-3.0752	-2.0694	-1.9598	-1.3522	-1.3591	-1.1357	0.2736	-2.2853	-3.6745	-1.0573	-3.3159	-2.3871	-0.2916	-3.4378	-4.0285	-4.5682	-3.6737	-3.2108	-1.4193	-0.2654	0.4261	-0.8704	0.0955	-0.5088	-0.0628
19.5312	-1.1195	-2.4295	-1.2317	-2.4655	-3.0721	-2.7445	-1.9334	-1.7738	-1.2893	-1.2674	-1.2404	0.3095	-2.1325	-3.5273	-0.8596	-2.9358	-1.9488	-0.0083	-3.0961	-3.7375	-4.3519	-3.3759	-2.9385	-1.1643	-0.3747	0.4285	-0.7701	0.2751	-0.3234	0.1073
23.4375	-0.9651	-2.1929	-1.1049	-2.2139	-2.8622	-2.4714	-1.8788	-1.5551	-1.1968	-1.1727	-1.2881	0.2861	-2.0075	-3.4135	-0.7647	-2.654	-1.6183	0.1964	-2.7999	-3.5002	-4.1636	-3.105	-2.6806	-0.9553	-0.4753	0.4	-0.7292	0.4179	-0.246	0.1948
27.3438	-0.9252	-2.0804	-1.0842	-2.0765	-2.7078	-2.268	-1.9086	-1.3071	-1.0664	-1.0739	-1.2538	0.2274	-1.9253	-3.3534	-0.7716	-2.4974	-1.4422	0.2975	-2.5953	-3.3468	-4.0351	-2.907	-2.4792	-0.827	-0.5703	0.3383	-0.7451	0.5216	-0.2746	0.1939
31.25	-0.9786	-2.0791	-1.1348	-2.0432	-2.6012	-2.1241	-2.003	-1.0308	-0.8936	-0.967	-1.125	0.1613	-1.8885	-3.3521	-0.8507	-2.4644	-1.4287	0.2974	-2.4982	-3.282	-3.9788	-2.8048	-2.3554	-0.8014	-0.6626	0.2419	-0.8079	0.5833	-0.379	0.123
35.1562	-1.0825	-2.1524	-1.2065	-2.0815	-2.5232	-2.0139	-2.1262	-0.7304	-0.6808	-0.8488	-0.9077	0.1109	-1.8892	-3.399	-0.9559	-2.5288	-1.5481	0.2215	-2.4934	-3.2861	-3.985	-2.7954	-2.3081	-0.8844	-0.7525	0.1107	-0.9038	0.5983	-0.5122	0.0159
39.0625	-1.1875	-2.2523	-1.2505	-2.1468	-2.4497	-1.9072	-2.2372	-0.4189	-0.4405	-0.7211	-0.6282	0.0859	-1.9133	-3.472	-1.0407	-2.6479	-1.7436	0.1091	-2.5419	-3.3219	-4.0259	-2.8533	-2.3183	-1.0656	-0.8362	-0.0525	-1.0194	0.5587	-0.6271	-0.0908
42.9688	-1.2538	-2.3336	-1.2348	-2.1964	-2.3624	-1.782	-2.303	-0.1216	-0.1966	-0.5942	-0.3307	0.0803	-1.9479	-3.5456	-1.0743	-2.7766	-1.9495	-0.0003	-2.5954	-3.3473	-4.0654	-2.9408	-2.3576	-1.3216	-0.9063	-0.2426	-1.1458	0.4553	-0.6921	-0.1715
46.875	-1.264	-2.3683	-1.1561	-2.2028	-2.2572	-1.6352	-2.309	0.1247	0.0175	-0.4883	-0.0703	0.0725	-1.9878	-3.601	-1.0536	-2.8804	-2.1122	-0.0796	-2.6136	-3.3302	-4.0725	-3.0218	-2.4009	-1.6228	-0.9547	-0.4518	-1.2813	0.2784	-0.7028	-0.222
50.7812	-1.2307	-2.3568	-1.0434	-2.1656	-2.152	-1.4897	-2.2653	0.2774	0.1643	-0.4313	0.0979	0.0313	-2.0417	-3.6364	-1.0086	-2.948	-2.2083	-0.1243	-2.5799	-3.2628	-4.0356	-3.0763	-2.4373	-1.9415	-0.9747	-0.6703	-1.4328	0.0221	-0.686	-0.2628
54.6875	-1.1964	-2.3311	-0.9537	-2.1155	-2.0876	-1.3937	-2.2061	0.2967	0.209	-0.4547	0.1294	-0.0761	-2.1334	-3.6729	-0.9981	-2.9967	-2.2538	-0.1566	-2.512	-3.1705	-3.9722	-3.1104	-2.4772	-2.2598	-0.9644	-0.8868	-1.6132	-0.3118	-0.6964	-0.3365
58.5938	-1.2264	-2.3506	-0.9612	-2.1102	-2.1224	-1.4117	-2.1826	0.1564	0.1287	-0.5861	0.0003	-0.2752	-2.2995	-3.7538	-1.0981	-3.0708	-2.3034	-0.222	-2.4618	-3.1117	-3.9308	-3.1589	-2.5517	-2.5735	-0.9279	-1.0887	-1.837	-0.7103	-0.8051	-0.4984
62.5	-1.3955	-2.4887	-1.1401	-2.2214	-2.3201	-1.6096	-2.2504	-0.1481	-0.0821	-0.8421	-0.2881	-0.5763	-2.5805	-3.9358	-1.3825	-3.2314	-2.4372	-0.3787	-2.5039	-3.1672	-3.9813	-3.2767	-2.7051	-2.8907	-0.8741	-1.2626	-2.1139	-1.1471	-1.083	-0.8029
66.4062	-1.77	-2.8135	-1.5464	-2.5145	-2.7315	-2.0352	-2.4546	-0.5961	-0.4076	-1.2222	-0.7079	-0.9697	-3.0084	-4.2729	-1.9031	-3.5389	-2.7375	-0.6815	-2.7151	-3.4194	-4.1968	-3.5227	-2.9807	-3.2238	-0.8137	-1.393	-2.4429	-1.5832	-1.5822	-1.2886
70.3125	-2.389	-3.3659	-2.2008	-3.0281	-3.3765	-2.7014	-2.817	-1.1443	-0.8138	-1.7054	-1.2099	-1.4243	-3.5934	-4.7969	-2.6707	-4.0321	-3.2625	-1.1631	-3.1476	-3.9269	-4.6293	-3.9379	-3.4048	-3.5801	-0.7539	-1.4629	-2.8075	-1.9709	-2.3176	-1.9638
74.2188	-3.2471	-4.142	-3.0769	-3.757	-4.2297	-3.5747	-3.3274	-1.7341	-1.2541	-2.251	-1.7322	-1.8917	-4.3129	-5.5005	-3.6446	-4.7106	-4.0215	-1.8183	-3.8066	-4.7004	-5.2878	-4.5257	-3.9718	-3.952	-0.6942	-1.4533	-3.1736	-2.2601	-3.2557	-2.7966
78.125	-4.2854	-5.0845	-4.0988	-4.6449	-5.2159	-4.5745	-3.9411	-2.3022	-1.6785	-2.803	-2.2107	-2.3126	-5.1078	-6.3284	-4.7326	-5.5249	-4.9624	-2.596	-4.6383	-5.6889	-6.1261	-5.2422	-4.6381	-4.3128	-0.6246	-1.3454	-3.4925	-2.405	-4.3128	-3.7134
82.0312	-5.3935	-6.0869	-5.1485	-5.59	-6.2178	-5.584	-4.5843	-2.79	-2.041	-3.2976	-2.5887	-2.6253	-5.8871	-7.1809	-5.8034	-6.3796	-5.9754	-3.403	-5.5351	-6.7817	-7.0449	-5.9994	-5.3254	-4.6189	-0.5275	-1.1235	-3.7068	-2.3705	-5.3651	-4.6063
85.9375	-6.4235	-7.0097	-6.0846	-6.4614	-7.0945	-6.4694	-5.1656	-3.1515	-2.3061	-3.6716	-2.8244	-2.7744	-6.5428	-7.9309	-6.7096	-7.1487	-6.9132	-4.1206	-6.356	-7.8254	-7.9087	-6.6811	-5.9348	-4.8183	-0.3833	-0.7796	-3.7615	-2.1372	-6.2688	-5.3511
89.8438	-7.2156	-7.7061	-6.7653	-7.123	-7.7076	-7.1041	-5.5912	-3.3577	-2.4518	-3.8729	-2.895	-2.719	-6.9691	-8.4481	-7.3153	-7.7003	-7.6215	-4.6282	-6.957	-8.6542	-8.5737	-7.1686	-6.3674	-4.8629	-0.1783	-0.3176	-3.6147	-1.7042	-6.8859	-5.8305
93.75	-7.6284	-8.0496	-7.0743	-7.4586	-7.9476	-7.3911	-5.7822	-3.3975	-2.47	-3.8678	-2.7974	-2.439	-7.0846	-8.6264	-7.5216	-7.9233	-7.9726	-4.8284	-7.2218	-9.1234	-8.9171	-7.3662	-6.5455	-4.7205	0.0884	0.2429	-3.2487	-1.0901	-7.1089	-5.9573
97.6562	-7.5672	-7.9579	-6.941	-7.3933	-7.7546	-7.279	-5.6892	-3.2768	-2.3657	-3.6473	-2.5468	-1.9393	-6.8483	-8.4059	-7.2835	-7.749	-7.8909	-4.6675	-7.0855	-9.1387	-8.8618	-7.221	-6.4281	-4.3839	0.4009	0.8666	-2.676	-0.3325	-6.8809	-5.6913
101.5625	-7.0037	-7.408	-6.3534	-6.9056	-7.1294	-6.7691	-5.3018	-3.0159	-2.1557	-3.2285	-2.1732	-1.2492	-6.27	-7.7854	-6.6153	-7.164	-7.366	-4.1458	-6.5452	-8.6739	-8.3907	-6.7332	-6.0187	-3.8753	0.7268	1.5032	-1.9403	0.5138	-6.205	-5.0469
105.4688	-5.9823	-6.4393	-5.359	-6.0303	-6.1318	-5.9131	-4.6515	-2.6463	-1.8659	-2.6525	-1.7176	-0.4198	-5.4087	-6.8226	-5.5847	-6.2107	-6.4521	-3.3165	-5.6576	-7.7724	-7.547	-5.9536	-5.3625	-3.2445	1.0226	2.0925	-1.1121	1.3802	-5.1434	-4.09
109.375	-4.6109	-5.1443	-4.0558	-4.8495	-4.8672	-4.8021	-3.8072	-2.2068	-1.5291	-1.9783	-1.2264	0.4828	-4.3634	-5.6222	-4.2979	-4.9766	-5.2526	-2.2731	-4.5235	-6.5348	-6.4224	-4.9713	-4.5365	-2.5602	1.2413	2.5708	-0.2786	2.1898	-3.8068	-2.925
113.2812	-3.0403	-3.6509	-2.5748	-3.477	-3.466	-3.5513	-2.8641	-1.7388	-1.18	-1.2735	-0.7467	1.3843	-3.2556	-4.316	-2.8808	-3.5768	-3.8978	-1.1298	-3.2659	-5.0957	-5.1381	-3.8952	-3.6342	-1.898	1.3416	2.8793	0.4691	2.8638	-2.3356	-1.6759
117.1875	-1.4367	-2.0989	-1.0573	-2.0378	-2.0598	-2.2816	-1.9285	-1.282	-0.852	-0.6052	-0.3206	2.2095	-2.2095	-3.0396	-1.4594	-2.1323	-2.5184	0.0005	-2.0054	-3.5968	-3.8212	-2.8321	-2.7476	-1.3261	1.2958	2.9721	1.0485	3.3301	-0.8778	-0.4658
121.0938	0.0471	-0.6178	0.3662	-0.6485	-0.7614	-1.1034	-1.1011	-0.8702	-0.5725	-0.031	0.018	2.8888	-1.3324	-1.9102	-0.1441	-0.7512	-1.2237	1.0258	-0.8401	-2.1625	-2.5836	-1.8696	-1.9522	-0.8951	1.0947	2.8237	1.3978	3.5327	0.4332	0.6008
125	1.2937	0.6901	1.5922	0.5973	0.3486	-0.104	-0.4629	-0.5288	-0.361	0.4069	0.2467	3.3639	-0.7	-1.0113	0.9816	0.4852	-0.0864	1.887	0.166	-0.8833	-1.5072	-1.0644	-1.2973	-0.6322	0.7501	2.4346	1.4838	3.4393	1.496	1.4514
128.9062	2.2328	1.7589	2.5528	1.6372	1.2264	0.6593	-0.0642	-0.2743	-0.2274	0.6846	0.3553	3.5933	-0.3482	-0.3848	1.8655	1.5282	0.8602	2.5614	0.9857	0.1906	-0.6362	-0.4403	-0.8019	-0.5419	0.2931	1.8324	1.3048	3.048	2.2515	2.0494
132.8125	2.8429	2.5592	3.2156	2.4408	1.8624	1.1617	0.0799	-0.1149	-0.1724	0.7968	0.3459	3.5563	-0.272	-0.0313	2.487	2.3602	1.6165	3.0576	1.6215	1.0463	0.0219	0.0086	-0.4576	-0.6094	-0.2291	1.0709	0.8899	2.389	2.6837	2.3928
136.7188	3.1426	3.0939	3.5788	3.0056	2.2742	1.408	-0.0105	-0.0513	-0.1884	0.7556	0.231	3.2557	-0.4301	0.0841	2.8531	2.9888	2.204	3.4049	2.0954	1.7004	0.4904	0.3086	-0.2356	-0.8057	-0.7586	0.2251	0.294	1.5237	2.814	2.5069
140.625	3.1788	3.3898	3.6646	3.3516	2.4993	1.4291	-0.2842	-0.0778	-0.2613	0.5881	0.0323	2.718	-0.7547	0.0227	2.9927	3.4393	2.6514	3.6405	2.4373	2.1881	0.814	0.4983	-0.0948	-1.0912	-1.2332	-0.6172	-0.4092	0.5378	2.6894	2.4349
144.5312	3.0133	3.4905	3.5118	3.5151	2.5879	1.2755	-0.6676	-0.1824	-0.3712	0.3334	-0.2213	1.9923	-1.1622	-0.138	2.9494	3.7478	2.9852	3.7991	2.6772	2.5547	1.0494	0.6208	0.0091	-1.4181	-1.5929	-1.3649	-1.1357	-0.4686	2.3711	2.2281
148.4375	2.7124	3.4493	3.1711	3.543	2.5985	1.0111	-1.0754	-0.3463	-0.4948	0.0391	-0.4968	1.1455	-1.566	-0.3152	2.7733	3.9549	3.2238	3.9067	2.8413	2.8479	1.2565	0.7184	0.117	-1.7328	-1.7874	-1.9342	-1.8009	-1.3934	1.9228	1.9384
152.3438	2.3395	3.3241	2.7015	3.4884	2.5921	0.7053	-1.4247	-0.5453	-0.6076	-0.2445	-0.7605	0.2558	-1.8872	-0.4304	2.5135	4.1026	3.3793	3.9777	2.9525	3.1139	1.4913	0.8291	0.2607	-1.9802	-1.7822	-2.2592	-2.3285	-2.146	1.4042	1.6124
156.25	1.9517	3.1738	2.1665	3.4062	2.6272	0.4259	-1.6466	-0.7523	-0.6869	-0.4699	-0.9819	-0.595	-2.0644	-0.4188	2.212	4.2314	3.4615	4.0177	3.0323	3.3938	1.8	0.9851	0.461	-2.1085	-1.5642	-2.3001	-2.6587	-2.6577	0.8666	1.2878
160.1562	1.5991	3.0541	1.6312	3.3494	2.7529	0.2308	-1.6952	-0.9408	-0.7153	-0.5982	-1.1361	-1.3304	-2.0582	-0.2362	1.9024	4.3781	3.4846	4.0272	3.1041	3.7223	2.2159	1.2116	0.7267	-2.0743	-1.1432	-2.0479	-2.7535	-2.8885	0.3527	0.9923
164.0625	1.324	3.0139	1.1567	3.3646	3.0022	0.161	-1.5505	-1.0887	-0.6832	-0.6043	-1.2057	-1.8863	-1.8534	0.1372	1.6114	4.5748	3.4705	4.0077	3.1935	4.1253	2.7567	1.5261	1.056	-1.8482	-0.5503	-1.524	-2.5994	-2.8286	-0.1029	0.7428
167.9688	1.1595	3.0909	0.7943	3.4875	3.387	0.2356	-1.2164	-1.1809	-0.5904	-0.4784	-1.181	-2.2176	-1.4568	0.6955	1.3619	4.8453	3.4494	3.9656	3.3269	4.6183	3.4233	1.937	1.4388	-1.4178	0.1678	-0.7756	-2.2063	-2.4946	-0.4743	0.5466
171.875	1.1253	3.3053	0.5778	3.7373	3.8953	0.4485	-0.7158	-1.2115	-0.4456	-0.2269	-1.0608	-2.3023	-0.8944	1.4081	1.1755	5.2014	3.4539	3.9133	3.5265	5.2027	4.199	2.441	1.8582	-0.7912	0.9562	0.1336	-1.6044	-1.924	-0.7461	0.4026
175.7812	1.2235	3.6543	0.5175	4.1114	4.4922	0.7689	-0.0864	-1.1832	-0.2657	0.1284	-0.8533	-2.1432	-0.2086	2.223	1.0703	5.6384	3.5113	3.8668	3.8028	5.8627	5.049	3.0212	2.2923	0.0019	1.76	1.1325	-0.8407	-1.1675	-0.916	0.3024
179.6875	1.4343	4.1082	0.5963	4.5814	5.1235	1.1445	0.6234	-1.1073	-0.0731	0.5532	-0.5765	-1.7669	0.5452	3.0712	1.0548	6.1308	3.6332	3.839	4.1488	6.5617	5.9203	3.6446	2.7145	0.9097	2.5307	2.1518	0.0263	-0.2836	-0.9972	0.2317
183.5938	1.7155	4.6106	0.7704	5.0926	5.7221	1.5083	1.3563	-1.0011	0.1069	1.0037	-0.2573	-1.2197	1.3012	3.8735	1.1214	6.6323	3.8088	3.8328	4.5349	7.2423	6.7445	4.2625	3.0942	1.8617	3.2297	3.1311	0.9311	0.6668	-1.0181	0.1716
187.5	2.0069	5.0844	0.976	5.5691	6.2167	1.7883	2.0498	-0.8849	0.2507	1.4329	0.0711	-0.5615	1.9893	4.5488	1.2427	7.0802	4.0033	3.8359	4.9104	7.8312	7.4429	4.8141	3.3975	2.776	3.8294	4.0218	1.8064	1.6232	-1.0183	0.0993
191.4062	2.2397	5.4439	1.1404	5.9255	6.5415	1.9192	2.6418	-0.7782	0.3405	1.7972	0.3746	0.1431	2.5419	5.0242	1.3734	7.4046	4.1627	3.8191	5.21	8.2484	7.9356	5.2338	3.5909	3.5687	4.3118	4.7885	2.589	2.5282	-1.0414	-0.0091
195.3125	2.3487	5.6104	1.1964	6.0824	6.6458	1.854	3.0787	-0.6955	0.3688	2.063	0.6237	0.8325	2.9035	5.2461	1.4583	7.5403	4.2244	3.7418	5.3652	8.4212	8.153	5.461	3.6437	4.1653	4.6669	5.4075	3.2262	3.3292	-1.1269	-0.1761
199.2188	2.285	5.5278	1.0957	5.9828	6.5025	1.5736	3.3236	-0.6449	0.3393	2.212	0.7983	1.4547	3.0384	5.1882	1.443	7.4397	4.1302	3.5603	5.318	8.2975	8.0484	5.4499	3.5325	4.5092	4.8896	5.8639	3.6805	3.9797	-1.3025	-0.4203
203.125	2.0265	5.1758	0.8192	5.6066	6.1133	1.0912	3.3631	-0.6282	0.2655	2.2414	0.8905	1.9713	2.9366	4.857	1.285	7.0825	3.8399	3.2392	5.0329	7.8575	7.6078	5.1777	3.2441	4.5687	4.9775	6.1488	3.9328	4.4406	-1.5804	-0.7539
207.0312	1.5823	4.5751	0.3804	4.9769	5.5093	0.4514	3.2102	-0.6424	0.1663	2.1626	0.9047	2.3579	2.6158	4.2915	0.9626	6.4809	3.34	2.7614	4.5064	7.1195	6.8562	4.6506	2.7794	4.3409	4.9306	6.2566	3.9829	4.6821	-1.9574	-1.1801
210.9375	0.9914	3.7856	-0.1766	4.1586	4.7474	-0.2772	2.9025	-0.682	0.0611	1.9965	0.8549	2.6027	2.1189	3.5584	0.4798	5.679	2.6473	2.1338	3.7691	6.1391	5.8569	3.9051	2.1564	3.853	4.7515	6.1855	3.8481	4.6865	-2.4175	-1.6915
214.8438	0.3143	2.8956	-0.7877	3.2478	3.9029	-1.0125	2.4957	-0.7405	-0.0338	1.7693	0.7601	2.7043	1.5079	2.7421	-0.1334	4.7462	1.8053	1.3878	2.8822	5.0017	4.7039	3.0054	1.4119	3.1603	4.4485	5.9395	3.5606	4.452	-2.9363	-2.2701
218.75	-0.3784	2.0063	-1.3815	2.3545	3.0591	-1.6735	2.0531	-0.8113	-0.1083	1.5085	0.6392	2.6689	0.855	1.9328	-0.8264	3.767	0.876	0.5743	1.9283	3.8103	3.5085	2.0354	0.6006	2.3409	4.0386	5.5317	3.1627	3.9953	-3.4853	-2.8878
222.6562	-1.0202	1.2135	-1.8946	1.5832	2.2959	-2.1926	1.6337	-0.8878	-0.1585	1.2395	0.507	2.5085	0.2322	1.2125	-1.5371	2.8282	-0.0705	-0.2447	0.9971	2.6692	2.3827	1.0876	-0.2105	1.4849	3.5493	4.9868	2.7022	3.3522	-4.0352	-3.5104
226.5625	-1.5613	0.5912	-2.2835	1.0138	1.6788	-2.5275	1.2815	-0.9644	-0.1867	0.9835	0.3722	2.2391	-0.2991	0.6445	-2.2044	2.0057	-0.9679	-1.0071	0.1711	1.6687	1.4224	0.249	-0.9506	0.6828	3.0178	4.3426	2.2271	2.5754	-4.5595	-4.1017
230.4688	-1.9777	0.1787	-2.5327	0.6881	1.2513	-2.6664	1.0188	-1.0363	-0.1997	0.7567	0.2387	1.8809	-0.6947	0.2661	-2.7807	1.3528	-1.7631	-1.6599	-0.4869	0.8713	0.6949	-0.4106	-1.5557	0.0136	2.4888	3.6477	1.7805	1.7299	-5.0384	-4.6306
234.375	-2.2746	-0.0239	-2.6555	0.6048	1.0313	-2.6282	0.8466	-1.0995	-0.2066	0.5697	0.1073	1.4583	-0.931	0.0863	-3.2408	0.8923	-2.4227	-2.1677	-0.9423	0.3046	0.2307	-0.8482	-1.9787	-0.4649	2.0093	2.9585	1.3982	0.8872	-5.4621	-5.0767
238.2812	-2.4839	-0.0532	-2.6905	0.7219	1.011	-2.4566	0.7493	-1.151	-0.2165	0.4286	-0.0209	1.0005	-1.0044	0.089	-3.5866	0.6149	-2.9356	-2.5173	-1.1918	-0.0397	0.0243	-1.0513	-2.1947	-0.7209	1.6239	2.3339	1.1078	0.1197	-5.8336	-5.4353
242.1875	-2.6555	0.0278	-2.6922	0.9683	1.1609	-2.2101	0.7039	-1.1887	-0.237	0.3358	-0.1413	0.5418	-0.9278	0.2402	-3.8443	0.4835	-3.3105	-2.7173	-1.2596	-0.1996	0.0398	-1.0353	-2.2029	-0.7497	1.3688	1.8298	0.9289	-0.5058	-6.1695	-5.7187
246.0938	-2.8452	0.1444	-2.7199	1.2604	1.4369	-1.9496	0.6882	-1.2107	-0.2727	0.2917	-0.2447	0.12	-0.7243	0.4974	-4.0562	0.4439	-3.5697	-2.794	-1.1887	-0.2297	0.223	-0.8366	-2.0228	-0.5701	1.2675	1.492	0.8742	-0.9336	-6.4983	-5.9545
250	-3.1015	0.2286	-2.825	1.5213	1.7898	-1.7264	0.6885	-1.2156	-0.324	0.2961	-0.316	-0.2262	-0.4214	0.8196	-4.2685	0.4391	-3.7392	-2.7837	-1.0285	-0.1864	0.5156	-0.5021	-1.6878	-0.2186	1.3278	1.3512	0.9498	-1.1242	-6.8549	-6.1796
253.9062	-3.4549	0.2342	-3.0395	1.698	2.1754	-1.5714	0.7026	-1.2015	-0.3861	0.3502	-0.3357	-0.4604	-0.0448	1.1767	-4.5186	0.4256	-3.8394	-2.7228	-0.8217	-0.1122	0.8693	-0.0776	-1.2371	0.2595	1.5407	1.4193	1.1554	-1.0584	-7.2729	-6.432
257.8125	-3.911	0.1481	-3.3687	1.7731	2.5642	-1.4894	0.7409	-1.1652	-0.4477	0.4587	-0.2817	-0.5513	0.3861	1.5551	-4.8249	0.3841	-3.8768	-2.6395	-0.5937	-0.0244	1.2568	0.4024	-0.7081	0.819	1.882	1.6886	1.4845	-0.7379	-7.7747	-6.7414
261.7188	-4.4497	-0.0077	-3.7887	1.7675	2.9461	-1.4592	0.8238	-1.1008	-0.4902	0.6308	-0.1328	-0.4751	0.8612	1.9596	-5.1816	0.3252	-3.842	-2.548	-0.3466	0.0898	1.6769	0.9207	-0.1305	1.4236	2.3164	2.1343	1.9261	-0.1847	-8.3647	-7.122
265.625	-5.0301	-0.1817	-4.2512	1.7332	3.3311	-1.4404	0.9768	-1.0004	-0.4882	0.8793	0.129	-0.2167	1.3793	2.4105	-5.5616	0.2855	-3.7129	-2.4476	-0.0604	0.2686	2.1519	1.4784	0.4754	2.0522	2.8036	2.7196	2.4661	0.5638	-9.0248	-7.5692
269.5312	-5.6	-0.308	-4.694	1.7381	3.7426	-1.3856	1.2244	-0.854	-0.4116	1.218	0.5157	0.2293	1.9455	2.9355	-5.925	0.3151	-3.4648	-2.3277	0.2977	0.5644	2.7185	2.0897	1.0978	2.699	3.3041	3.4013	3.0898	1.46	-9.7175	-8.0617
273.4375	-6.1089	-0.3238	-5.0565	1.8464	4.207	-1.2538	1.5838	-0.6528	-0.23	1.6572	1.0317	0.8579	2.5656	3.5594	-6.233	0.4617	-3.0814	-2.1758	0.7608	1.0263	3.4134	2.7717	1.7285	3.3696	3.7848	4.1361	3.7829	2.453	-10.3952	-8.5692
277.3438	-6.5193	-0.1874	-5.2946	2.1008	4.7414	-1.0225	2.0601	-0.3918	0.0812	2.1983	1.6724	1.6529	3.2404	4.2937	-6.4607	0.7545	-2.5665	-1.9887	1.3475	1.6835	4.259	3.5335	2.3572	4.0719	4.2221	4.8851	4.5308	3.4927	-11.0132	-9.0619
281.25	-6.8151	0.1112	-5.3927	2.5108	5.3449	-0.693	2.6436	-0.0732	0.5343	2.8302	2.4225	2.5851	3.9609	5.1296	-6.6054	1.1932	-1.948	-1.7787	2.0526	2.5336	5.2524	4.368	2.9684	4.8078	4.6023	5.6152	5.3169	4.5334	-11.543	-9.5204
285.1562	-7.0035	0.5478	-5.3668	3.0506	5.9961	-0.29	3.3107	0.2918	1.1232	3.5274	3.2544	3.6127	4.7067	6.0371	-6.6871	1.7477	-1.2756	-1.5758	2.8452	3.5402	6.3622	5.2497	3.5408	5.5664	4.9206	6.2997	6.1195	5.5333	-11.9806	-9.9409
289.0625	-7.1102	1.0722	-5.2597	3.668	6.6583	0.146	4.028	0.6837	1.8216	4.2531	4.1274	4.6825	5.4485	6.9703	-6.7412	2.3667	-0.6094	-1.4207	3.6758	4.6404	7.535	6.1394	4.0523	6.3235	5.1774	6.9159	6.911	6.4539	-12.347	-10.3343
292.9688	-7.1699	1.6247	-5.1258	4.3013	7.2907	0.572	4.7581	1.0779	2.5854	4.9651	4.9905	5.7334	6.155	7.8793	-6.8055	2.9933	-0.005	-1.3527	4.4893	5.7617	8.7088	6.9951	4.4868	7.0459	5.3749	7.4436	7.6582	7.259	-12.6796	-10.7185
296.875	-7.2136	2.1539	-5.0137	4.8986	7.8627	0.9552	5.4672	1.4519	3.3607	5.6242	5.7875	6.7026	6.801	8.7227	-6.9057	3.5831	0.5026	-1.3948	5.2411	6.841	9.8301	7.784	4.8421	7.7005	5.5149	7.8637	8.326	7.9142	-13.0176	-11.1084
300.7812	-7.259	2.6321	-4.9497	5.4328	8.3639	1.2836	6.1305	1.7908	4.0935	6.2018	6.4649	7.5318	7.3742	9.4785	-7.0446	4.1176	0.9089	-1.5431	5.9093	7.8401	10.8681	8.4925	5.1337	8.2625	5.5973	8.1582	8.8823	8.389	-13.3874	-11.5055
304.6875	-7.3042	3.0612	-4.9297	5.9072	8.8073	1.569	6.7352	2.0913	4.7396	6.6836	6.9796	8.1732	7.8775	10.1474	-7.1992	4.6077	1.2404	-1.7628	6.4989	8.7529	11.8196	9.1283	5.3929	8.7209	5.6194	8.3112	9.3019	8.6587	-13.7917	-11.8931
308.5938	-7.3309	3.4672	-4.9215	6.3498	9.2229	1.8415	7.2795	2.361	5.2702	7.0689	7.3044	8.5928	8.3259	10.7488	-7.3272	5.0872	1.5459	-1.9951	7.0362	9.5993	12.7039	9.715	5.6585	9.0774	5.5772	8.3113	9.5698	8.7075	-14.2091	-12.2388
312.5	-7.3131	3.8858	-4.8786	6.798	9.6456	2.1382	7.7689	2.613	5.6728	7.3653	7.4311	8.7728	8.7381	11.3095	-7.3821	5.597	1.88	-2.1715	7.5559	10.4111	13.5488	10.2794	5.9645	9.341	5.4668	8.1545	9.6811	8.5321	-14.6014	-12.5043
316.4062	-7.2311	4.3446	-4.7583	7.2802	10.1011	2.4887	8.2111	2.8598	5.9494	7.5822	7.3689	8.7118	9.1278	11.8502	-7.3318	6.166	2.283	-2.2316	8.0852	11.2129	14.3737	10.8384	6.3277	9.5196	5.287	7.8472	9.6403	8.1439	-14.9281	-12.6584
320.3125	-7.0839	4.8473	-4.5393	7.8009	10.5942	2.9038	8.6113	3.1069	6.111	7.7253	7.1419	8.4246	9.4955	12.3743	-7.1732	6.7957	2.7654	-2.141	8.6306	12.0058	15.1746	11.388	6.7398	9.6142	5.0426	7.4091	9.4601	7.5708	-15.1613	-12.6903
324.2188	-6.8979	5.3652	-4.2333	8.3331	11.1045	3.3697	8.9699	3.3506	6.1743	7.7946	6.7846	7.9409	9.8265	12.8635	-6.9405	7.4528	3.2995	-1.902	9.1711	12.7601	15.9189	11.9007	7.1666	9.6176	4.747	6.8746	9.1603	6.8572	-15.2969	-12.617
328.125	-6.7267	5.8404	-3.8856	8.8215	11.5891	3.8489	9.2829	3.5796	6.1582	7.7867	6.3391	7.3049	10.0939	13.2807	-6.7006	8.0721	3.8219	-1.5555	9.6611	13.4171	16.5491	12.3309	7.5563	9.5199	4.4242	6.2931	8.7697	6.0633	-15.3579	-12.4834
332.0312	-6.6415	6.1972	-3.5661	9.1942	11.9922	4.288	9.5443	3.7789	6.0834	7.701	5.853	6.5752	10.2671	13.5802	-6.5403	8.5702	4.2474	-1.1735	10.041	13.902	16.996	12.6275	7.8533	9.3169	4.109	5.7272	8.3271	5.263	-15.3905	-12.3543
335.9375	-6.715	6.3598	-3.3538	9.3798	12.2577	4.629	9.7503	3.9349	5.9732	7.5457	5.3794	5.8243	10.323	13.7205	-6.5452	8.8638	4.4889	-0.8431	10.2529	14.1422	17.1966	12.7495	8.0139	9.0193	3.8439	5.2476	7.8824	4.5401	-15.4534	-12.2999
339.8438	-7.0037	6.2709	-3.3182	9.3239	12.3426	4.821	9.9035	4.0399	5.8541	7.3433	4.9756	5.1357	10.2548	13.6777	-6.7795	8.8889	4.4793	-0.6471	10.2564	14.0854	17.1116	12.6785	8.0187	8.6579	3.6738	4.9257	7.4942	3.9829	-15.6049	-12.3804
343.75	-7.5327	5.9051	-3.5047	9.0023	12.2259	4.8312	10.0139	4.0935	5.7553	7.1307	4.7006	4.5987	10.0778	13.4524	-7.2703	8.6155	4.188	-0.6461	10.0391	13.7139	16.7366	12.4258	7.8775	8.2818	3.6379	4.8237	7.224	3.6751	-15.8893	-12.6318
347.6562	-8.2885	5.2748	-3.9248	8.4259	11.9129	4.6511	10.0969	4.1026	5.7065	6.9542	4.6079	4.2977	9.828	13.0711	-8.0007	8.0526	3.6274	-0.8657	9.6199	13.049	16.1051	12.03	7.6261	7.9513	3.7618	4.9839	7.1268	3.6849	-16.3275	-13.0584
351.5625	-9.2205	4.4285	-4.5541	7.6392	11.4341	4.2982	10.1693	4.0795	5.7326	6.8604	4.736	4.2987	9.5544	12.5796	-8.9134	7.2464	2.8501	-1.2919	9.0445	12.1477	15.282	11.5482	7.3166	7.7253	4.0511	5.4196	7.2404	4.0519	-16.9103	-13.6308
355.4688	-10.2491	3.4411	-5.3362	6.7117	10.8389	3.8134	10.244	4.0387	5.8486	6.885	5.0977	4.635	9.3086	12.0338	-9.9212	6.2706	1.9367	-1.8738	8.375	11.0918	14.3516	11.0433	7.0049	7.6493	4.4887	6.1085	7.5763	4.7759	-17.5977	-14.2904
359.375	-11.2808	2.4011	-6.192	5.7263	10.1879	3.2549	10.3264	3.9947	6.0544	7.0436	5.6725	5.2965	9.1333	11.4878	-10.9236	5.2124	0.9794	-2.5337	7.6771	9.9732	13.4024	10.5708	6.7376	7.744	5.0362	6.9937	8.115	5.81	-18.3223	-14.9587
363.2812	-12.2239	1.396	-7.0324	4.7652	9.5432	2.6888	10.4136	3.9593	6.3335	7.3262	6.4044	6.2262	9.0539	10.9855	-11.8237	4.1584	0.0653	-3.1821	7.0081	8.8783	12.5122	10.1682	6.544	8.0006	5.6392	7.9889	8.8065	7.0613	-18.9996	-15.5507
367.1875	-13.0034	0.4983	-7.7733	3.8983	8.9583	2.1786	10.4948	3.9399	6.6534	7.6977	7.2078	7.3252	9.0738	10.5538	-12.5445	3.1803	-0.738	-3.7348	6.4068	7.875	11.7372	9.8496	6.4313	8.3798	6.234	8.9894	9.577	8.3997	-19.5421	-15.9889
371.0938	-13.5733	-0.2436	-8.3489	3.1733	8.4704	1.7746	10.5538	3.9386	6.9706	8.1028	7.9791	8.4664	9.1743	10.201	-13.0406	2.3257	-1.3913	-4.1295	5.889	7.0039	11.1051	9.6053	6.3857	8.8196	6.7566	9.887	10.339	9.6741	-19.8761	-16.218
375	-13.9213	-0.8109	-8.7221	2.6115	8.0949	1.5055	10.5712	3.9515	7.2369	8.4758	8.6127	9.5133	9.319	9.9185	-13.3044	1.613	-1.8872	-4.3374	5.447	6.2752	10.6142	9.4063	6.3773	9.246	7.1508	10.5837	11.0036	10.7335	-19.9562	-16.2141
378.9062	-14.0687	-1.2133	-8.8881	2.2073	7.8234	1.3749	10.5281	3.9697	7.4075	8.7523	9.0181	10.3401	9.46	9.6849	-13.3626	1.0332	-2.2462	-4.3662	5.0556	5.6718	10.2372	9.2136	6.3681	9.5867	7.3749	11.0057	11.4932	11.4487	-19.774	-15.9879
382.8125	-14.0632	-1.4843	-8.8723	1.9326	7.6271	1.3622	10.4098	3.9821	7.4485	8.8808	9.1348	10.8504	9.5471	9.4736	-13.2672	0.5558	-2.5086	-4.2548	4.6806	5.1574	9.9299	8.9872	6.3202	9.784	7.4073	11.1132	11.7519	11.7327	-19.3589	-15.5802
386.7188	-13.9676	-1.6723	-8.7222	1.7434	7.4638	1.4289	10.2104	3.978	7.343	8.8321	8.9422	10.9901	9.5362	9.2585	-13.0801	0.138	-2.7236	-4.0607	4.289	4.6875	9.6424	8.696	6.2051	9.8041	7.249	10.9052	11.7528	11.5541	-18.7712	-15.052
390.625	-13.8483	-1.8312	-8.4973	1.5889	7.2862	1.5271	9.9353	3.9496	7.0938	8.6044	8.4628	10.754	9.3977	9.0199	-12.86	-0.2654	-2.9382	-3.8452	3.8571	4.2199	9.3296	8.3234	6.0085	9.6401	6.9229	10.4189	11.5006	10.9428	-18.0904	-14.4715
394.5312	-13.7638	-2.0116	-8.2593	1.4192	7.0517	1.6088	9.6008	3.894	6.7235	8.2229	7.758	10.1841	9.1218	8.7477	-12.6512	-0.6928	-3.1894	-3.6595	3.3756	3.7236	8.9594	7.8705	5.7334	9.3102	6.4705	9.7231	11.0302	9.9855	-17.4018	-13.9028
398.4375	-13.7559	-2.2525	-8.0631	1.1939	6.7309	1.6342	9.2307	3.8125	6.2709	7.7345	6.9175	9.3607	8.7206	8.4412	-12.4796	-1.1691	-3.4984	-3.5356	2.8506	3.1835	8.5174	7.3538	5.3976	8.8512	5.9449	8.9065	10.4001	8.8118	-16.7832	-13.3957
402.3438	-13.8446	-2.5751	-7.9495	0.8885	6.3131	1.5777	8.8518	3.7098	5.7845	7.1987	6.0432	8.388	8.2259	8.1078	-12.3514	-1.7006	-3.8699	-3.483	2.3017	2.6016	8.007	6.8013	5.0298	8.3099	5.4037	8.064	9.683	7.5723	-16.2935	-12.9802
406.25	-14.0251	-2.9794	-7.9395	0.4988	5.81	1.4319	8.488	3.5921	5.3149	6.6768	5.2321	7.3768	7.6832	7.7599	-12.2578	-2.274	-4.2929	-3.4912	1.7567	1.9954	7.4474	6.2465	4.6622	7.7357	4.8999	7.2816	8.954	6.4154	-15.9647	-12.6636
410.1562	-14.2691	-3.4433	-8.0314	0.0423	5.2536	1.2065	8.157	3.4658	4.9062	6.2214	4.5614	6.4284	7.144	7.4123	-12.1801	-2.8577	-4.7449	-3.5359	1.2459	1.393	6.8678	5.722	4.3242	7.1752	4.4752	6.6261	8.2803	5.4635	-15.7986	-12.4327
414.0625	-14.5302	-3.9266	-8.2015	-0.4456	4.6909	0.9261	7.8684	3.3358	4.5885	5.868	4.0783	5.6215	6.6564	7.0795	-12.0965	-3.4078	-5.1966	-3.5877	0.7954	0.8278	6.3024	5.2541	4.0368	6.6683	4.1552	6.1373	7.7125	4.7959	-15.7677	-12.2594
417.9688	-14.7518	-4.3787	-8.4086	-0.919	4.1745	0.6237	7.6246	3.2043	4.3723	5.6307	3.796	5.0047	6.2571	6.7734	-11.9878	-3.8749	-5.6184	-3.6209	0.4225	0.3318	5.7839	4.8602	3.8101	6.2455	3.9473	5.8271	7.2796	4.4406	-15.8211	-12.1089
421.875	-14.8784	-4.7479	-8.6033	-1.3316	3.7523	0.3337	7.4226	3.0704	4.2476	5.5023	3.6961	4.5957	5.9659	6.503	-11.8409	-4.2131	-5.9844	-3.6186	0.1339	-0.0693	5.3384	4.5469	3.6442	5.9266	3.8427	5.6828	6.9892	4.3754	-15.8936	-11.9481
425.7812	-14.8653	-4.9928	-8.7378	-1.6467	3.4568	0.0852	7.2564	2.9304	4.1862	5.4583	3.7354	4.3848	5.7849	6.2735	-11.6493	-4.3882	-6.2764	-3.5739	-0.073	-0.36	4.9823	4.3129	3.5323	5.7192	3.821	5.6745	6.8311	4.5391	-15.9177	-11.7514
429.6875	-14.6883	-5.0902	-8.7771	-1.8453	3.2992	-0.1036	7.1188	2.7778	4.1475	5.4635	3.8564	4.3434	5.6999	6.0871	-11.4117	-4.3845	-6.4844	-3.488	-0.2061	-0.5366	4.7209	4.1508	3.4652	5.6186	3.8571	5.7639	6.7833	4.8485	-15.8352	-11.5034
433.5938	-14.3477	-5.0401	-8.7058	-1.9284	3.2667	-0.2286	7.0006	2.6046	4.0878	5.4804	3.9982	4.4322	5.6863	5.9435	-11.1301	-4.2081	-6.6066	-3.366	-0.2744	-0.6061	4.5496	4.0519	3.4351	5.6101	3.9284	5.9134	6.8193	5.2174	-15.6079	-11.199
437.5	-13.8688	-4.8647	-8.5313	-1.9163	3.3263	-0.2996	6.8914	2.4036	3.9689	5.4759	4.1087	4.6095	5.7162	5.8413	-10.8073	-3.8861	-6.6469	-3.2136	-0.2847	-0.5839	4.4568	4.0083	3.4384	5.673	4.0204	6.0933	6.914	5.5728	-15.2242	-10.842
441.4062	-13.2963	-4.603	-8.2803	-1.8413	3.4332	-0.3353	6.7796	2.1703	3.7671	5.4284	4.1527	4.8383	5.7654	5.78	-10.4462	-3.4619	-6.6132	-3.0359	-0.2409	-0.4901	4.4289	4.0155	3.4748	5.7871	4.1287	6.2855	7.0481	5.8665	-14.7004	-10.4444
445.3125	-12.6854	-4.3011	-7.9916	-1.7387	3.5433	-0.3567	6.6563	1.9059	3.4782	5.3317	4.1179	5.09	5.8204	5.7609	-10.0504	-2.9872	-6.5157	-2.8381	-0.1456	-0.3448	4.4541	4.0712	3.5459	5.9376	4.2583	6.4843	7.2102	6.0791	-14.0762	-10.026
449.2188	-12.0908	-4.002	-7.7053	-1.6385	3.6242	-0.3782	6.5191	1.6192	3.1194	5.1954	4.0152	5.3467	5.8806	5.7884	-9.6252	-2.5136	-6.3659	-2.6271	-0.003	-0.166	4.5258	4.174	3.6502	6.1181	4.419	6.6932	7.3958	6.2181	-13.4057	-9.6132
453.125	-11.5569	-3.7373	-7.4534	-1.5581	3.6636	-0.4026	6.3762	1.3264	2.7261	5.0426	3.874	5.6006	5.9575	5.869	-9.1789	-2.0853	-6.1782	-2.4145	0.1776	0.0324	4.642	4.3191	3.7802	6.3282	4.6191	6.9204	7.6045	6.3106	-12.7453	-9.2372
457.0312	-11.11	-3.5225	-7.2521	-1.5004	3.6704	-0.4187	6.2476	1.0504	2.3446	4.9048	3.7348	5.8522	6.0691	6.0086	-8.7226	-1.7339	-5.9704	-2.2158	0.3802	0.2393	4.8025	4.4962	3.9206	6.569	4.8601	7.1719	7.8362	6.3928	-12.1426	-8.9301
460.9375	-10.7554	-3.3562	-7.0978	-1.4548	3.6711	-0.4049	6.1628	0.8182	2.0233	4.8143	3.6394	6.107	6.2326	6.2098	-8.2685	-1.4756	-5.7633	-2.0497	0.583	0.4462	5.0052	4.6882	4.0499	6.8374	5.1317	7.4458	8.0874	6.4995	-11.6268	-8.7187
464.8438	-10.4764	-3.2217	-6.9681	-1.4008	3.7007	-0.3347	6.1545	0.6563	1.8023	4.7979	3.621	6.3717	6.4567	6.4691	-7.8279	-1.3109	-5.579	-1.933	0.7622	0.6466	5.2429	4.8737	4.1458	7.123	5.411	7.7284	8.3497	6.6534	-11.2048	-8.618
468.75	-10.2387	-3.0919	-6.8261	-1.3132	3.7942	-0.1837	6.2501	0.587	1.7063	4.8712	3.6975	6.6496	6.7373	6.7757	-7.4096	-1.2253	-5.4355	-1.8762	0.8984	0.8365	5.504	5.0321	4.1916	7.4084	5.6643	7.9928	8.6088	6.8581	-10.8617	-8.6261
472.6562	-9.9959	-2.9339	-6.6277	-1.1668	3.9787	0.0652	6.4646	0.624	1.7403	5.0358	3.8681	6.9368	7.0567	7.1132	-7.0177	-1.1919	-5.342	-1.8788	0.9817	1.0166	5.774	5.1491	4.1825	7.6717	5.8525	8.2015	8.8455	7.0944	-10.5658	-8.7216
476.5625	-9.6969	-2.7144	-6.3298	-0.9403	4.2697	0.4184	6.7957	0.7701	1.8892	5.2786	4.1145	7.2197	7.388	7.4621	-6.6502	-1.1737	-5.2947	-1.9258	1.0168	1.1937	6.0411	5.221	4.1283	7.8906	5.9381	8.3116	9.038	7.3216	-10.2756	-8.8649
480.4688	-9.294	-2.4049	-5.8996	-0.6186	4.6696	0.8717	7.2227	1.0169	2.1229	5.575	4.4058	7.4754	7.7011	7.8044	-6.2986	-1.1294	-5.2749	-1.9878	1.0235	1.3816	6.2995	5.2565	4.0518	8.0458	5.892	8.2823	9.1639	7.483	-9.9487	-9.0033
484.375	-8.751	-1.9858	-5.3213	-0.1949	5.1687	1.4118	7.7101	1.346	2.4022	5.8929	4.7052	7.6739	7.97	8.1268	-5.9485	-1.0184	-5.2525	-2.0247	1.0332	1.5991	6.5527	5.2748	3.9837	8.1234	5.6991	8.081	9.2016	7.5157	-9.5492	-9.0795
488.2812	-8.0511	-1.4508	-4.6011	0.3281	5.7478	2.0187	8.2135	1.731	2.6866	6.1976	4.9765	7.7825	8.1772	8.4233	-5.5832	-0.8083	-5.1918	-1.9923	1.0826	1.8661	6.8115	5.3002	3.9543	8.1163	5.3602	7.69	9.1317	7.3613	-9.0555	-9.0424
492.1875	-7.2023	-0.8099	-3.7686	0.937	6.3795	2.6674	8.6871	2.1408	2.9408	6.4569	5.1888	7.7709	8.3152	8.6936	-5.1894	-0.4809	-5.0599	-1.8523	1.2041	2.1976	7.0909	5.3554	3.9851	8.0238	4.8918	7.1095	8.9388	6.977	-8.4656	-8.8591
496.0938	-6.2399	-0.0897	-2.8741	1.6069	7.0307	3.3288	9.0904	2.5432	3.1388	6.6459	5.3193	7.6168	8.3852	8.9411	-4.7635	-0.0379	-4.8353	-1.5823	1.4164	2.5981	7.4028	5.4549	4.0834	7.852	4.3229	6.3591	8.6132	6.3452	-7.7994	-8.5227
500	-5.2243	0.6668	-1.9823	2.3026	7.6642	3.9708	9.393	2.9085	3.2671	6.7497	5.3549	7.3108	8.394	9.1685	-4.3168	0.4973	-4.5149	-1.183	1.7176	3.0566	7.7499	5.6	4.2395	7.6136	3.691	5.4772	8.1542	5.479	-7.0981	-8.0569
503.9062	-4.2348	1.4042	-1.1644	2.979	8.2411	4.5583	9.5764	3.213	3.3246	6.765	5.2927	6.8605	8.3509	9.3739	-3.8761	1.0789	-4.1182	-0.6826	2.0818	3.5445	8.1203	5.7771	4.428	7.3284	3.0377	4.5175	7.5738	4.4243	-6.4187	-7.5139
507.8125	-3.3593	2.0593	-0.4888	3.5852	8.7227	5.0549	9.6328	3.4404	3.3205	6.6995	5.1403	6.2934	8.2649	9.5483	-3.48	1.6426	-3.6881	-0.1348	2.461	4.0176	8.4858	5.9588	4.6124	7.0224	2.4037	3.5453	6.8989	3.2573	-5.8263	-6.9664
511.7188	-2.6823	2.568	-0.0128	4.0672	9.0738	5.4249	9.5639	3.583	3.271	6.5693	4.915	5.6559	8.1439	9.6753	-3.1721	2.1129	-3.2863	0.3883	2.7919	4.4196	8.804	6.1075	4.7501	6.7252	1.8262	2.6308	6.1716	2.0764	-5.3839	-6.4952
515.625	-2.2734	2.8723	0.2247	4.3742	9.2657	5.6368	9.3772	3.6398	3.1935	6.3944	4.6418	5.0095	7.9939	9.7326	-2.9926	2.4135	-2.9855	0.8079	3.0058	4.6899	9.0242	6.1818	4.7997	6.4654	1.3359	1.8427	5.4457	0.9906	-5.1416	-6.1752
519.5312	-2.1768	2.9291	0.2082	4.4646	9.2807	5.6669	9.0841	3.6155	3.1025	6.1941	4.3497	4.424	7.8198	9.6958	-2.9716	2.4806	-2.8562	1.0521	3.0417	4.7731	9.0961	6.1429	4.7272	6.2649	0.9552	1.2412	4.7797	0.1055	-5.1269	-6.0616
523.4375	-2.4052	2.7178	-0.0521	4.3139	9.1152	5.5036	8.6979	3.5186	3.0067	5.9836	4.0675	3.9679	7.6265	9.5451	-3.1247	2.2757	-2.9522	1.0691	2.8582	4.6289	8.9812	5.9632	4.5128	6.135	0.6987	0.8719	4.2294	-0.4912	-5.3396	-6.1811
527.3438	-2.9365	2.2457	-0.5227	3.9212	8.7819	5.1517	8.2338	3.3606	2.9079	5.7714	3.8192	3.6988	7.4202	9.2715	-3.4509	1.7952	-3.297	0.8369	2.4441	4.2418	8.6619	5.6332	4.156	6.0762	0.5735	0.7618	3.8397	-0.7408	-5.7518	-6.5281
531.25	-3.7154	1.5501	-1.1514	3.3125	8.3089	4.6334	7.7102	3.1544	2.8023	5.5605	3.6217	3.6536	7.2096	8.8823	-3.9324	1.0739	-3.8762	0.3684	1.8224	3.6256	8.1479	5.1665	3.6786	6.0795	0.5804	0.9164	3.6388	-0.6209	-6.3125	-7.0667
535.1562	-4.66	0.6943	-1.8758	2.5395	7.7362	3.988	7.1501	2.9134	2.6823	5.3497	3.4826	3.8418	7.0044	8.4022	-4.5364	0.1811	-4.6363	-0.2906	1.0493	2.8234	7.4756	4.5992	3.1222	6.131	0.7135	1.319	3.6347	-0.1487	-6.9578	-7.7375
539.0625	-5.6715	-0.241	-2.6315	1.6717	7.1092	3.2658	6.5799	2.6507	2.5389	5.1354	3.4008	4.2424	6.8127	7.8697	-5.2181	-0.7914	-5.4934	-1.068	0.2042	1.9009	6.7018	3.9844	2.5421	6.2138	0.9592	1.9307	3.8132	0.6214	-7.6217	-8.4671
542.9688	-6.6481	-1.1716	-3.3597	0.7848	6.4704	2.5204	6.0271	2.3774	2.3632	4.9139	3.3672	4.8043	6.6374	7.3288	-5.9256	-1.7462	-6.3479	-1.8772	-0.6241	0.9344	5.8917	3.3813	1.9963	6.3104	1.2948	2.6925	4.1392	1.6031	-8.246	-9.1788
546.875	-7.4994	-2.0226	-4.0131	-0.0525	5.8523	1.7994	5.5168	2.1028	2.1483	4.6822	3.3673	5.453	6.4737	6.8198	-6.6055	-2.5966	-7.1023	-2.6297	-1.3539	-0.0016	5.1071	2.8437	1.5356	6.4032	1.6873	3.5296	4.5597	2.6882	-8.7863	-9.8026
550.7812	-8.1586	-2.7397	-4.5582	-0.7889	5.2743	1.1381	5.067	1.8344	1.8907	4.4383	3.3835	6.0996	6.3095	6.3719	-7.2083	-3.2805	-7.6778	-3.2486	-1.9244	-0.8457	4.3959	2.4102	1.1945	6.4746	2.0954	4.358	5.0112	3.7584	-9.2133	-10.2822
554.6875	-8.5897	-3.2941	-4.9751	-1.3965	4.7429	0.5575	4.6864	1.5791	1.5923	4.1824	3.3975	6.6531	6.1283	5.9992	-7.6927	-3.7662	-8.0268	-3.6782	-2.305	-1.556	3.7875	2.0983	0.9871	6.508	2.4731	5.0933	5.4279	4.6996	-9.5096	-10.5801
558.5938	-8.7877	-3.682	-5.2552	-1.8695	4.2574	0.0662	4.3727	1.3438	1.2607	3.9161	3.3925	7.0323	5.9149	5.7013	-8.0283	-4.0531	-8.1388	-3.8911	-2.4972	-2.1119	3.2915	1.9037	0.9075	6.4896	2.776	5.6607	5.7508	5.4143	-9.6642	-10.6788
562.5	-8.7734	-3.9187	-5.398	-2.2189	3.8159	-0.3341	4.114	1.1347	0.9088	3.6427	3.3544	7.1769	5.66	5.4671	-8.198	-4.1652	-8.0385	-3.8897	-2.5301	-2.5115	2.9021	1.8049	0.9328	6.4098	2.9678	6.0031	5.9355	5.8329	-9.6688	-10.581
566.4062	-8.5838	-4.0297	-5.4078	-2.4641	3.4209	-0.6445	3.8923	0.9561	0.5521	3.3663	3.2714	7.0557	5.3647	5.2802	-8.1981	-4.1422	-7.7782	-3.7029	-2.4508	-2.7667	2.6035	1.7701	1.0302	6.2664	3.0254	6.0881	5.957	5.9192	-9.5177	-10.3058
570.3125	-8.2611	-4.0421	-5.2924	-2.6246	3.0814	-0.8659	3.689	0.8088	0.2046	3.091	3.1327	6.6698	5.0407	5.1244	-8.0386	-4.0275	-7.4247	-3.3785	-2.3121	-2.8974	2.3772	1.7662	1.1642	6.0653	2.943	5.9105	5.8108	5.6721	-9.2098	-9.8853
574.2188	-7.8448	-3.978	-5.0633	-2.7146	2.8105	-0.9997	3.4912	0.6883	-0.125	2.8199	2.9271	6.0525	4.7073	4.988	-7.7411	-3.8594	-7.045	-2.9721	-2.1608	-2.9258	2.2078	1.7664	1.3034	5.8201	2.7317	5.4914	5.5104	5.1214	-8.7548	-9.3585
578.125	-7.368	-3.8529	-4.7372	-2.7418	2.6206	-1.0499	3.2953	0.5849	-0.4354	2.5547	2.643	5.2627	4.387	4.865	-7.3365	-3.6645	-6.6935	-2.5372	-2.0298	-2.8739	2.086	1.7544	1.4255	5.5504	2.4176	4.8728	5.0821	4.32	-8.1764	-8.7677
582.0312	-6.8581	-3.6775	-4.3381	-2.7094	2.5177	-1.026	3.1077	0.4856	-0.7328	2.295	2.2712	4.3758	4.0987	4.7538	-6.8625	-3.4577	-6.4049	-2.1171	-1.9355	-2.7626	2.0087	1.7255	1.5179	5.279	2.0369	4.1116	4.5588	3.3348	-7.5146	-8.1563
585.9375	-6.3414	-3.4626	-3.8988	-2.6219	2.4969	-0.9457	2.9418	0.3769	-1.028	2.0386	1.809	3.4716	3.8534	4.6539	-6.3614	-3.2467	-6.1938	-1.7425	-1.8803	-2.6141	1.9743	1.6828	1.5759	5.0281	1.6297	3.2717	3.9747	2.2387	-6.8233	-7.5685
589.8438	-5.8468	-3.2245	-3.4598	-2.4902	2.5396	-0.8351	2.8116	0.2483	-1.3317	1.7824	1.2658	2.6225	3.6511	4.5608	-5.8777	-3.0383	-6.0602	-1.4326	-1.8595	-2.4545	1.9773	1.6313	1.5985	4.8151	1.235	2.4181	3.3622	1.1061	-6.1634	-7.048
593.75	-5.4064	-2.9886	-3.0664	-2.3352	2.6156	-0.727	2.7257	0.0952	-1.649	1.5233	0.6669	1.8858	3.481	4.4627	-5.4547	-2.845	-5.9971	-1.199	-1.8676	-2.315	2.0028	1.5725	1.5844	4.6492	0.8857	1.6127	2.7501	0.0099	-5.5934	-6.6361
597.6562	-5.0532	-2.7877	-2.7619	-2.1881	2.6865	-0.6563	2.682	-0.0792	-1.9754	1.2611	0.0541	1.2985	3.3249	4.3403	-5.1296	-2.6872	-5.998	-1.0503	-1.9028	-2.2301	2.0243	1.5013	1.5297	4.5296	0.6057	0.9111	2.1644	-0.9791	-5.1594	-6.3662
601.5625	-4.8155	-2.6581	-2.5806	-2.0863	2.7134	-0.6544	2.6665	-0.2648	-2.2949	1.0002	-0.5191	0.8779	3.1619	4.1698	-4.9274	-2.5911	-6.0601	-0.9945	-1.969	-2.2333	2.0064	1.4064	1.4292	4.4459	0.4093	0.3602	1.629	-1.7941	-4.886	-6.2585
605.4688	-4.712	-2.6319	-2.541	-2.0665	2.6626	-0.743	2.6554	-0.4456	-2.5815	0.7505	-0.9939	0.6254	2.9746	3.9292	-4.856	-2.5831	-6.1844	-1.0397	-2.0732	-2.3496	1.9121	1.2734	1.2777	4.3818	0.3009	-0.004	1.1664	-2.3763	-4.7732	-6.3144
609.375	-4.7467	-2.7297	-2.6415	-2.1567	2.5126	-0.9293	2.6214	-0.6032	-2.8029	0.5278	-1.3165	0.532	2.7539	3.6061	-4.9033	-2.6823	-6.3724	-1.1922	-2.2227	-2.5899	1.7119	1.0903	1.0737	4.3206	0.2769	-0.1594	0.7978	-2.6804	-4.7968	-6.5148
613.2812	-4.9061	-2.9541	-2.86	-2.3689	2.2578	-1.204	2.5413	-0.7197	-2.9273	0.3512	-1.4471	0.5847	2.5026	3.2036	-5.0387	-2.893	-6.6212	-1.4522	-2.4197	-2.9457	1.3934	0.8531	0.822	4.2508	0.3272	-0.1006	0.5418	-2.681	-4.9135	-6.8219
617.1875	-5.1582	-3.2863	-3.157	-2.6949	1.9097	-1.5423	2.4043	-0.7807	-2.9294	0.2407	-1.3676	0.7712	2.2357	2.7427	-5.2178	-3.2001	-6.9192	-1.8092	-2.6579	-3.3877	0.968	0.5695	0.5356	4.1705	0.4371	0.1593	0.413	-2.3787	-5.0688	-7.1844
621.0938	-5.4544	-3.687	-3.4822	-3.1057	1.496	-1.9079	2.2175	-0.7782	-2.7967	0.2134	-1.0856	1.0818	1.9788	2.2612	-5.3904	-3.5672	-7.2432	-2.2384	-2.9199	-3.8686	0.4714	0.2611	0.2367	4.089	0.5891	0.5876	0.419	-1.8022	-5.2055	-7.5457
625	-5.7356	-4.1017	-3.7829	-3.5561	1.0564	-2.2592	2.0074	-0.7115	-2.5328	0.2802	-0.6332	1.508	1.7634	1.808	-5.5089	-3.941	-7.5589	-2.6997	-3.1767	-4.3288	-0.0398	-0.0387	-0.0449	4.0246	0.7649	1.1359	0.5595	-1.0068	-5.2729	-7.8518
628.9062	-5.942	-4.47	-4.0119	-3.9919	0.6368	-2.556	1.8151	-0.5873	-2.1575	0.4432	-0.0608	2.0385	1.6213	1.4346	-5.5367	-4.2592	-7.8243	-3.1411	-3.3913	-4.7054	-0.4981	-0.289	-0.2755	4.0004	0.9472	1.745	0.8244	-0.0678	-5.2348	-8.0587
632.8125	-6.0237	-4.7362	-4.1358	-4.3594	0.2821	-2.766	1.6882	-0.4175	-1.7038	0.6947	0.5727	2.6541	1.5783	1.1859	-5.4543	-4.4616	-7.996	-3.5051	-3.5245	-4.9432	-0.8374	-0.4491	-0.4227	4.0378	1.1212	2.3535	1.1944	0.9284	-5.0751	-8.1381
636.7188	-5.9508	-4.859	-4.1382	-4.6147	0.0291	-2.8692	1.6695	-0.2171	-1.2123	1.0174	1.2101	3.325	1.6486	1.0921	-5.261	-4.5014	-8.0377	-3.7393	-3.5435	-5.0042	-1.0068	-0.4875	-0.4625	4.1507	1.275	2.9059	1.6408	1.8949	-4.8003	-8.0806
640.625	-5.7192	-4.8182	-4.0207	-4.7296	-0.0996	-2.8602	1.7866	-0.0014	-0.7247	1.3862	1.8049	4.0109	1.8313	1.1623	-4.9732	-4.3534	-7.928	-3.8076	-3.4296	-4.8761	-0.9808	-0.389	-0.3852	4.3406	1.3996	3.3599	2.1274	2.7553	-4.4368	-7.8973
644.5312	-5.349	-4.616	-3.7995	-4.6945	-0.0988	-2.7482	2.0455	0.2161	-0.2777	1.7719	2.3255	4.6657	2.1092	1.383	-4.6175	-4.0178	-7.6659	-3.6992	-3.1848	-4.5735	-0.7641	-0.1602	-0.1986	4.5944	1.4893	3.6908	2.6126	3.4517	-4.0256	-7.6176
648.4375	-4.8791	-4.2739	-3.4987	-4.5167	0.0192	-2.554	2.4278	0.4248	0.1018	2.145	2.7562	5.2448	2.4508	1.7197	-4.2231	-3.5193	-7.2721	-3.4323	-2.8324	-4.1365	-0.3906	0.1704	0.0717	4.8857	1.5418	3.8933	3.0541	3.9516	-3.6123	-7.2838
652.3438	-4.3571	-3.827	-3.1454	-4.2171	0.2282	-2.3055	2.8941	0.6171	0.399	2.48	3.0942	5.7133	2.8152	2.1224	-3.8155	-2.9016	-6.7852	-3.051	-2.4143	-3.6226	0.0842	0.5571	0.387	5.1789	1.5588	3.9804	3.4136	4.2501	-3.2383	-6.9439
656.25	-3.8295	-3.3167	-2.7641	-3.8254	0.493	-2.0334	3.3913	0.7876	0.6106	2.7575	3.3451	6.0521	3.1586	2.5337	-3.4125	-2.2192	-6.2552	-2.6165	-1.983	-3.0975	0.5934	0.9454	0.7033	5.4356	1.5467	3.9796	3.6625	4.3683	-2.9325	-6.642
660.1562	-3.3336	-2.7846	-2.3756	-3.3751	0.7766	-1.7656	3.8616	0.9321	0.7425	2.9656	3.5182	6.2599	3.4416	2.8979	-3.025	-1.5296	-5.7347	-2.1939	-1.5917	-2.6238	1.071	1.2824	0.9801	5.6209	1.5166	3.9265	3.7865	4.3472	-2.7075	-6.4112
664.0625	-2.8933	-2.2682	-1.997	-2.9004	1.046	-1.5251	4.2525	1.0467	0.8052	3.0988	3.6226	6.3502	3.6349	3.1686	-2.6597	-0.8848	-5.2714	-1.8396	-1.2848	-2.2522	1.461	1.5257	1.1882	5.7087	1.4829	3.8577	3.7863	4.2382	-2.56	-6.2691
667.9688	-2.5188	-1.7979	-1.6438	-2.4335	1.2757	-1.3284	4.5244	1.1276	0.8099	3.1567	3.6651	6.3443	3.7226	3.3152	-2.3237	-0.3269	-4.9025	-1.5916	-1.0913	-2.0149	1.7248	1.6502	1.3141	5.6848	1.4606	3.8031	3.6771	4.0921	-2.475	-6.2176
671.875	-2.2101	-1.3974	-1.3315	-2.0037	1.4484	-1.1865	4.6538	1.1711	0.7659	3.1419	3.6488	6.2627	3.7022	3.3247	-2.0267	0.1145	-4.6519	-1.4652	-1.0224	-1.9231	1.8429	1.649	1.3592	5.5476	1.4612	3.7791	3.4835	3.9485	-2.432	-6.245
675.7812	-1.9622	-1.0842	-1.0767	-1.6374	1.5529	-1.1061	4.6349	1.1742	0.6788	3.0586	3.5739	6.1187	3.5822	3.2016	-1.7828	0.4218	-4.5303	-1.4547	-1.0735	-1.969	1.8148	1.5319	1.3357	5.3072	1.4888	3.7854	3.2336	3.8287	-2.4114	-6.3312
679.6875	-1.7697	-0.8709	-0.8957	-1.357	1.5825	-1.0915	4.478	1.1356	0.5516	2.9119	3.4387	5.9165	3.3789	2.9648	-1.608	0.5877	-4.5367	-1.5383	-1.2282	-2.1311	1.6551	1.3198	1.261	4.9819	1.5373	3.8047	2.9531	3.7335	-2.399	-6.4521
683.5938	-1.6295	-0.7653	-0.8027	-1.1803	1.5325	-1.1449	4.2068	1.0563	0.3866	2.7078	3.241	5.6549	3.1131	2.6429	-1.5171	0.6134	-4.6604	-1.6859	-1.4643	-2.3802	1.3893	1.0393	1.1525	4.5944	1.5902	3.807	2.6609	3.6455	-2.388	-6.5839
687.5	-1.542	-0.7702	-0.8062	-1.119	1.3998	-1.2664	3.854	0.94	0.1875	2.4536	2.9805	5.3331	2.8063	2.2693	-1.5185	0.5068	-4.8838	-1.867	-1.7585	-2.6863	1.0484	0.7163	1.0232	4.1679	1.6234	3.7573	2.3672	3.5364	-2.3777	-6.7058
691.4062	-1.5108	-0.8834	-0.9066	-1.1775	1.1836	-1.4537	3.4558	0.7933	-0.0379	2.1583	2.6608	4.9577	2.478	1.8761	-1.6111	0.2816	-5.1856	-2.0561	-2.091	-3.0249	0.6641	0.3728	0.8802	3.7237	1.61	3.624	2.0745	3.3762	-2.3715	-6.8018
695.3125	-1.541	-1.0978	-1.0954	-1.3531	0.8859	-1.7011	3.0458	0.6252	-0.2767	1.8335	2.292	4.546	2.1435	1.4893	-1.7825	-0.0441	-5.544	-2.2359	-2.4466	-3.3798	0.2639	0.0237	0.7244	3.2807	1.5269	3.3876	1.7805	3.1425	-2.3733	-6.8617
699.2188	-1.6372	-1.4021	-1.3566	-1.6368	0.5135	-1.9983	2.6516	0.4469	-0.5101	1.4943	1.8933	4.1272	1.8138	1.126	-2.012	-0.4497	-5.9392	-2.398	-2.8158	-3.7445	-0.1316	-0.3226	0.5523	2.8572	1.361	3.046	1.482	2.8283	-2.3857	-6.8817
703.125	-1.8009	-1.7821	-1.6687	-2.0143	0.0795	-2.3306	2.2924	0.2722	-0.7145	1.1601	1.4937	3.7382	1.4955	0.7929	-2.2738	-0.913	-6.3541	-2.5411	-3.1935	-4.1201	-0.5111	-0.6625	0.3593	2.4721	1.1143	2.6184	1.18	2.4471	-2.4076	-6.8635
707.0312	-2.0274	-2.2202	-2.0079	-2.4667	-0.3954	-2.6785	1.9809	0.1173	-0.8637	0.8544	1.1314	3.419	1.1938	0.4889	-2.5427	-1.4113	-6.7751	-2.6685	-3.5768	-4.5105	-0.8712	-0.995	0.1429	2.1451	0.8059	2.1432	0.8828	2.0333	-2.4345	-6.8133
710.9375	-2.3038	-2.6945	-2.3494	-2.9698	-0.8836	-3.019	1.7261	-0.0003	-0.9322	0.6038	0.8494	3.2047	0.9147	0.2095	-2.7979	-1.9214	-7.1899	-2.7849	-3.9619	-4.9167	-1.2135	-1.3182	-0.094	1.8956	0.4701	1.6737	0.6071	1.6379	-2.4588	-6.7399
714.8438	-2.608	-3.1775	-2.6694	-3.4922	-1.3522	-3.3279	1.5355	-0.0639	-0.901	0.434	0.688	3.1188	0.6669	-0.0476	-3.026	-2.4172	-7.5853	-2.8936	-4.3404	-5.3305	-1.539	-1.6258	-0.3418	1.7401	0.1511	1.2695	0.3769	1.3205	-2.4722	-6.6524
718.75	-2.9107	-3.6346	-2.9451	-3.9948	-1.7661	-3.5827	1.4154	-0.0612	-0.7613	0.3653	0.6752	3.1671	0.4628	-0.2777	-3.2207	-2.8688	-7.9441	-2.9946	-4.6963	-5.7302	-1.8426	-1.9049	-0.5839	1.6893	-0.1054	0.9864	0.2183	1.1368	-2.4671	-6.5584
722.6562	-3.178	-4.0251	-3.156	-4.4316	-2.0907	-3.7651	1.3696	0.0119	-0.5189	0.4078	0.8186	3.3356	0.3182	-0.4667	-3.3803	-3.2403	-8.2427	-3.083	-5.0046	-6.0795	-2.1082	-2.1354	-0.7976	1.7456	-0.2616	0.8665	0.154	1.1268	-2.4384	-6.4625
726.5625	-3.3759	-4.3054	-3.2845	-4.754	-2.2951	-3.8631	1.3978	0.1496	-0.1938	0.5579	1.1008	3.5925	0.2495	-0.5915	-3.5047	-3.4922	-8.4509	-3.1496	-5.2323	-6.3312	-2.3079	-2.2908	-0.9571	1.9019	-0.2948	0.9299	0.1975	1.305	-2.3836	-6.3653
730.4688	-3.4747	-4.4342	-3.317	-4.9164	-2.3537	-3.8714	1.4934	0.3363	0.1817	0.7991	1.4805	3.8943	0.272	-0.6239	-3.5908	-3.5855	-8.5346	-3.1807	-5.3416	-6.4339	-2.4043	-2.3414	-1.0361	2.1431	-0.2011	1.172	0.3493	1.6561	-2.3029	-6.2631
734.375	-3.4527	-4.3799	-3.246	-4.8839	-2.2493	-3.7908	1.6439	0.5494	0.5688	1.1038	1.8994	4.1954	0.3964	-0.5366	-3.6295	-3.4888	-8.4609	-3.159	-5.2959	-6.3417	-2.358	-2.2591	-1.0106	2.449	0.0048	1.5639	0.5965	2.1371	-2.1973	-6.1478
738.2812	-3.2993	-4.1266	-3.0704	-4.6385	-1.9758	-3.6262	1.8318	0.7631	0.9286	1.4391	2.294	4.4577	0.6263	-0.3105	-3.6057	-3.186	-8.2055	-3.0659	-5.0671	-6.0246	-2.1367	-2.0228	-0.8625	2.798	0.2936	2.0573	0.9136	2.6844	-2.0667	-6.0082
742.1875	-3.0169	-3.679	-2.7978	-4.1843	-1.5417	-3.386	2.0372	0.9527	1.2279	1.7713	2.6079	4.6588	0.9564	0.058	-3.5003	-2.6823	-7.7598	-2.8847	-4.6439	-5.4763	-1.7249	-1.6249	-0.5835	3.1706	0.6265	2.5922	1.2673	3.2255	-1.9102	-5.8319
746.0938	-2.6232	-3.0647	-2.445	-3.549	-0.9728	-3.0807	2.2405	1.099	1.444	2.0715	2.8038	4.795	1.3719	0.5528	-3.2971	-2.0078	-7.1361	-2.6061	-4.0385	-4.7194	-1.1322	-1.0765	-0.1788	3.5507	0.9623	3.1053	1.6208	3.6905	-1.7269	-5.6093
750	-2.1502	-2.3322	-2.038	-2.7818	-0.3132	-2.7243	2.4255	1.1913	1.5673	2.3191	2.8698	4.8809	1.8487	1.1369	-2.9905	-1.2162	-6.3702	-2.2331	-3.289	-3.8058	-0.3965	-0.41	0.3295	3.9251	1.2624	3.5383	1.94	4.0233	-1.5185	-5.3379
753.9062	-1.6417	-1.5459	-1.6102	-1.9486	0.3786	-2.3341	2.5809	1.2288	1.6017	2.5034	2.8212	4.9426	2.3556	1.7562	-2.5909	-0.3781	-5.5186	-1.7855	-2.4585	-2.8119	0.4185	0.3213	0.9013	4.2802	1.4956	3.8452	2.197	4.1892	-1.2907	-5.0255
757.8125	-1.1477	-0.7779	-1.1983	-1.1249	1.0349	-1.9334	2.7008	1.2207	1.5629	2.6235	2.6948	5.009	2.8553	2.3474	-2.127	0.4279	-4.6533	-1.2987	-1.6268	-1.8297	1.2315	1.0486	1.4813	4.5993	1.6403	3.998	2.3743	4.1788	-1.0536	-4.6908
761.7188	-0.7166	-0.0993	-0.8372	-0.3868	1.5882	-1.5508	2.7834	1.1831	1.474	2.6859	2.5385	5.1026	3.3073	2.8475	-1.6429	1.1269	-3.8529	-0.8201	-0.8798	-0.9545	1.9547	1.6957	2.0053	4.8604	1.6867	3.9896	2.4653	4.0075	-0.8199	-4.3627
765.625	-0.3892	0.4284	-0.5553	0.1965	1.9795	-1.2204	2.8294	1.134	1.3594	2.7006	2.3992	5.231	3.6711	3.203	-1.1923	1.6582	-3.1933	-0.4021	-0.2972	-0.2725	2.5079	2.1897	2.4081	5.0377	1.6365	3.8339	2.4749	3.7126	-0.6041	-4.0765
769.5312	-0.1938	0.7607	-0.3707	0.5705	2.1668	-0.9783	2.8403	1.089	1.2387	2.6774	2.3111	5.3844	3.9103	3.3784	-0.8298	1.9832	-2.7387	-0.0934	0.059	0.151	2.8303	2.4715	2.633	5.1061	1.5022	3.5635	2.4179	3.3462	-0.4215	-3.8704
773.4375	-0.1431	0.8743	-0.2894	0.7002	2.1292	-0.8579	2.8194	1.057	1.1231	2.6235	2.2903	5.5366	3.9979	3.3606	-0.6024	2.0901	-2.5329	0.0681	0.1518	0.2795	2.8901	2.5046	2.6406	5.0477	1.3057	3.2235	2.3166	2.9665	-0.2872	-3.7794
777.3438	-0.235	0.7686	-0.3049	0.5742	1.8688	-0.884	2.7723	1.04	1.0139	2.5429	2.334	5.652	3.9215	3.1594	-0.5404	1.9936	-2.5941	0.0618	-0.026	0.1094	2.6874	2.2799	2.4138	4.8562	1.0741	2.8637	2.1974	2.6284	-0.2144	-3.8306
781.25	-0.4541	0.4649	-0.4006	0.2051	1.4082	-1.0669	2.7073	1.0346	0.9054	2.4378	2.4255	5.6952	3.6853	2.8043	-0.6521	1.7302	-2.9123	-0.1136	-0.4534	-0.332	2.2522	1.8156	1.9607	4.5397	0.8349	2.5283	2.0864	2.3741	-0.2109	-4.0376
785.1562	-0.7748	0.0011	-0.5535	-0.3722	0.7859	-1.3995	2.6343	1.0353	0.7889	2.3104	2.5421	5.6414	3.3105	2.3364	-0.9229	1.3493	-3.452	-0.4399	-1.086	-0.9931	1.6354	1.1526	1.3115	4.1179	0.6103	2.2484	2.004	2.2255	-0.2762	-4.3966
789.0625	-1.1657	-0.5744	-0.7388	-1.106	0.0497	-1.8568	2.5619	1.0367	0.6574	2.164	2.6625	5.4845	2.8305	1.8	-1.3193	0.9029	-4.1577	-0.8832	-1.8651	-1.8078	0.8983	0.3462	0.5132	3.6183	0.4129	2.036	1.9609	2.1817	-0.4004	-4.8855
792.9688	-1.5938	-1.2099	-0.9346	-1.9341	-0.7497	-2.3995	2.495	1.0355	0.5089	2.0041	2.7726	5.2404	2.2861	1.2355	-1.7961	0.4362	-4.9628	-1.4002	-2.726	-2.7055	0.1013	-0.5425	-0.3773	3.0715	0.2443	1.8842	1.9557	2.2203	-0.5655	-5.4658
796.875	-2.0278	-1.8565	-1.1244	-2.7911	-1.5633	-2.9798	2.434	1.0307	0.3474	1.838	2.8673	4.944	1.7197	0.6748	-2.3039	-0.0176	-5.7986	-1.9439	-3.6064	-3.6199	-0.7024	-1.4537	-1.2999	2.5077	0.0966	1.7717	1.9764	2.3046	-0.7482	-6.0879
