time	FP1	F3	F7	FC3	C3	C5	P3	P7	PO7	PO3	O1	Oz	Pz	CPz	FP2	Fz	F4	F8	FC4	FCz	Cz	C4	C6	P4	P8	PO8	PO4	O2	HEOG_left	HEOG_right
-199.2188	1.4026	-0.9789	1.2774	-0.7258	0.6284	0.3141	0.4907	1.8966	0.3963	0.7352	-0.6491	-0.2577	0.6538	1.5045	1.1291	-0.0046	0.4376	-0.2834	-0.849	0.6086	1.6083	0.5548	0.9367	0.3581	-0.3029	-2.7505	-0.7969	-2.3313	1.5601	0.6679
-195.3125	0.2275	-1.7241	0.341	-1.5461	-0.4513	-0.5017	-0.346	0.7091	-0.2629	0.0542	-0.9889	-0.4681	-0.0314	0.643	0.0833	-1.007	-0.3866	-0.6134	-1.6207	-0.3419	0.6874	0.0528	0.6861	-0.2	-0.9031	-2.5981	-1.193	-2.4783	0.5703	-0.0248
-191.4062	-0.8078	-2.3749	-0.5187	-2.2578	-1.4209	-1.2571	-1.0789	-0.3405	-0.8142	-0.5264	-1.2355	-0.5886	-0.6103	-0.108	-0.8379	-1.8739	-1.1288	-0.9104	-2.3203	-1.1636	-0.1171	-0.3986	0.4753	-0.6554	-1.3696	-2.3463	-1.4737	-2.5097	-0.3257	-0.6491
-187.5	-1.5975	-2.8531	-1.2397	-2.7736	-2.1832	-1.8862	-1.6215	-1.1424	-1.1766	-0.93	-1.3231	-0.5596	-0.9989	-0.6591	-1.5328	-2.4974	-1.7205	-1.1469	-2.8868	-1.755	-0.714	-0.7536	0.3369	-0.9267	-1.6027	-1.9201	-1.55	-2.338	-1.0509	-1.1509
-183.5938	-2.0853	-3.115	-1.7884	-3.0414	-2.6725	-2.3427	-1.9209	-1.6355	-1.3073	-1.1154	-1.2192	-0.355	-1.1504	-0.9578	-1.9436	-2.8137	-2.1164	-1.3079	-3.2758	-2.0566	-1.0515	-0.9779	0.2881	-0.9668	-1.5522	-1.2837	-1.3743	-1.9165	-1.5612	-1.5035
-179.6875	-2.271	-3.1561	-2.1617	-3.0497	-2.8622	-2.6043	-1.9634	-1.8153	-1.2074	-1.0815	-0.9306	0.013	-1.0608	-0.9945	-2.0637	-2.8109	-2.2988	-1.3917	-3.4639	-2.0588	-1.1234	-1.0534	0.3268	-0.7705	-1.2248	-0.4493	-0.9476	-1.2481	-1.8517	-1.7089
-175.7812	-2.2045	-3.0047	-2.3819	-2.8253	-2.7636	-2.6719	-1.7722	-1.7271	-0.9173	-0.8634	-0.4982	0.4989	-0.7656	-0.7991	-1.9338	-2.5256	-2.276	-1.4072	-3.4493	-1.7981	-0.9646	-0.9796	0.433	-0.3713	-0.68	0.5252	-0.317	-0.3827	-1.9535	-1.7913
-171.875	-1.9699	-2.7107	-2.4851	-2.4234	-2.4193	-2.5652	-1.3983	-1.4495	-0.5043	-0.5204	0.014	1.0346	-0.3276	-0.4299	-1.6286	-2.0312	-2.0767	-1.3694	-3.2503	-1.3448	-0.6386	-0.7733	0.5736	0.1674	-0.0132	1.5479	0.4367	0.5944	-1.923	-1.7851
-167.9688	-1.6649	-2.3307	-2.5092	-1.915	-1.8928	-2.3159	-0.9068	-1.0729	-0.0452	-0.1209	0.535	1.5457	0.178	0.041	-1.2379	-1.4202	-1.7427	-1.2943	-2.9003	-0.7868	-0.2214	-0.4649	0.7106	0.7669	0.6661	2.5109	1.2165	1.5795	-1.8266	-1.7237
-164.0625	-1.3795	-1.9172	-2.4849	-1.3735	-1.2583	-1.9606	-0.3637	-0.6785	0.3894	0.2728	1.0018	1.966	0.6794	0.5414	-0.848	-0.7873	-1.3213	-1.195	-2.4431	-0.2122	0.2136	-0.0936	0.8102	1.3478	1.2568	3.3107	1.927	2.4701	-1.7254	-1.633
-160.1562	-1.1788	-1.5107	-2.4307	-0.8637	-0.5909	-1.5363	0.1753	-0.3241	0.7483	0.6163	1.3712	2.2502	1.1194	1.0099	-0.525	-0.214	-0.86	-1.0801	-1.9266	0.3047	0.6082	0.2993	0.851	1.8426	1.6843	3.8659	2.49	3.1811	-1.663	-1.5287
-156.25	-1.0922	-1.1366	-2.3527	-0.4326	0.0426	-1.0774	0.6712	-0.0377	1.0056	0.8884	1.6255	2.3807	1.4628	1.4023	-0.3054	0.2419	-0.4018	-0.9535	-1.3967	0.7126	0.9257	0.6758	0.8271	2.2043	1.9098	4.1298	2.8545	3.6571	-1.6588	-1.4176
-152.3438	-1.1116	-0.8063	-2.2471	-0.1057	0.5894	-0.615	1.103	0.18	1.1612	1.0908	1.7722	2.3684	1.6975	1.6943	-0.1934	0.5517	0.0182	-0.8163	-0.8925	0.9874	1.153	1.0061	0.7478	2.4101	1.931	4.094	3.0006	3.8771	-1.7083	-1.3
-148.4375	-1.1985	-0.5193	-2.1057	0.1142	1.0162	-0.176	1.4653	0.3464	1.2351	1.2418	1.8381	2.2471	1.8317	1.8802	-0.1663	0.7156	0.3741	-0.6693	-0.443	1.1309	1.2964	1.2705	0.6313	2.4604	1.7755	3.7849	2.938	3.8525	-1.7891	-1.1732
-144.5312	-1.2988	-0.268	-1.9207	0.2426	1.3105	0.2181	1.7625	0.4856	1.2589	1.3671	1.8599	2.0635	1.8877	1.9691	-0.1849	0.7576	0.65	-0.5155	-0.0655	1.1655	1.3748	1.4598	0.4974	2.3742	1.4889	3.2542	2.6995	3.62	-1.87	-1.0345
-140.625	-1.3587	-0.0425	-1.689	0.3071	1.4792	0.5528	2.0028	0.6179	1.2663	1.4908	1.8739	1.8653	1.8933	1.9796	-0.206	0.7174	0.8397	-0.3616	0.2333	1.1262	1.4118	1.574	0.3622	2.1823	1.1227	2.5671	2.3323	3.231	-1.9204	-0.8836
-136.7188	-1.3388	0.1653	-1.4137	0.3396	1.5442	0.8226	2.1929	0.7536	1.2835	1.6266	1.9066	1.6899	1.8742	1.9338	-0.1935	0.6403	0.9457	-0.2171	0.4549	1.0515	1.4277	1.6203	0.2366	1.9199	0.7246	1.7907	1.8875	2.7394	-1.9174	-0.7234
-132.8125	-1.2226	0.3571	-1.1038	0.3689	1.5354	1.0289	2.3343	0.8904	1.3242	1.774	1.9685	1.5563	1.8465	1.8517	-0.1264	0.5678	0.9777	-0.0914	0.6061	0.9747	1.4348	1.6098	0.1288	1.6198	0.333	0.9844	1.4112	2.1922	-1.8498	-0.5601
-128.9062	-1.018	0.5271	-0.7727	0.4151	1.4822	1.1773	2.421	1.0153	1.3854	1.9159	2.0516	1.4617	1.8124	1.7463	-0.0029	0.5294	0.9501	0.0081	0.6949	0.9178	1.4342	1.5532	0.0465	1.3064	-0.0249	0.1947	0.9362	1.6217	-1.7176	-0.4007
-125	-0.7521	0.6629	-0.437	0.4872	1.4071	1.2733	2.4397	1.1088	1.4488	2.0211	2.1303	1.3821	1.7584	1.6199	0.1599	0.5384	0.8798	0.0791	0.7285	0.8882	1.416	1.4564	-0.0021	0.9919	-0.3328	-0.5478	0.4779	1.0436	-1.5293	-0.2507
-121.0938	-0.4621	0.7501	-0.1149	0.5822	1.3217	1.3194	2.3711	1.1498	1.484	2.049	2.1659	1.2784	1.658	1.4637	0.3313	0.5909	0.7827	0.1239	0.7128	0.8792	1.3626	1.3174	-0.0111	0.6751	-0.5826	-1.2262	0.0346	0.4585	-1.2977	-0.112
-117.1875	-0.1861	0.7757	0.1752	0.687	1.2265	1.314	2.1931	1.1202	1.4541	1.9567	2.1144	1.1057	1.4778	1.26	0.4749	0.6686	0.6714	0.1484	0.6524	0.8734	1.2522	1.1259	0.0186	0.344	-0.7726	-1.8327	-0.4076	-0.1412	-1.0371	0.0172
-113.2812	0.0448	0.7316	0.4152	0.7808	1.1124	1.2515	1.8851	1.0063	1.3234	1.7072	1.9346	0.8243	1.1857	0.987	0.5578	0.7435	0.5528	0.16	0.5524	0.8473	1.0651	0.8663	0.0752	-0.0185	-0.9053	-2.3622	-0.8667	-0.7631	-0.7623	0.1409
-109.375	0.2099	0.6151	0.5886	0.8383	0.9642	1.1222	1.4322	0.7999	1.0642	1.277	1.5975	0.4101	0.7588	0.6249	0.5594	0.7843	0.4274	0.1656	0.4195	0.7772	0.7879	0.5244	0.1348	-0.4267	-0.985	-2.8054	-1.3544	-1.4052	-0.4888	0.2622
-105.4688	0.2996	0.4299	0.6826	0.8341	0.764	0.9146	0.8296	0.4976	0.6635	0.6623	1.0936	-0.1374	0.1912	0.1631	0.4766	0.7636	0.2904	0.1708	0.2628	0.6444	0.4178	0.0956	0.1662	-0.8838	-1.0151	-3.1441	-1.8671	-2.0497	-0.2327	0.3815
-101.5625	0.3141	0.1848	0.6905	0.748	0.4958	0.6186	0.0871	0.1026	0.1284	-0.1167	0.4381	-0.7919	-0.5017	-0.3947	0.3239	0.6636	0.1353	0.1789	0.0944	0.4396	-0.0346	-0.4075	0.1397	-1.376	-0.9957	-3.3507	-2.3804	-2.6602	-0.0095	0.4957
-97.6562	0.2609	-0.1053	0.615	0.5691	0.1498	0.23	-0.7673	-0.3729	-0.511	-1.0144	-0.328	-1.5016	-1.2819	-1.0273	0.1281	0.4799	-0.0423	0.1909	-0.0713	0.1655	-0.5454	-0.9522	0.0382	-1.8704	-0.9223	-3.3917	-2.8488	-3.1843	0.168	0.5983
-93.75	0.1526	-0.4209	0.4691	0.3	-0.2733	-0.2436	-1.6861	-0.9049	-1.2027	-1.9625	-1.1413	-2.1967	-2.0918	-1.6964	-0.08	0.222	-0.2413	0.206	-0.2189	-0.1642	-1.0802	-1.4886	-0.1348	-2.3188	-0.7867	-3.2362	-3.2122	-3.5611	0.2924	0.6804
-89.8438	0.0048	-0.7384	0.2748	-0.0422	-0.7594	-0.7797	-2.6044	-1.4565	-1.8784	-2.8777	-1.9249	-2.801	-2.8617	-2.352	-0.2761	-0.0903	-0.4547	0.2199	-0.3346	-0.5286	-1.599	-1.9585	-0.3529	-2.6667	-0.581	-2.8658	-3.4081	-3.7326	0.363	0.7305
-85.9375	-0.1656	-1.0333	0.0581	-0.4284	-1.2808	-1.3399	-3.4465	-1.9805	-2.4641	-3.6714	-2.6	-3.2443	-3.5195	-2.9397	-0.4494	-0.4329	-0.6717	0.225	-0.4094	-0.9048	-2.064	-2.3086	-0.5721	-2.8653	-0.3032	-2.2852	-3.3861	-3.6558	0.385	0.7353
-82.0312	-0.3413	-1.2829	-0.1562	-0.8211	-1.7986	-1.8734	-4.1345	-2.4249	-2.892	-4.2628	-3.0988	-3.475	-4.002	-3.41	-0.6042	-0.783	-0.8809	0.2102	-0.4408	-1.2734	-2.4463	-2.5032	-0.7403	-2.8825	0.0377	-1.5264	-3.121	-3.3134	0.3689	0.6813
-78.125	-0.5047	-1.4683	-0.3492	-1.1803	-2.2675	-2.3236	-4.5997	-2.739	-3.1107	-4.5898	-3.3743	-3.4676	-4.2638	-3.7268	-0.7558	-1.1221	-1.0726	0.1631	-0.4338	-1.6209	-2.7303	-2.532	-0.8117	-2.7104	0.4182	-0.6491	-2.6211	-2.7197	0.3281	0.5598
-74.2188	-0.6376	-1.576	-0.5087	-1.4683	-2.6424	-2.6371	-4.7927	-2.8823	-3.0939	-4.6176	-3.4058	-3.2263	-4.284	-3.8717	-0.9209	-1.4359	-1.2401	0.0736	-0.399	-1.9383	-2.9145	-2.412	-0.7589	-2.3678	0.8013	0.2675	-1.9288	-1.9213	0.278	0.3722
-70.3125	-0.7221	-1.5967	-0.6275	-1.6543	-2.8847	-2.7734	-4.6915	-2.8307	-2.8432	-4.3441	-3.2005	-2.7828	-4.0689	-3.8461	-1.1066	-1.7112	-1.378	-0.0605	-0.3488	-2.217	-3.0078	-2.1816	-0.5821	-1.8967	1.1413	1.1352	-1.1151	-0.9916	0.2352	0.1351
-66.4062	-0.7415	-1.5244	-0.6997	-1.7171	-2.9684	-2.7125	-4.3058	-2.5818	-2.3882	-3.7997	-2.7905	-2.1914	-3.6494	-3.6672	-1.3018	-1.9314	-1.4794	-0.229	-0.292	-2.4434	-3.022	-1.8897	-0.3103	-1.3543	1.3924	1.8711	-0.2675	-0.0213	0.2165	-0.1175
-62.5	-0.6827	-1.3541	-0.7172	-1.6465	-2.8817	-2.4598	-3.676	-2.1564	-1.7813	-3.0436	-2.2277	-1.5199	-3.0751	-3.3618	-1.4739	-2.0739	-1.5333	-0.4075	-0.2288	-2.5954	-2.9652	-1.5831	0.005	-0.8027	1.5183	2.4087	0.5247	0.8938	0.238	-0.3388
-58.5938	-0.5377	-1.0825	-0.6681	-1.4422	-2.6276	-2.0437	-2.867	-1.5964	-1.0907	-2.1553	-1.5763	-0.8401	-2.405	-2.9589	-1.5726	-2.1099	-1.5236	-0.5587	-0.1488	-2.6422	-2.835	-1.2954	0.302	-0.2978	1.5011	2.7073	1.1846	1.6671	0.3134	-0.4778
-54.6875	-0.3046	-0.7087	-0.5381	-1.1123	-2.2198	-1.5075	-1.9575	-0.958	-0.3903	-1.2228	-0.9052	-0.2181	-1.6971	-2.4823	-1.5411	-2.0082	-1.4298	-0.6396	-0.0324	-2.5494	-2.6181	-1.0415	0.5228	0.1192	1.3456	2.7555	1.659	2.2327	0.4522	-0.4914
-50.7812	0.0122	-0.2361	-0.3118	-0.6704	-1.6788	-0.8983	-1.027	-0.3017	0.2505	-0.33	-0.2783	0.2954	-0.9992	-1.948	-1.3321	-1.7421	-1.2312	-0.6108	0.144	-2.2865	-2.2933	-0.8169	0.6257	0.4269	1.0786	2.5704	1.925	2.5535	0.6577	-0.3554
-46.875	0.4032	0.3259	0.0231	-0.1343	-1.0283	-0.2547	-0.1429	0.3192	0.7772	0.4564	0.2528	0.6704	-0.3429	-1.3637	-0.9224	-1.2969	-0.9123	-0.4462	0.4018	-1.837	-1.8403	-0.6026	0.5939	0.6248	0.7429	2.1937	1.9913	2.6253	0.9265	-0.0701
-42.9688	0.855	0.9608	0.4722	0.4745	-0.294	0.3986	0.6497	0.8675	1.1584	1.0955	0.6555	0.8999	0.2573	-0.7338	-0.3243	-0.6782	-0.4684	-0.1406	0.7533	-1.2065	-1.25	-0.3721	0.4384	0.7296	0.3887	1.6832	1.893	2.4734	1.2482	0.3389
-39.0625	1.3513	1.6436	1.0278	1.1279	0.4939	1.0499	1.3303	1.3272	1.3882	1.5757	0.9184	0.9972	0.8008	-0.0655	0.4133	0.0838	0.0897	0.2866	1.1956	-0.427	-0.5349	-0.1012	0.1934	0.7683	0.0627	1.1033	1.682	2.1448	1.6055	0.8261
-35.1562	1.8712	2.3408	1.6641	1.7896	1.2973	1.6921	1.899	1.7006	1.4833	1.9101	1.0483	0.9879	1.2928	0.6248	1.2116	0.9336	0.7322	0.7932	1.7069	0.4431	0.2665	0.2238	-0.0945	0.7696	-0.2006	0.5143	1.4133	1.6961	1.9748	1.3335
-31.25	2.3873	3.0117	2.3337	2.4139	2.0685	2.3138	2.3675	2.0007	1.474	2.1271	1.0641	0.9001	1.7364	1.3088	1.9776	1.7961	1.4115	1.3197	2.2455	1.327	1.0919	0.5983	-0.3816	0.7546	-0.3857	-0.037	1.1314	1.1815	2.3277	1.7999
-27.3438	2.8633	3.6124	2.9718	2.95	2.753	2.8928	2.747	2.2412	1.3933	2.2573	0.9885	0.7561	2.1268	1.9472	2.6229	2.5881	2.0669	1.7993	2.7538	2.1419	1.8656	0.9964	-0.6405	0.7311	-0.4979	-0.5221	0.8614	0.643	2.6332	2.1698
-23.4375	3.2551	4.1019	3.5069	3.3501	3.2969	3.3951	3.0406	2.4281	1.2667	2.324	0.8411	0.5679	2.4497	2.4965	3.0807	3.2336	2.6341	2.1698	3.1685	2.8143	2.5145	1.3741	-0.8682	0.6933	-0.5586	-0.9305	0.6061	0.1074	2.8615	2.4015
-19.5312	3.5148	4.4486	3.8766	3.5806	3.6577	3.7812	3.2392	2.5568	1.1079	2.3365	0.6352	0.3376	2.6847	2.9171	3.3182	3.6787	3.0563	2.3853	3.4335	3.2945	2.984	1.6782	-1.0839	0.6263	-0.5978	-1.2637	0.3516	-0.4121	2.988	2.4738
-15.625	3.5999	4.6364	4.0429	3.6313	3.8146	4.0165	3.3246	2.6143	0.9194	2.2907	0.3789	0.0629	2.8107	3.181	3.3402	3.9009	3.2946	2.4236	3.5129	3.5641	3.2494	1.859	-1.3195	0.5134	-0.6426	-1.5269	0.0773	-0.9092	2.9991	2.3893
-11.7188	3.4854	4.6671	4.0022	3.5205	3.7742	4.0817	3.2768	2.5869	0.6989	2.1747	0.0793	-0.2565	2.813	3.2759	3.185	3.9115	3.3347	2.2885	3.4002	3.6364	3.3178	1.8822	-1.6063	0.3438	-0.7091	-1.7212	-0.2323	-1.3778	2.896	2.1735
-7.8125	3.1749	4.5583	3.7857	3.2903	3.5679	3.9796	3.0818	2.4682	0.447	1.9767	-0.2532	-0.6136	2.6864	3.2049	2.9115	3.7476	3.1859	2.0052	3.118	3.5475	3.2209	1.7369	-1.9627	0.1175	-0.7977	-1.8403	-0.5785	-1.8069	2.6964	1.8686
-3.9062	2.7047	4.3359	3.4501	2.9943	3.2423	3.7326	2.7384	2.2637	0.1725	1.6921	-0.6011	-0.9913	2.4363	2.9815	2.5816	3.4577	2.8761	1.6105	2.7092	3.3413	3	1.4362	-2.3886	-0.1545	-0.8946	-1.8712	-0.9454	-2.1793	2.4312	1.523
0	2.1382	4.0241	3.0617	2.6802	2.8445	3.3753	2.2607	1.9916	-0.1058	1.3277	-0.9411	-1.3646	2.0759	2.6231	2.2417	3.0851	2.4404	1.1419	2.2226	3.0537	2.6908	1.0113	-2.8669	-0.454	-0.9781	-1.7997	-1.3024	-2.4731	2.1373	1.1797
3.9062	1.552	3.6367	2.6776	2.3753	2.4086	2.9435	1.6766	1.6792	-0.3619	0.9028	-1.2458	-1.7039	1.6232	2.1466	1.9112	2.6552	1.9122	0.6289	1.6981	2.7019	2.3117	0.5029	-3.3704	-0.7606	-1.0266	-1.6176	-1.6107	-2.6654	1.8491	0.8663
7.8125	1.0172	3.1738	2.3316	2.0793	1.9483	2.4656	1.0253	1.3581	-0.5663	0.4474	-1.4875	-1.9787	1.0989	1.5675	1.5798	2.172	1.3164	0.0892	1.1571	2.2824	1.8632	-0.0488	-3.8709	-1.0565	-1.0253	-1.3269	-1.8316	-2.7342	1.5909	0.592
11.7188	0.5828	2.6259	2.0273	1.7668	1.457	1.9604	0.352	1.0601	-0.6916	-0.0015	-1.642	-2.1614	0.5259	0.9023	1.2168	1.6224	0.6688	-0.469	0.601	1.7781	1.3339	-0.6099	-4.346	-1.3278	-0.9689	-0.9415	-1.9328	-2.6605	1.3736	0.3497
15.625	0.2645	1.982	1.741	1.3986	0.9151	1.4377	-0.298	0.8122	-0.7164	-0.4049	-1.691	-2.2294	-0.0708	0.1717	0.7864	0.9884	-0.0212	-1.0413	0.017	1.17	0.7123	-1.1568	-4.7821	-1.5656	-0.8618	-0.4851	-1.8945	-2.4305	1.1949	0.1232
19.5312	0.0428	1.2397	1.4318	0.9354	0.3001	0.9015	-0.8854	0.6328	-0.6303	-0.7289	-1.6253	-2.1685	-0.665	-0.5991	0.2645	0.2582	-0.7459	-1.6216	-0.6126	0.4487	-0.0038	-1.677	-5.1746	-1.766	-0.7165	0.0115	-1.7127	-2.0391	1.0424	-0.1039
23.4375	-0.1303	0.4102	1.0555	0.3505	-0.4035	0.3532	-1.3839	0.5273	-0.437	-0.951	-1.4473	-1.9771	-1.2327	-1.383	-0.3505	-0.5645	-1.4964	-2.1985	-1.3001	-0.379	-0.8025	-2.1686	-5.5259	-1.9313	-0.5525	0.5131	-1.4021	-1.4953	0.8982	-0.3415
27.3438	-0.3166	-0.4798	0.58	-0.3611	-1.1961	-0.2061	-1.7826	0.4867	-0.1563	-1.0652	-1.1729	-1.669	-1.7555	-2.1554	-1.0345	-1.4577	-2.2599	-2.7547	-2.0455	-1.2879	-1.6586	-2.6376	-5.843	-2.0704	-0.3942	0.9831	-0.9966	-0.8265	0.745	-0.5894
31.25	-0.5728	-1.3912	-0.0031	-1.1781	-2.0576	-0.7727	-2.085	0.4899	0.1776	-1.0831	-0.831	-1.2746	-2.2222	-2.8965	-1.7429	-2.3816	-3.018	-3.269	-2.8315	-2.2373	-2.5375	-3.0939	-6.1341	-2.1979	-0.2685	1.3854	-0.5455	-0.0805	0.5709	-0.8372
35.1562	-0.9328	-2.277	-0.6719	-2.054	-2.9464	-1.3364	-2.3038	0.5092	0.5219	-1.0305	-0.4601	-0.8383	-2.6277	-3.5901	-2.4218	-3.2836	-3.7461	-3.7198	-3.6235	-3.1744	-3.3994	-3.5448	-6.4055	-2.3308	-0.2011	1.6885	-0.1076	0.6773	0.3729	-1.0675
39.0625	-1.3961	-3.0864	-1.3744	-2.9222	-3.8024	-1.8768	-2.4537	0.5187	0.8326	-0.9406	-0.1037	-0.4139	-2.9701	-4.2195	-3.0197	-4.1039	-4.414	-4.0883	-4.3726	-4.0401	-4.2017	-3.9899	-6.6596	-2.4835	-0.2134	1.8673	0.2577	1.3697	0.1581	-1.2619
42.9688	-1.9252	-3.7683	-2.0367	-3.7046	-4.554	-2.3615	-2.5456	0.5006	1.0728	-0.8471	0.1953	-0.0574	-3.2473	-4.7629	-3.4969	-4.7835	-4.987	-4.3623	-5.0227	-4.774	-4.9011	-4.4171	-6.8934	-2.6634	-0.3194	1.9052	0.4981	1.9174	-0.0575	-1.4065
46.875	-2.4516	-4.2737	-2.5757	-4.323	-5.1293	-2.7478	-2.5827	0.4497	1.2178	-0.7782	0.3999	0.18	-3.4538	-5.1912	-3.8288	-5.2701	-5.4287	-4.5382	-5.5171	-5.3202	-5.4541	-4.8022	-7.0986	-2.8679	-0.5226	1.796	0.5757	2.2494	-0.2514	-1.4951
50.7812	-2.8893	-4.5592	-2.916	-4.7106	-5.4681	-2.9887	-2.5614	0.374	1.259	-0.7527	0.4831	0.258	-3.5818	-5.47	-4.003	-5.5247	-5.7043	-4.6205	-5.807	-5.6335	-5.8194	-5.1116	-7.2619	-3.0832	-0.8132	1.546	0.4721	2.3137	-0.397	-1.5287
54.6875	-3.1533	-4.5942	-3.0054	-4.8237	-5.5347	-3.0436	-2.476	0.2906	1.2012	-0.7805	0.4302	0.1528	-3.6242	-5.5692	-4.0176	-5.5276	-5.7866	-4.6213	-5.8605	-5.6864	-5.965	-5.3094	-7.3677	-3.2874	-1.166	1.1749	0.191	2.0864	-0.4683	-1.5137
58.5938	-3.1808	-4.3702	-2.8288	-4.6525	-5.3283	-2.8907	-2.326	0.218	1.0589	-0.8652	0.2386	-0.1406	-3.5817	-5.4757	-3.8817	-5.2842	-5.6649	-4.56	-5.6717	-5.4788	-5.8792	-5.3681	-7.4026	-3.4566	-1.5416	0.7169	-0.2435	1.5774	-0.4465	-1.4613
62.5	-2.9516	-3.9107	-2.4145	-4.2287	-4.889	-2.5394	-2.1238	0.1682	0.8501	-1.0085	-0.082	-0.6074	-3.4699	-5.2062	-3.6197	-4.8314	-5.3542	-4.4626	-5.2692	-5.0456	-5.5819	-5.2796	-7.3616	-3.5729	-1.8909	0.2186	-0.7912	0.8306	-0.3272	-1.3884
66.4062	-2.5011	-3.2777	-1.8336	-3.6275	-4.2964	-2.0359	-1.8986	0.1409	0.5933	-1.212	-0.5098	-1.214	-3.3225	-4.8152	-3.2765	-4.24	-4.9032	-4.3615	-4.7201	-4.4618	-5.1331	-5.0646	-7.253	-3.6311	-2.1621	-0.2644	-1.4024	-0.0794	-0.1269	-1.3192
70.3125	-1.9215	-2.5712	-1.191	-2.9621	-3.6608	-1.4616	-1.6939	0.1239	0.3087	-1.4763	-1.0086	-1.9099	-3.1898	-4.391	-2.9173	-3.612	-4.395	-4.2939	-4.1263	-3.8389	-4.632	-4.7751	-7.1009	-3.6423	-2.3082	-0.6726	-2.0249	-1.0552	0.1148	-1.285
74.2188	-1.3474	-1.92	-0.6096	-2.3701	-3.1074	-0.9217	-1.5593	0.0984	0.0226	-1.7962	-1.526	-2.6307	-3.1295	-4.0429	-2.6224	-3.0706	-3.9392	-4.2985	-3.6117	-3.3128	-4.2053	-4.4897	-6.9429	-3.6327	-2.2945	-0.9487	-2.6099	-1.9875	0.3381	-1.3211
78.125	-0.9287	-1.4646	-0.2109	-1.9925	-2.7547	-0.526	-1.5374	0.0484	-0.2278	-2.1554	-1.9935	-3.3019	-3.1943	-3.8778	-2.4763	-2.7433	-3.6551	-4.4111	-3.3012	-3.0221	-3.9851	-4.3013	-6.8254	-3.6384	-2.1054	-1.046	-3.1169	-2.7677	0.4705	-1.4615
82.0312	-0.7973	-1.3329	-0.0956	-1.9493	-2.694	-0.3665	-1.6507	-0.0311	-0.3928	-2.5212	-2.3306	-3.8448	-3.4169	-3.9763	-2.5524	-2.7385	-3.6485	-4.6609	-3.296	-3.0814	-4.0814	-4.2984	-6.7951	-3.6958	-1.748	-0.936	-3.5149	-3.3007	0.44	-1.7321
85.9375	-1.0361	-1.6148	-0.3262	-2.3148	-2.9698	-0.4977	-1.8922	-0.1294	-0.4141	-2.8442	-2.4543	-4.183	-3.7982	-4.3701	-2.8973	-3.1221	-3.9871	-5.0641	-3.6504	-3.5552	-4.5546	-4.5449	-6.8896	-3.8313	-1.253	-0.6136	-3.7823	-3.5158	0.1885	-2.1444
89.8438	-1.6583	-2.3395	-0.9156	-3.0986	-3.5688	-0.9229	-2.2216	-0.2211	-0.2352	-3.0626	-2.2923	-4.2505	-4.3003	-5.0299	-3.5171	-3.8972	-4.6802	-5.619	-4.3547	-4.4373	-5.3954	-5.0597	-7.1265	-4.0505	-0.6711	-0.0989	-3.9031	-3.3741	-0.3135	-2.6908
93.75	-2.602	-3.4615	-1.8219	-4.237	-4.4176	-1.5908	-2.5693	-0.2721	0.1836	-3.1106	-1.7975	-3.999	-4.8473	-5.8646	-4.3688	-4.994	-5.6675	-6.2986	-5.33	-5.6423	-6.517	-5.8032	-7.4933	-4.3301	-0.0649	0.5665	-3.8629	-2.8719	-1.0558	-3.3427
97.6562	-3.74	-4.8592	-2.9512	-5.5961	-5.3906	-2.4026	-2.847	-0.249	0.8506	-2.9312	-0.9603	-3.4055	-5.3342	-6.7328	-5.36	-6.2731	-6.8213	-7.0464	-6.4352	-7.0119	-7.762	-6.6742	-7.9408	-4.616	0.5017	1.3262	-3.6459	-2.0383	-1.9838	-4.049
101.5625	-4.9029	-6.3482	-4.1679	-6.9894	-6.3275	-3.2267	-2.963	-0.1288	1.7309	-2.488	0.1838	-2.4772	-5.6421	-7.4652	-6.3557	-7.5422	-7.9626	-7.7745	-7.4856	-8.3356	-8.9241	-7.5191	-8.3824	-4.8286	0.9745	2.1172	-3.2344	-0.9313	-2.9996	-4.7382
105.4688	-5.9078	-7.7067	-5.3114	-8.2054	-7.0575	-3.9198	-2.8386	0.0937	2.7432	-1.7745	1.5557	-1.2524	-5.6579	-7.8929	-7.1943	-8.5854	-8.8887	-8.3685	-8.2806	-9.3834	-9.7819	-8.1548	-8.7032	-4.8751	1.3175	2.8767	-2.613	0.3708	-3.9722	-5.3221
109.375	-6.588	-8.7117	-6.2179	-9.0417	-7.4255	-4.348	-2.424	0.4027	3.7655	-0.8188	3.0398	0.2013	-5.295	-7.8775	-7.7102	-9.1975	-9.407	-8.7015	-8.6364	-9.9438	-10.1366	-8.4011	-8.7769	-4.6682	1.5149	3.5461	-1.7769	1.7768	-4.7545	-5.7036
113.2812	-6.817	-9.1759	-6.7435	-9.3377	-7.3181	-4.4077	-1.709	0.7622	4.6491	0.3169	4.4985	1.7933	-4.5117	-7.3363	-7.76	-9.2192	-9.368	-8.6535	-8.4164	-9.8601	-9.849	-8.1166	-8.491	-4.1468	1.5671	4.0714	-0.7411	3.1905	-5.2052	-5.789
117.1875	-6.5235	-8.981	-6.7848	-9.0017	-6.6819	-4.0405	-0.7279	1.1205	5.2402	1.5426	5.79	3.419	-3.3209	-6.2576	-7.2467	-8.5647	-8.6898	-8.1344	-7.5558	-9.0575	-8.8656	-7.2275	-7.7725	-3.2921	1.4839	4.404	0.4526	4.5177	-5.2107	-5.5023
121.0938	-5.6964	-8.0961	-6.2934	-8.0234	-5.5315	-3.2399	0.4448	1.418	5.403	2.7511	6.7855	4.9711	-1.7913	-4.7024	-6.1366	-7.2344	-7.3702	-7.1037	-6.0711	-7.5545	-7.2274	-5.7435	-6.6062	-2.1358	1.2768	4.5022	1.735	5.6733	-4.7034	-4.799
125	-4.3786	-6.5794	-5.2796	-6.4711	-3.9449	-2.0494	1.7057	1.5977	5.0436	3.8326	7.3861	6.3511	-0.0353	-2.7903	-4.465	-5.3117	-5.4825	-5.5803	-4.0545	-5.4554	-5.0598	-3.7542	-5.0416	-0.7553	0.9565	4.3366	3.0176	6.5886	-3.6717	-3.6751
128.9062	-2.6548	-4.562	-3.8075	-4.475	-2.0471	-0.5524	2.9413	1.6163	4.1276	4.6906	7.5342	7.4805	1.8105	-0.6746	-2.3291	-2.9433	-3.1585	-3.6417	-1.6533	-2.9273	-2.5443	-1.4088	-3.185	0.7405	0.5345	3.8985	4.2064	7.2188	-2.1609	-2.1705
132.8125	-0.6364	-2.22	-1.9823	-2.2003	0.013	1.1421	4.0464	1.4524	2.6891	5.2551	7.2195	8.308	3.6094	1.4865	0.129	-0.3109	-0.5633	-1.4122	0.9575	-0.1666	0.1175	1.1137	-1.1815	2.2326	0.0281	3.2068	5.2188	7.5476	-0.2653	-0.3643
136.7188	1.5522	0.2569	0.0654	0.1799	2.0864	2.9152	4.9406	1.111	0.8278	5.4919	6.4782	8.8127	5.2448	3.556	2.7437	2.3995	2.1302	0.9549	3.6025	2.6334	2.7395	3.6354	0.8084	3.6118	-0.5355	2.3121	5.9973	7.5886	1.8837	1.6337
140.625	3.7846	2.6941	2.1947	2.5081	4.0437	4.6512	5.5786	0.6228	-1.3043	5.4052	5.3852	9.0013	6.634	5.4332	5.3476	5.0222	4.7617	3.2981	6.1259	5.3093	5.1758	6.0028	2.632	4.7942	-1.1184	1.2926	6.5164	7.3813	4.1326	3.6963
144.5312	5.9395	4.9501	4.2666	4.6569	5.7875	6.2476	5.952	0.0378	-3.5238	5.0337	4.0427	8.9028	7.7322	7.0574	7.7881	7.4261	7.1966	5.4671	8.4028	7.7406	7.332	8.0997	4.1638	5.7275	-1.6757	0.245	6.7814	6.9834	6.3203	5.6914
148.4375	7.9066	6.9249	6.1525	6.5338	7.2556	7.6227	6.0847	-0.5834	-5.6412	4.4419	2.5669	8.561	8.528	8.4014	9.9398	9.5188	9.3314	7.3379	10.3425	9.8513	9.1604	9.8496	5.3192	6.3911	-2.1619	-0.7301	6.8219	6.4603	8.2929	7.495
152.3438	9.5921	8.5592	7.7412	8.0806	8.4193	8.7202	6.0241	-1.1781	-7.4832	3.7097	1.0754	8.0275	9.0357	9.4598	11.7111	11.2446	11.0946	8.8235	11.8871	11.6029	10.6486	11.212	6.0606	6.7901	-2.5373	-1.5424	6.6815	5.8761	9.9192	9.0031
156.25	10.9238	9.8271	8.9445	9.269	9.2764	9.5109	5.8296	-1.6893	-8.9116	2.9217	-0.3222	7.3578	9.2854	10.2374	13.0481	12.5774	12.4452	9.878	13.0095	12.9822	11.8027	12.1751	6.3965	6.9479	-2.7736	-2.1232	6.4084	5.2868	11.103	10.1413
160.1562	11.856	10.7282	9.7013	10.0954	9.8427	9.9915	5.5616	-2.0722	-9.8354	2.1568	-1.5321	6.6082	9.3146	10.7413	13.9331	13.5139	13.3689	10.4943	13.7088	13.9906	12.6346	12.7478	6.3713	6.8985	-2.8567	-2.4336	6.0478	4.7367	11.7933	10.871
164.0625	12.3715	11.2785	9.9803	10.5751	10.1433	10.1788	5.2712	-2.2992	-10.2181	1.4791	-2.4834	5.8328	9.1619	10.978	14.3811	14.0662	13.8732	10.697	14.0058	14.6353	13.1528	12.9529	6.0511	6.6799	-2.7887	-2.4667	5.6366	4.2567	11.9869	11.1918
167.9688	12.4827	11.5059	9.7824	10.7378	10.2056	10.1013	4.9928	-2.3652	-10.0797	0.9302	-3.1333	5.0804	8.8632	10.9552	14.4333	14.2576	13.9825	10.5315	13.9366	14.9267	13.362	12.8219	5.5068	6.3293	-2.5874	-2.2461	5.2007	3.8648	11.7257	11.1375
171.875	12.2304	11.4473	9.1418	10.6241	10.0563	9.7946	4.7421	-2.2878	-9.491	0.5266	-3.4709	4.3909	8.4505	10.687	14.15	14.121	13.7343	10.0539	13.5471	14.8801	13.267	12.3933	4.8017	5.8806	-2.284	-1.8193	4.7551	3.5672	11.0891	10.7697
175.7812	11.6815	11.1491	8.1271	10.2835	9.7225	9.2991	4.5187	-2.1042	-8.5613	0.2619	-3.5152	3.7933	7.9533	10.2002	13.6046	13.6997	13.1775	9.3251	12.8879	14.5216	12.8821	11.7134	3.9852	5.3651	-1.9179	-1.2473	4.3073	3.3621	10.1826	10.1685
179.6875	10.9238	10.6669	6.8377	9.7719	9.2355	8.6616	4.3123	-1.8622	-7.42	0.1133	-3.3091	3.3051	7.4003	9.5391	12.8786	13.0491	12.3713	8.4072	12.0114	13.8925	12.2377	10.8376	3.0925	4.8123	-1.5301	-0.5932	3.8616	3.243	9.1258	9.4227
183.5938	10.0569	10.0634	5.3952	9.1488	8.6321	7.9364	4.1099	-1.6098	-6.1965	0.0515	-2.9099	2.9332	6.8204	8.7636	12.0574	12.2356	11.3834	7.3633	10.9702	13.0507	11.3843	9.8298	2.1483	4.2512	-1.1567	0.0888	3.4237	3.2028	8.0385	8.6207
187.5	9.1802	9.402	3.9295	8.4719	7.9541	7.1817	3.9013	-1.386	-5.0023	0.0484	-2.3792	2.6763	6.2417	7.9428	11.2248	11.3324	10.2874	6.2579	9.8171	12.0659	10.3887	8.7586	1.1734	3.7098	-0.8238	0.76	3.0035	3.2363	7.0286	7.8431
191.4062	8.3817	8.7395	2.5618	7.7912	7.2438	6.4522	3.6819	-1.216	-3.9196	0.0834	-1.7744	2.5266	5.6884	7.1436	10.4555	10.4117	9.1581	5.1561	8.6057	11.0113	9.3258	7.6913	0.1894	3.2135	-0.5459	1.3996	2.6162	3.3407	6.1822	7.1575
195.3125	7.7299	8.117	1.3885	7.1434	6.538	5.7898	3.4524	-1.1102	-2.9981	0.1448	-1.1433	2.4721	5.1779	6.4193	9.8077	9.5355	8.0656	4.1205	7.3906	9.9521	8.2665	6.6872	-0.7773	2.7812	-0.3265	2.0022	2.28	3.5149	5.5572	6.6147
199.2188	7.2692	7.5548	0.4702	6.5479	5.8631	5.2161	3.2179	-1.0674	-2.2582	0.2281	-0.5224	2.499	4.7183	5.8009	9.3161	8.7461	7.0679	3.2059	6.2251	8.9359	7.2672	5.7903	-1.6959	2.4236	-0.161	2.5727	2.0142	3.7573	5.1813	6.246
203.125	7.0171	7.0511	-0.1728	6.006	5.2331	4.7303	2.9863	-1.079	-1.6992	0.3336	0.063	2.5935	4.309	5.2947	8.9895	8.0607	6.2039	2.4533	5.1565	7.987	6.3614	5.0258	-2.5337	2.1414	-0.0406	3.1198	1.8354	4.0652	5.0527	6.0619
207.0312	6.9646	6.5871	-0.5563	5.5046	4.6516	4.3136	2.7674	-1.1328	-1.3069	0.4637	0.5982	2.7441	3.9447	4.8867	8.8144	7.471	5.4888	1.885	4.2206	7.107	5.5597	4.4002	-3.2599	1.928	0.0454	3.6506	1.7566	4.4338	5.1451	6.0527
210.9375	7.0786	6.1363	-0.7215	5.0228	4.1172	3.9392	2.5743	-1.2159	-1.06	0.6225	1.0779	2.944	3.6223	4.5534	8.7613	6.9498	4.9149	1.5031	3.4381	6.2815	4.8546	3.9056	-3.8486	1.7749	0.1085	4.1676	1.7868	4.8568	5.415	6.1924
214.8438	7.3092	5.6755	-0.719	4.5403	3.6302	3.5847	2.4244	-1.3146	-0.9344	0.816	1.5042	3.1913	3.3482	4.2756	8.7944	6.4613	4.4568	1.2929	2.8146	5.4907	4.2318	3.5278	-4.2799	1.678	0.1607	4.6685	1.9308	5.3272	5.8122	6.4451
218.75	7.6001	5.1929	-0.5947	4.0446	3.198	3.2433	2.339	-1.4153	-0.9056	1.0519	1.8837	3.4886	3.1431	4.049	8.8797	5.9736	4.0807	1.2287	2.3438	4.7215	3.6816	3.2526	-4.5411	1.6425	0.2145	5.1472	2.1906	5.8379	6.2889	6.7732
222.6562	7.901	4.692	-0.3796	3.5352	2.8369	2.9276	2.3417	-1.5046	-0.9511	1.3381	2.2232	3.8399	3.0406	3.8898	8.9917	5.4685	3.7532	1.2796	2.0117	3.9744	3.2073	3.0712	-4.6281	1.6837	0.2806	5.5953	2.5638	6.3809	6.8079	7.1436
226.5625	8.1769	4.1902	-0.0877	3.0231	2.5689	2.6657	2.452	-1.5727	-1.0527	1.679	2.5248	4.2457	3.0807	3.8309	9.1155	4.9461	3.4494	1.4153	1.8014	3.2669	2.8275	2.9805	-4.5482	1.8219	0.3653	6.0024	3.0415	6.9444	7.3442	7.5312
230.4688	8.4136	3.7138	0.2792	2.5273	2.4152	2.4899	2.6796	-1.6153	-1.1991	2.0711	2.7822	4.6979	3.2981	3.9113	9.2464	4.4229	3.1557	1.6081	1.6952	2.6286	2.5706	2.9798	-4.3218	2.0741	0.4671	6.3558	3.6057	7.5099	7.8835	7.9188
234.375	8.6166	3.2905	0.7232	2.0685	2.3895	2.4238	3.0194	-1.6356	-1.3851	2.5009	2.981	5.1778	3.7104	4.1616	9.3865	3.926	2.8701	1.8352	1.6766	2.094	2.4658	3.0664	-3.9831	2.4446	0.5761	6.6401	4.2279	8.0513	8.4168	8.2957
238.2812	8.8051	2.9423	1.2414	1.6636	2.492	2.4733	3.4496	-1.6438	-1.609	2.9456	3.1023	5.6567	4.3101	4.5922	9.5397	3.4842	2.5993	2.0778	1.7302	1.6923	2.532	3.2321	-3.5775	2.9194	0.6756	6.839	4.8705	8.5363	8.935	8.6552
242.1875	9.0009	2.678	1.82	1.3217	2.7085	2.6236	3.9366	-1.6532	-1.8672	3.3781	3.1307	6.1022	5.0629	5.1865	9.707	3.1196	2.3547	2.3215	1.8418	1.439	2.7697	3.4617	-3.1553	3.4654	0.746	6.9379	5.4906	8.9315	9.4246	8.9932
246.0938	9.2181	2.4888	2.4316	1.0417	3.0119	2.8429	4.4413	-1.6753	-2.1483	3.7739	3.062	6.4845	5.9123	5.9016	9.8834	2.8408	2.1481	2.555	1.9981	1.3314	3.1572	3.7348	-2.7617	4.0359	0.7704	6.928	6.0468	9.2089	9.8664	9.3054
250	9.4527	2.3472	3.0364	0.8132	3.3662	3.0904	4.928	-1.7149	-2.4295	4.1177	2.9092	6.7834	6.7902	6.6757	10.0552	2.6403	1.9879	2.7693	2.186	1.3475	3.6518	4.0297	-2.4272	4.58	0.7395	6.8102	6.5052	9.351	10.2368	9.5845
253.9062	9.6781	2.2109	3.5869	0.6189	3.7322	3.3251	5.3714	-1.7659	-2.6755	4.4076	2.7034	6.9917	7.629	7.4393	10.2009	2.4947	1.877	2.9563	2.3918	1.4487	4.1957	4.3271	-2.1607	5.0525	0.6547	6.5976	6.8453	9.3549	10.5103	9.8174
257.8125	9.8462	2.0326	4.0348	0.4385	4.0727	3.5136	5.759	-1.8109	-2.8435	4.6552	2.4896	7.116	8.3717	8.1272	10.2932	2.3688	1.8101	3.1072	2.5997	1.5871	4.7248	4.6127	-1.9491	5.4218	0.5293	6.3155	7.0618	9.2327	10.6635	9.9828
261.7188	9.8947	1.7707	4.3379	0.2525	4.3566	3.6357	6.0914	-1.8241	-2.8897	4.8819	2.3185	7.1733	8.9795	8.6877	10.3034	2.2222	1.7729	3.2106	2.7906	1.7122	5.1788	4.8765	-1.7651	5.6741	0.3864	5.9988	7.1648	9.0088	10.6774	10.053
265.625	9.76	1.3987	4.4663	0.0452	4.5619	3.687	6.3774	-1.777	-2.7787	5.1123	2.2367	7.186	9.4337	9.0882	10.205	2.0164	1.7426	3.252	2.9403	1.7792	5.5088	5.1097	-1.5803	5.8117	0.2551	5.6875	7.1746	8.7154	10.5401	9.9978
269.5312	9.3909	0.9095	4.4043	-0.1943	4.6763	3.676	6.6282	-1.6469	-2.4915	5.3674	2.2778	7.1767	9.7331	9.3155	9.9753	1.7198	1.6883	3.2124	3.0196	1.7538	5.6823	5.3006	-1.3805	5.8489	0.1644	5.421	7.1175	8.3874	10.2474	9.7908
273.4375	8.7597	0.3127	4.1508	-0.4746	4.6955	3.6183	6.8526	-1.4237	-2.031	5.659	2.4566	7.1637	9.8897	9.3732	9.5961	1.3114	1.5731	3.0701	2.9961	1.6138	5.6842	5.4312	-1.1769	5.8068	0.1375	5.2336	7.0199	8.0578	9.8026	9.4152
277.3438	7.8679	-0.3724	3.716	-0.8047	4.6208	3.5292	7.053	-1.1135	-1.4216	5.9869	2.7689	7.1594	9.9229	9.2765	9.054	0.7797	1.357	2.8026	2.8377	1.3488	5.5144	5.4772	-1.0082	5.708	0.1874	5.1508	6.9055	7.7555	9.2161	8.8669
281.25	6.7441	-1.1259	3.1179	-1.1966	4.4559	3.4171	7.2255	-0.7378	-0.7053	6.3406	3.1945	7.1706	9.8554	9.0482	8.342	0.1212	1.0002	2.3906	2.5173	0.9567	5.1849	5.4118	-0.9343	5.5744	0.3159	5.1887	6.7946	7.5045	8.5041	8.1562
285.1562	5.4384	-1.9342	2.3783	-1.6657	4.2052	3.2795	7.3622	-0.3286	0.0657	6.7027	3.7031	7.201	9.7111	8.7152	7.4626	-0.6615	0.4693	1.8227	2.0175	0.4434	4.718	5.2123	-1.0216	5.4264	0.5142	5.3539	6.7052	7.3252	7.6871	7.3061
289.0625	4.0136	-2.7916	1.5205	-2.2274	3.8739	3.1043	7.455	0.0786	0.8375	7.0538	4.26	7.2536	9.515	8.3088	6.4318	-1.5592	-0.2554	1.0991	1.3352	-0.1779	4.1462	4.868	-1.3271	5.2828	0.7655	5.6436	6.6535	7.2339	6.7885	6.3492
292.9688	2.5377	-3.6971	0.5702	-2.8903	3.4712	2.8752	7.5004	0.4515	1.5614	7.3775	4.8316	7.333	9.294	7.8653	5.2805	-2.5527	-1.1719	0.2343	0.4861	-0.8829	3.5129	4.3862	-1.8826	5.1605	1.0477	6.0451	6.6541	7.2426	5.8318	5.3244
296.875	1.0781	-4.6451	-0.4423	-3.6484	3.0142	2.5803	7.5021	0.7652	2.1981	7.6625	5.3869	7.4451	9.0773	7.4274	4.0552	-3.6088	-2.2499	-0.7414	-0.4921	-1.633	2.8737	3.7956	-2.6843	5.0745	1.3352	6.5343	6.7187	7.356	4.8403	4.2727
300.7812	-0.303	-5.6169	-1.4795	-4.474	2.5309	2.2205	7.4726	1.0044	2.7193	7.9034	5.8981	7.5933	8.8957	7.0432	2.8141	-4.6755	-3.4279	-1.7826	-1.5374	-2.3731	2.2941	3.145	-3.6886	5.0363	1.5994	7.074	6.8533	7.5682	3.8367	3.2336
304.6875	-1.5516	-6.5731	-2.494	-5.3165	2.0614	1.8141	7.4309	1.164	3.1077	8.0992	6.3392	7.7749	8.7783	6.7625	1.6215	-5.6831	-4.6155	-2.8302	-2.5658	-3.0331	1.8436	2.4997	-4.8145	5.0535	1.8104	7.614	7.0561	7.8595	2.8447	2.2436
308.5938	-2.6244	-7.4538	-3.4304	-6.106	1.6552	1.3965	7.3989	1.2473	3.3549	8.2508	6.6851	7.9768	8.749	6.6302	0.5415	-6.5483	-5.7035	-3.8166	-3.4776	-3.5344	1.5873	1.9338	-5.9536	5.1285	1.9383	8.0933	7.3145	8.1948	1.8906	1.3339
312.5	-3.491	-8.1838	-4.229	-6.7634	1.3646	1.0141	7.3971	1.2646	3.4603	8.3592	6.9121	8.1729	8.8214	6.6788	-0.3695	-7.1861	-6.5789	-4.673	-4.1689	-3.8007	1.5742	1.5206	-6.9862	5.2579	1.9563	8.4458	7.605	8.5247	1.0034	0.5296
316.4062	-4.1356	-8.6852	-4.833	-7.2123	1.2379	0.7159	7.4402	1.232	3.4303	8.4247	6.9997	8.3264	8.997	6.9223	-1.0689	-7.5225	-7.142	-5.3384	-4.5463	-3.77	1.8294	1.3226	-7.7999	5.4331	1.8443	8.6091	7.8946	8.7905	0.2131	-0.1512
320.3125	-4.5572	-8.8901	-5.1969	-7.3904	1.3122	0.5442	7.5366	1.1701	3.2777	8.4479	6.9349	8.3951	9.2646	7.3539	-1.5331	-7.5081	-7.3226	-5.768	-4.5425	-3.4058	2.3498	1.3837	-8.3074	5.6419	1.5944	8.5347	8.1453	8.9318	-0.4532	-0.6991
324.2188	-4.7684	-8.7536	-5.2937	-7.257	1.6082	0.5287	7.6879	1.1033	3.0224	8.431	6.7159	8.3393	9.6036	7.9485	-1.7596	-7.1267	-7.0899	-5.9393	-4.1285	-2.7024	3.1071	1.7228	-8.4579	5.8714	1.2151	8.1979	8.3201	8.8976	-0.9752	-1.114
328.125	-4.7921	-8.262	-5.1194	-6.798	2.1285	0.6845	7.8907	1.0578	2.6913	8.3794	6.3553	8.1316	9.9892	8.6687	-1.7671	-6.3967	-6.4563	-5.8541	-3.3205	-1.6864	4.0549	2.332	-8.2419	6.1108	0.7328	7.6044	8.3896	8.6568	-1.3428	-1.4062
332.0312	-4.6584	-7.4352	-4.6941	-6.0264	2.8568	1.0126	8.1387	1.0593	2.3173	8.302	5.8811	7.764	10.3977	9.4724	-1.5917	-5.3682	-5.4742	-5.5379	-2.1797	-0.4108	5.1382	3.1783	-7.6889	6.3527	0.1889	6.7901	8.3366	8.2054	-1.5576	-1.5957
335.9375	-4.4017	-6.3264	-4.0614	-4.9819	3.7591	1.5022	8.4235	1.1294	1.9366	8.2105	5.3351	7.2519	10.8099	10.3196	-1.2825	-4.1154	-4.2288	-5.037	-0.8043	1.0512	6.3021	4.2072	-6.8628	6.593	-0.3674	5.8151	8.1585	7.5695	-1.633	-1.7113
339.8438	-4.061	-5.0161	-3.2853	-3.7294	4.7868	2.1312	8.7349	1.282	1.5853	8.1172	4.7689	6.6335	11.2128	11.1748	-0.895	-2.728	-2.827	-4.4157	0.6833	2.6149	7.4964	5.3484	-5.8545	6.8276	-0.8906	4.7519	7.8659	6.8008	-1.5943	-1.7879
343.75	-3.6799	-3.6047	-2.4449	-2.3545	5.8798	2.866	9.0608	1.5194	1.2949	8.0335	4.2377	5.9646	11.598	12.0089	-0.4859	-1.3028	-1.3862	-3.7513	2.1539	4.191	8.6774	6.5228	-4.7741	7.0504	-1.3479	3.6732	7.4793	5.9698	-1.4783	-1.8643
347.6562	-3.3056	-2.2013	-1.6272	-0.9553	6.9727	3.6624	9.3884	1.8319	1.0899	7.9696	3.7945	5.3116	11.9606	12.7982	-0.1086	0.0657	-0.0211	-3.1278	3.4901	5.6934	9.808	7.651	-3.7391	7.2518	-1.7247	2.6426	7.0263	5.1552	-1.3325	-1.9791
351.5625	-2.9842	-0.9107	-0.9153	0.3695	8.0035	4.4696	9.7074	2.1991	0.9876	7.9362	3.4864	4.7445	12.2981	13.525	0.1904	1.294	1.169	-2.6261	4.6026	7.0469	10.8571	8.6631	-2.8599	7.4215	-2.0213	1.7126	6.5409	4.4362	-1.2113	-2.1677
355.4688	-2.7555	0.1804	-0.3776	1.5336	8.9204	5.2369	10.0143	2.5953	0.9992	7.9479	3.3511	4.3297	12.6118	14.1794	0.3742	2.3187	2.1116	-2.3118	5.4411	8.1943	11.8009	9.5089	-2.2215	7.5537	-2.2446	0.9272	6.0644	3.8861	-1.1697	-2.4569
359.375	-2.6465	1.0121	-0.0567	2.4738	9.6877	5.9208	10.314	2.9955	1.1313	8.0237	3.4144	4.1233	12.9066	14.7584	0.4174	3.1005	2.7679	-2.2241	5.9968	9.1005	12.6228	10.1641	-1.8671	7.6516	-2.3975	0.326	5.6453	3.5675	-1.2547	-2.8615
363.2812	-2.6701	1.5551	0.0353	3.1556	10.2855	6.4901	10.6184	3.3798	1.3855	8.1855	3.6877	4.1637	13.1895	15.263	0.3081	3.6252	3.1338	-2.3686	6.2953	9.7518	13.3111	10.6314	-1.7889	7.7297	-2.4733	-0.0541	5.3368	3.5266	-1.4971	-3.381
367.1875	-2.8255	1.8089	-0.0842	3.5716	10.706	6.927	10.9405	3.735	1.7548	8.4521	4.1633	4.4648	13.4659	15.6928	0.0493	3.8985	3.2341	-2.717	6.3839	10.1513	13.8558	10.9351	-1.9287	7.8107	-2.4555	-0.1832	5.189	3.7873	-1.906	-3.9993
371.0938	-3.1019	1.7949	-0.3748	3.7358	10.9491	7.2252	11.287	4.0538	2.2207	8.8321	4.8119	5.0114	13.735	16.0401	-0.3427	3.9394	3.1116	-3.2136	6.3152	10.3114	14.2446	11.1119	-2.1918	7.9201	-2.3234	-0.0448	5.2394	4.3453	-2.4675	-4.6863
375	-3.4834	1.5502	-0.784	3.6761	11.0183	7.3878	11.6518	4.3329	2.7522	9.3176	5.5834	5.7584	13.9874	16.2867	-0.8413	3.7726	2.8157	-3.7882	6.1333	10.2477	14.4615	11.2006	-2.4687	8.0791	-2.061	0.3552	5.5044	5.1658	-3.1465	-5.4024
378.9062	-3.953	1.1208	-1.2582	3.428	10.9198	7.4241	12.0147	4.5713	3.3079	9.8815	6.4104	6.6353	14.2044	16.406	-1.414	3.4234	2.3912	-4.3716	5.8649	9.9753	14.4887	11.2328	-2.6619	8.2978	-1.6659	0.9826	5.9724	6.1845	-3.8931	-6.1041
382.8125	-4.494	0.5575	-1.752	3.0302	10.6641	7.3478	12.3438	4.77	3.8412	10.4793	7.2159	7.5547	14.3615	16.3689	-2.0269	2.9165	1.873	-4.9085	5.5177	9.509	14.3116	11.2277	-2.708	8.572	-1.1556	1.7735	6.6028	7.3133	-4.6501	-6.7498
386.7188	-5.0896	-0.0868	-2.2326	2.5226	10.2678	7.176	12.6023	4.9316	4.3078	11.0543	7.9237	8.4242	14.4339	16.1533	-2.6474	2.2774	1.286	-5.3651	5.0855	8.8671	13.9264	11.1922	-2.5894	8.8832	-0.5698	2.6387	7.3304	8.4507	-5.3622	-7.3044
390.625	-5.72	-0.7591	-2.679	1.9464	9.7566	6.9292	12.7577	5.0618	4.6728	11.547	8.4681	9.159	14.4034	15.7544	-3.2436	1.5361	0.6506	-5.7274	4.5606	8.077	13.3477	11.1258	-2.3319	9.2019	0.0328	3.4747	8.0746	9.4939	-5.9824	-7.7419
394.5312	-6.3587	-1.4081	-3.0771	1.3442	9.1658	6.6327	12.7901	5.169	4.9167	11.9053	8.803	9.6935	14.2647	15.1916	-3.7838	0.7313	-0.0089	-5.9941	3.9477	7.1801	12.6133	11.028	-1.9891	9.4948	0.5826	4.1783	8.7509	10.3525	-6.4764	-8.0455
398.4375	-6.9701	-1.9861	-3.4143	0.76	8.5399	6.3168	12.698	5.2647	5.0376	12.0942	8.9081	9.9896	14.0286	14.5112	-4.2356	-0.0883	-0.657	-6.1668	3.2745	6.2339	11.7844	10.9054	-1.6216	9.7321	1.0105	4.6627	9.2837	10.9597	-6.8244	-8.2064
402.3438	-7.511	-2.4524	-3.6747	0.2374	7.9287	6.0158	12.4989	5.3613	5.0503	12.1014	8.7897	10.0393	13.7223	13.7819	-4.5679	-0.8659	-1.2459	-6.2432	2.5949	5.3084	10.9396	10.7745	-1.2778	9.8939	1.259	4.87	9.6165	11.2789	-7.02	-8.2219
406.25	-7.9353	-2.7762	-3.8386	-0.1832	7.3818	5.7664	12.2269	5.47	4.9816	11.9386	8.4788	9.8629	13.3857	13.0852	-4.7534	-1.5424	-1.7193	-6.2154	1.9811	4.4787	10.1647	10.6609	-0.9824	9.973	1.2916	4.7786	9.7188	11.3057	-7.0683	-8.0945
410.1562	-8.2012	-2.9398	-3.8851	-0.4687	6.9437	5.6044	11.9259	5.5988	4.8654	11.6396	8.0251	9.5027	13.0649	12.5025	-4.7733	-2.0642	-2.0229	-6.0724	1.51	3.8147	9.5398	10.5936	-0.7341	9.9762	1.0988	4.405	9.5889	11.0656	-6.9827	-7.832
414.0625	-8.2776	-2.9397	-3.7965	-0.5959	6.6485	5.5626	11.6443	5.7535	4.7378	11.2552	7.4912	9.0156	12.8058	12.1027	-4.6218	-2.3901	-2.1143	-5.8051	1.246	3.3713	9.1278	10.6001	-0.5095	9.9224	0.7	3.7997	9.2541	10.6085	-6.7812	-7.4482
417.9688	-8.1492	-2.7853	-3.5622	-0.5537	6.5176	5.6672	11.4292	5.9399	4.6352	10.8475	6.9459	8.4649	12.6486	11.9324	-4.3074	-2.4965	-1.9726	-5.4111	1.227	3.1811	8.9665	10.7006	-0.2726	9.8406	0.1416	3.0396	8.7671	10.0023	-6.4821	-6.9626
421.875	-7.819	-2.4957	-3.1824	-0.3445	6.5577	5.9333	11.3214	6.166	4.5923	10.4831	6.4577	7.9139	12.6222	12.0102	-3.8527	-2.3802	-1.6027	-4.8981	1.4572	3.251	9.0645	10.9045	0.0148	9.7645	-0.51	2.2165	8.1991	9.3251	-6.1018	-6.3995
425.7812	-7.3081	-2.0966	-2.6696	0.015	6.7596	6.36	11.3512	6.4432	4.6406	10.2256	6.0886	7.4189	12.7415	12.3246	-3.2925	-2.0588	-1.036	-4.2845	1.9054	3.5611	9.4003	11.2076	0.3817	9.7267	-1.1793	1.424	7.63	8.6565	-5.6551	-5.7865
429.6875	-6.6551	-1.6174	-2.0498	0.4948	7.0984	6.9273	11.534	6.7832	4.8052	10.1271	5.8868	7.0239	13.0049	12.8361	-2.6691	-1.5705	-0.3274	-3.5998	2.5107	4.0661	9.9261	11.5907	0.8388	9.7516	-1.7948	0.7446	7.1351	8.0685	-5.1572	-5.1527
433.5938	-5.9114	-1.0901	-1.3606	1.0529	7.5349	7.5971	11.8682	7.1936	5.1016	10.221	5.8818	6.7577	13.3952	13.4835	-2.0294	-0.971	0.4509	-2.8823	3.191	4.7002	10.5744	12.0215	1.3749	9.8503	-2.3009	0.2382	6.7735	7.617	-4.6271	-4.5272
437.5	-5.1377	-0.5472	-0.6482	1.6395	8.0202	8.3181	12.3348	7.6735	5.5328	10.5177	6.0811	6.633	13.8824	14.1934	-1.4199	-0.3283	1.2179	-2.1761	3.8558	5.3841	11.2671	12.4582	1.9593	10.0194	-2.6649	-0.0626	6.5791	7.3367	-4.0887	-3.9378
441.4062	-4.3972	-0.0209	0.0377	2.2021	8.5029	9.0344	12.9009	8.2118	6.0883	11.0037	6.4704	6.6473	14.428	14.8914	-0.8838	0.284	1.8934	-1.5265	4.4181	6.035	11.9262	12.857	2.5496	10.2422	-2.8772	-0.1534	6.5577	7.2386	-3.5705	-3.4106
445.3125	-3.7494	0.4593	0.6494	2.6926	8.9363	9.6936	13.5249	8.7881	6.7459	11.6448	7.0172	6.7866	14.9909	15.513	-0.4573	0.7967	2.4075	-0.9756	4.8063	6.5774	12.4849	13.1791	3.1018	10.4943	-2.947	-0.0522	6.6898	7.3123	-3.1022	-2.9687
449.2188	-3.2449	0.8664	1.1466	3.0732	9.2848	10.2536	14.163	9.3759	7.4737	12.3915	7.675	7.028	15.5318	16.0114	-0.1677	1.1538	2.7087	-0.5566	4.973	6.9529	12.8943	13.3971	3.5791	10.749	-2.8952	0.2074	6.9385	7.5297	-2.7102	-2.6315
453.125	-2.9202	1.1765	1.5007	3.3208	9.5274	10.6865	14.7745	9.9452	8.2333	13.1862	8.3894	7.3419	16.0173	16.361	-0.0313	1.3203	2.7698	-0.2908	4.9005	7.1272	13.1281	13.4984	3.9575	10.9828	-2.7478	0.5844	7.258	7.851	-2.4141	-2.4118
457.0312	-2.7953	1.3682	1.6968	3.4296	9.6574	10.9794	15.3254	10.4653	8.9818	13.9691	9.1032	7.694	16.4209	16.5564	-0.0513	1.2862	2.5917	-0.1836	4.6021	7.0934	13.1825	13.4857	4.228	11.1788	-2.5309	1.0368	7.603	8.2298	-2.2231	-2.3127
460.9375	-2.872	1.425	1.7346	3.4101	9.6793	11.1338	15.7896	10.9056	9.6749	14.6839	9.761	8.0464	16.7239	16.6082	-0.2173	1.0678	2.2033	-0.2234	4.1192	6.8706	13.0729	13.3747	4.395	11.3283	-2.2683	1.5264	7.9345	8.6197	-2.1349	-2.3246
464.8438	-3.1351	1.3391	1.6269	3.2859	9.605	11.1623	16.1485	11.2373	10.2701	15.2821	10.3148	8.3604	16.9144	16.5372	-0.5051	0.7038	1.6585	-0.3828	3.5158	6.4993	12.8288	13.1906	4.4743	11.4309	-1.9802	2.0216	8.2247	8.9792	-2.1368	-2.4244
468.75	-3.5542	1.115	1.3979	3.0871	9.4494	11.084	16.3889	11.4353	10.7303	15.7269	10.7277	8.6009	16.9876	16.3685	-0.8798	0.2478	1.0296	-0.6208	2.8681	6.0331	12.489	12.9627	4.4887	11.4929	-1.6834	2.4987	8.4586	9.2768	-2.2074	-2.5784
472.6562	-4.0884	0.7694	1.0781	2.8427	9.2265	10.9206	16.5027	11.482	11.0272	15.9955	10.9776	8.7408	16.9444	16.1273	-1.3006	-0.2419	0.397	-0.8894	2.252	5.5287	12.0954	12.7188	4.4623	11.524	-1.3929	2.9412	8.6341	9.4947	-2.3219	-2.7478
476.5625	-4.6912	0.3283	0.6999	2.5747	8.9477	10.6924	16.4861	11.3696	11.1448	16.0801	11.0585	8.7657	16.7925	15.8356	-1.7282	-0.7136	-0.1623	-1.1406	1.7305	5.0361	11.6878	12.4798	4.4134	11.5335	-1.1235	3.3385	8.7597	9.6296	-2.4562	-2.8969
480.4688	-5.3152	-0.1776	0.2931	2.2944	8.6219	10.4162	16.3415	11.1034	11.0803	15.9878	10.9789	8.6757	16.5454	15.512	-2.1303	-1.1306	-0.5868	-1.3334	1.3434	4.5905	11.2999	12.2565	4.3507	11.5274	-0.8901	3.684	8.851	9.6905	-2.5911	-3.0004
484.375	-5.916	-0.7166	-0.1165	2.0044	8.2581	10.1067	16.0794	10.7028	10.8451	15.7391	10.7582	8.4855	16.2243	15.1725	-2.4848	-1.4759	-0.8397	-1.439	1.1026	4.2093	10.9555	12.0503	4.2729	11.5074	-0.7067	3.9744	8.9266	9.6954	-2.7134	-3.0465
488.2812	-6.4545	-1.2557	-0.5064	1.7038	7.8695	9.7786	15.7212	10.202	10.4648	15.3659	10.4234	8.2213	15.8574	14.8332	-2.7781	-1.7509	-0.9129	-1.442	0.9948	3.8929	10.6681	11.8572	4.1736	11.4733	-0.5835	4.209	9.0043	9.6661	-2.8151	-3.0361
492.1875	-6.8988	-1.76	-0.8546	1.3951	7.4767	9.4497	15.2996	9.6476	9.9779	14.9082	10.0051	7.9161	15.4792	14.5118	-3.0021	-1.9692	-0.8256	-1.3398	0.9888	3.6307	10.441	11.674	4.0487	11.4252	-0.5246	4.3897	9.097	9.6233	-2.8898	-2.9789
496.0938	-7.2252	-2.1925	-1.1394	1.0894	7.1084	9.1409	14.8552	9.0946	9.4326	14.4099	9.5348	7.6036	15.1263	14.2282	-3.1508	-2.1492	-0.6182	-1.1408	1.0445	3.4075	10.2694	11.5022	3.9017	11.3657	-0.5271	4.5188	9.2092	9.5817	-2.9305	-2.8867
500	-7.4209	-2.5178	-1.3407	0.8067	6.7979	8.8737	14.4307	8.5983	8.8811	13.9128	9.0422	7.3113	14.8312	14.0009	-3.2186	-2.3069	-0.3437	-0.8625	1.1223	3.2098	10.1422	11.3485	3.7457	11.2991	-0.583	4.5962	9.3338	9.5462	-2.9279	-2.769
503.9062	-7.4846	-2.7085	-1.4443	0.5727	6.5762	8.6657	14.0626	8.2057	8.3732	13.4506	8.5531	7.055	14.6155	13.8439	-3.2019	-2.4516	-0.0578	-0.5291	1.1888	3.0295	10.0452	11.222	3.5998	11.2288	-0.6827	4.6166	9.4517	9.5093	-2.8725	-2.6307
507.8125	-7.4282	-2.7532	-1.4454	0.4122	6.4658	8.5277	13.7743	7.947	7.9484	13.0449	8.0872	6.8363	14.4852	13.7615	-3.1016	-2.5851	0.191	-0.1699	1.2196	2.8647	9.9636	11.1291	3.4827	11.1539	-0.8185	4.569	9.5337	9.4515	-2.7579	-2.4727
511.7188	-7.2761	-2.6625	-1.3518	0.3412	6.4739	8.4618	13.5719	7.8298	7.6312	12.7033	7.6575	6.6434	14.4286	13.7462	-2.9271	-2.7043	0.3677	0.1835	1.199	2.7182	9.8854	11.0689	3.4054	11.0674	-0.985	4.4395	9.5453	9.3452	-2.5832	-2.2955
515.625	-7.0639	-2.4715	-1.1846	0.3597	6.5894	8.4606	13.4441	7.8385	7.4285	12.4209	7.2707	6.4559	14.4191	13.7786	-2.7003	-2.8068	0.4542	0.4996	1.1178	2.5934	9.8014	11.0317	3.3643	10.9565	-1.1781	4.2177	9.4546	9.1612	-2.3562	-2.1029
519.5312	-6.8344	-2.2359	-0.9777	0.4479	6.7829	8.5073	13.3651	7.9369	7.3298	12.1834	6.9277	6.2512	14.4205	13.8287	-2.4556	-2.8966	0.4485	0.7497	0.9696	2.489	9.7047	10.9999	3.3412	10.8051	-1.3922	3.9031	9.2394	8.8779	-2.0932	-1.905
523.4375	-6.6324	-2.023	-0.7741	0.5674	7.0092	8.5758	13.3011	8.0763	7.3116	11.9723	6.6256	6.0118	14.395	13.8614	-2.236	-2.9872	0.3598	0.9115	0.7502	2.3966	9.5893	10.9524	3.3081	10.5985	-1.6183	3.5102	8.8943	8.4884	-1.8187	-1.7163
527.3438	-6.497	-1.8976	-0.6197	0.6686	7.215	8.6326	13.2177	8.2049	7.3424	11.7694	6.3597	5.7308	14.3113	13.8429	-2.0854	-3.1003	0.2036	0.9724	0.458	2.3001	9.4483	10.8705	3.2368	10.3284	-1.8427	3.0706	8.4342	8.0062	-1.5622	-1.552
531.25	-6.4542	-1.9073	-0.5545	0.7012	7.3479	8.6416	13.0885	8.2786	7.3905	11.5613	6.1261	5.4157	14.152	13.7482	-2.0388	-3.2605	-0.0037	0.9322	0.0971	2.1802	9.2756	10.7441	3.1101	9.9983	-2.0476	2.6294	7.8946	7.4659	-1.3538	-1.423
535.1562	-6.5111	-2.0718	-0.6031	0.6266	7.3677	8.572	12.9003	8.2698	7.4291	11.3427	5.924	5.0897	13.9173	13.5665	-2.1139	-3.4867	-0.2473	0.8041	-0.3203	2.0209	9.0671	10.5751	2.9288	9.6243	-2.2135	2.2376	7.3264	6.9195	-1.2197	-1.3328
539.0625	-6.6535	-2.3765	-0.7684	0.4271	7.2547	8.4069	12.6567	8.1722	7.4414	11.1175	5.7573	4.7884	13.6252	13.3042	-2.3063	-3.7834	-0.5144	0.6135	-0.7717	1.8167	8.8239	10.3776	2.7126	9.2342	-2.3235	1.9414	6.7874	6.428	-1.1762	-1.277
542.9688	-6.8489	-2.7757	-1.0286	0.1116	7.0156	8.1513	12.3768	8.001	7.4223	10.8987	5.6346	4.5541	13.3067	12.9839	-2.588	-4.1353	-0.792	0.3927	-1.2251	1.5781	8.5543	10.1753	2.494	8.8617	-2.3673	1.7715	6.3317	6.0502	-1.2253	-1.2442
546.875	-7.0521	-3.2004	-1.3404	-0.285	6.6829	7.834	12.0914	7.7887	7.3777	10.7056	5.5677	4.4271	12.9998	12.6403	-2.9114	-4.5058	-1.065	0.1752	-1.6423	1.3329	8.2758	9.9973	2.3083	8.5401	-2.3447	1.7346	5.9995	5.8312	-1.3529	-1.2199
550.7812	-7.2158	-3.571	-1.6471	-0.7067	6.3108	7.5046	11.8364	7.5764	7.3227	10.5608	5.5692	4.4376	12.7426	12.3148	-3.2156	-4.8411	-1.3134	-0.0111	-1.9832	1.1239	8.0147	9.8731	2.1828	8.2961	-2.2663	1.8131	5.8108	5.7944	-1.5304	-1.1894
554.6875	-7.3	-3.8113	-1.89	-1.0857	5.9648	7.2224	11.6464	7.4044	7.2776	10.4854	5.6489	4.5986	12.5679	12.0497	-3.4365	-5.0786	-1.5119	-0.1478	-2.2119	1.0018	7.8048	9.8277	2.1298	8.1459	-2.151	1.97	5.7634	5.9372	-1.7209	-1.1412
558.5938	-7.2795	-3.862	-2.0197	-1.3539	5.7108	7.0423	11.5487	7.3027	7.2631	10.4948	5.8113	4.902	12.4989	11.8826	-3.5171	-5.1581	-1.6315	-0.2264	-2.3024	1.0163	7.6826	9.8789	2.1456	8.0934	-2.0209	2.1609	5.8367	6.2328	-1.8875	-1.069
562.5	-7.1462	-3.6914	-2.0066	-1.455	5.6017	6.9997	11.5576	7.2847	7.2942	10.5947	6.0514	5.3191	12.546	11.8408	-3.4178	-5.0335	-1.6432	-0.2464	-2.2428	1.2056	7.682	10.0347	2.2161	8.1324	-1.8944	2.3468	5.9984	6.6366	-2.0023	-0.9717
566.4062	-6.9076	-3.3015	-1.8462	-1.3554	5.6673	7.0998	11.6705	7.3436	7.3751	10.777	6.3528	5.805	12.7052	11.936	-3.125	-4.684	-1.525	-0.2119	-2.0377	1.5871	7.8257	10.2925	2.3241	8.2484	-1.7815	2.5044	6.2127	7.0951	-2.0524	-0.8532
570.3125	-6.5835	-2.7285	-1.5599	-1.0528	5.9063	7.3145	11.8661	7.453	7.4947	11.0181	6.6858	6.3053	12.9562	12.1589	-2.6575	-4.1215	-1.2688	-0.1296	-1.7093	2.1491	8.1169	10.6384	2.4557	8.4216	-1.6818	2.6299	6.4466	7.5551	-2.0418	-0.7209
574.2188	-6.2023	-2.0378	-1.1908	-0.5791	6.2838	7.5866	12.1046	7.5715	7.6258	11.2795	7.0086	6.7639	13.2627	12.4769	-2.0668	-3.3933	-0.8863	-0.0089	-1.2951	2.848	8.5322	11.0468	2.6016	8.6285	-1.5862	2.7366	6.673	7.9703	-1.9886	-0.5854
578.125	-5.7972	-1.3124	-0.7941	0.0037	6.7368	7.8434	12.3327	7.6505	7.7286	11.5119	7.2712	7.1302	13.5754	12.836	-1.4306	-2.5764	-0.4121	0.1366	-0.8439	3.6122	9.0212	11.4815	2.754	8.843	-1.4824	2.8464	6.8719	8.3059	-1.9188	-0.4594
582.0312	-5.402	-0.6375	-0.4258	0.6146	7.1856	8.0144	12.4933	7.6447	7.7586	11.6634	7.4232	7.3665	13.8398	13.1701	-0.8379	-1.7657	0.0999	0.2886	-0.4086	4.3526	9.5132	11.8993	2.9028	9.0387	-1.3598	2.9815	7.03	8.5401	-1.8585	-0.356
585.9375	-5.0448	-0.0833	-0.1295	1.1718	7.5522	8.0508	12.5386	7.5237	7.6783	11.6914	7.4243	7.4536	14.0073	13.4152	-0.3696	-1.0545	0.5859	0.4267	-0.0367	4.9807	9.9318	12.257	3.0343	9.1937	-1.2135	3.1561	7.1414	8.6654	-1.8259	-0.2849
589.8438	-4.7422	0.3122	0.0749	1.6125	7.7796	7.9409	12.4447	7.283	7.4697	11.5744	7.2548	7.3947	14.0484	13.526	-0.0776	-0.5143	0.9871	0.5334	0.2394	5.4279	10.2131	12.5212	3.1357	9.2961	-1.0442	3.374	7.2084	8.6902	-1.8243	-0.2475
593.75	-4.4929	0.553	0.1973	1.9086	7.8483	7.7168	12.221	6.949	7.1431	11.3209	6.9232	7.2159	13.9629	13.4907	0.0297	-0.1768	1.2666	0.6023	0.4105	5.663	10.3242	12.6789	3.2031	9.3495	-0.857	3.6285	7.2431	8.6379	-1.8396	-0.2339
597.6562	-4.2761	0.6854	0.2765	2.074	7.7819	7.4495	11.9124	6.5768	6.7384	10.9701	6.4676	6.9633	13.7832	13.3374	-0.0082	-0.0258	1.422	0.6436	0.495	5.7014	10.2737	12.7443	3.2508	9.3755	-0.6586	3.9062	7.2677	8.5456	-1.8415	-0.2222
601.5625	-4.0548	0.787	0.3702	2.1588	7.6406	7.231	11.5895	6.2388	6.3176	10.5845	5.9494	6.694	13.569	13.1293	-0.112	-0.0009	1.4875	0.6848	0.5355	5.6023	10.1113	12.7582	3.3139	9.4104	-0.4555	4.1905	7.311	8.4582	-1.7895	-0.1821
605.4688	-3.7851	0.9453	0.5391	2.2324	7.5034	7.149	11.3311	6.0066	5.9494	10.2337	5.4396	6.4645	13.3916	12.9478	-0.1824	-0.0139	1.526	0.7645	0.5888	5.4531	9.9141	12.7777	3.4417	9.496	-0.255	4.4652	7.4022	8.4203	-1.6444	-0.0824
609.375	-3.4292	1.233	0.8286	2.361	7.4433	7.2611	11.2011	5.9318	5.6899	9.976	5.0027	6.3178	13.3142	12.869	-0.126	0.0273	1.6101	0.9206	0.7112	5.3456	9.7642	12.8587	3.683	9.6654	-0.0671	4.7156	7.5627	8.4668	-1.3793	0.1004
613.2812	-2.9671	1.6859	1.2552	2.5858	7.5047	7.5761	11.2294	6.0304	5.567	9.8418	4.6815	6.2731	13.3728	12.9398	0.1191	0.1937	1.8012	1.1783	0.943	5.3511	9.7239	13.0369	4.067	9.9303	0.0936	4.9284	7.7976	8.6138	-0.9893	0.3742
617.1875	-2.4057	2.2917	1.8005	2.9096	7.6895	8.0494	11.4009	6.2774	5.5717	9.8256	4.4881	6.3215	13.5634	13.1616	0.5663	0.5168	2.1315	1.5401	1.2968	5.5015	9.8165	13.3143	4.589	10.2735	0.2078	5.0911	8.0913	8.8538	-0.4963	0.7276
621.0938	-1.7803	2.9901	2.4136	3.2948	7.956	8.5928	11.6565	6.6115	5.6602	9.8869	4.4027	6.4277	13.84	13.4863	1.1764	0.9805	2.5951	1.9834	1.7525	5.7812	10.0188	13.6551	5.2051	10.6481	0.2544	5.1903	8.4065	9.1542	0.0541	1.1322
625	-1.1507	3.6865	3.0211	3.6719	8.2295	9.0955	11.906	6.9503	5.7652	9.9604	4.3807	6.5383	14.1225	13.8252	1.8673	1.525	3.1471	2.4632	2.2598	6.1315	10.2654	13.9928	5.839	10.9857	0.2148	5.2113	8.6892	9.4618	0.6	1.5477
628.9062	-0.5905	4.2719	3.5417	3.9561	8.421	9.4504	12.0483	7.2097	5.8143	9.9723	4.3648	6.5925	14.3135	14.0687	2.534	2.0611	3.7131	2.9206	2.7471	6.4651	10.4648	14.2459	6.3981	11.2093	0.0779	5.1383	8.8762	9.7101	1.0757	1.9305
632.8125	-0.172	4.6453	3.9017	4.067	8.4485	9.5774	11.9946	7.3233	5.7482	9.8578	4.3001	6.5351	14.3186	14.1094	3.0731	2.4889	4.2036	3.2938	3.1341	6.6858	10.5197	14.3369	6.7935	11.249	-0.1558	4.9559	8.9058	9.8306	1.4239	2.2418
636.7188	0.0478	4.7324	4.0474	3.946	8.2542	9.4372	11.6874	7.2555	5.5351	9.5748	4.146	6.3269	14.0653	13.8646	3.4039	2.7189	4.5306	3.528	3.3458	6.7085	10.3477	14.2093	6.9589	11.0541	-0.4734	4.6515	8.7265	9.7642	1.6067	2.4534
640.625	0.0369	4.4978	3.9537	3.568	7.8139	9.0342	11.1107	7.0046	5.1761	9.111	3.8843	5.9509	13.516	13.2916	3.482	2.6871	4.6229	3.5837	3.3245	6.4743	9.8963	13.8374	6.8614	10.6022	-0.8521	4.219	8.3054	9.4702	1.6104	2.5502
644.5312	-0.2088	3.9495	3.6274	2.9459	7.1391	8.4101	10.2915	6.597	4.701	8.4841	3.5201	5.414	12.6746	12.3955	3.3029	2.3659	4.4378	3.4415	3.039	5.9596	9.1519	13.2289	6.5045	9.9016	-1.2636	3.6616	7.633	8.9337	1.4472	2.5302
648.4375	-0.6676	3.1377	3.1054	2.1285	6.2734	7.6321	9.2932	6.0766	4.158	7.7363	3.0789	4.746	11.5861	11.2286	2.8987	1.7678	3.9679	3.105	2.4916	5.1802	8.1429	12.4222	5.9239	8.9902	-1.6793	2.9953	6.7268	8.1683	1.1517	2.4031
652.3438	-1.2962	2.1489	2.4498	1.1933	5.2851	6.7807	8.2035	5.4936	3.5998	6.9255	2.5991	3.9949	10.3309	9.8845	2.3288	0.9445	3.2454	2.6024	1.7208	4.1895	6.9377	11.4794	5.1805	7.9322	-2.0744	2.2502	5.6328	7.2166	0.7744	2.1898
656.25	-2.0328	1.0958	1.74	0.2356	4.2585	5.9381	7.1215	4.8957	3.0725	6.117	2.125	3.2211	9.0148	8.4856	1.6703	-0.0185	2.3402	1.9859	0.8006	3.0737	5.6384	10.4788	4.3529	6.8116	-2.4292	1.4703	4.4239	6.147	0.3749	1.9218
660.1562	-2.8007	0.1025	1.0618	-0.6448	3.2843	5.1794	6.1434	4.3245	2.6075	5.3736	1.6983	2.4904	7.7552	7.1678	1.0071	-1.012	1.3539	1.3273	-0.1679	1.9423	4.3698	9.5062	3.5296	5.7245	-2.7293	0.7104	3.1956	5.0469	0.0125	1.6397
664.0625	-3.5116	-0.7112	0.4961	-1.3571	2.4498	4.5656	5.3509	3.8136	2.2195	4.749	1.3522	1.8656	6.6661	6.0616	0.4206	-1.9167	0.4058	0.7095	-1.0704	0.9145	3.2628	8.6464	2.8015	4.7696	-2.9638	0.0307	2.0569	4.0138	-0.2619	1.3901
667.9688	-4.0745	-1.2475	0.1079	-1.8311	1.829	4.1391	4.8012	3.3893	1.9087	4.2811	1.1076	1.3985	5.8423	5.2732	-0.0189	-2.6203	-0.3841	0.214	-1.7979	0.1025	2.436	7.9742	2.2531	4.0364	-3.1245	-0.5097	1.1182	3.1434	-0.412	1.2183
671.875	-4.4089	-1.4459	-0.0617	-2.026	1.4743	3.9222	4.522	3.071	1.666	3.9891	0.9704	1.1232	5.3468	4.8693	-0.2594	-3.0343	-0.9146	-0.0938	-2.2644	-0.4055	1.9763	7.5461	1.9517	3.5948	-3.2043	-0.8612	0.4764	2.5177	-0.4205	1.1607
675.7812	-4.4611	-1.2918	-0.0004	-1.9344	1.41	3.917	4.5095	2.8714	1.479	3.8722	0.9323	1.0516	5.2029	4.8673	-0.2729	-3.1083	-1.1213	-0.1774	-2.4223	-0.5597	1.9238	7.3936	1.9375	3.4843	-3.1977	-0.9909	0.2004	2.1936	-0.2902	1.2362
679.6875	-4.2168	-0.8189	0.2753	-1.5826	1.6293	4.1072	4.7316	2.7954	1.3363	3.9114	0.9727	1.1712	5.3921	5.2333	-0.0599	-2.8388	-0.9879	-0.0369	-2.2701	-0.3577	2.2639	7.5175	2.2144	3.7075	-3.103	-0.8883	0.3189	2.1953	-0.0432	1.441
683.5938	-3.7074	-0.1029	0.7217	-1.0258	2.0933	4.459	5.1333	2.8388	1.2301	4.0724	1.0619	1.4469	5.8575	5.8887	0.3486	-2.2705	-0.5506	0.2902	-1.853	0.1545	2.9284	7.886	2.746	4.228	-2.9239	-0.5683	0.8134	2.5094	0.2827	1.748
687.5	-3.0058	0.751	1.2748	-0.3417	2.7348	4.9227	5.6446	2.9862	1.1562	4.3105	1.1655	1.8255	6.5136	6.723	0.8935	-1.4898	0.108	0.7358	-1.256	0.8892	3.8065	8.4382	3.4584	4.9741	-2.6716	-0.07	1.6195	3.0864	0.6375	2.1108
691.4062	-2.2134	1.6244	1.8583	0.3805	3.4662	5.4362	6.1905	3.2114	1.1132	4.5768	1.2504	2.2435	7.26	7.6127	1.4949	-0.6105	0.8737	1.215	-0.5894	1.7323	4.7647	9.0914	4.2506	5.8493	-2.3652	0.5492	2.6362	3.8467	0.9667	2.4723
695.3125	-1.4418	2.4037	2.3955	1.0515	4.1914	5.931	6.7013	3.4796	1.1019	4.826	1.291	2.6375	7.9979	8.442	2.0659	0.2464	1.6229	1.6439	0.0312	2.5631	5.6707	9.7558	5.013	6.7477	-2.0299	1.2227	3.7418	4.6926	1.2196	2.7766
699.2188	-0.7924	2.998	2.8209	1.5948	4.8212	6.3419	7.122	3.7534	1.1245	5.0235	1.2738	2.9545	8.6457	9.1223	2.5293	0.9743	2.2484	1.9565	0.5078	3.2771	6.4177	10.35	5.6473	7.571	-1.6936	1.8853	4.8146	5.5233	1.3589	2.9801
703.125	-0.3391	3.3524	3.0899	1.9573	5.2875	6.6175	7.4182	3.9982	1.1833	5.1494	1.2002	3.16	9.1501	9.6032	2.8329	1.5005	2.6801	2.1186	0.7799	3.8039	6.9406	10.8158	6.0857	8.2436	-1.3828	2.4824	5.7513	6.2495	1.3684	3.0607
707.0312	-0.1165	3.4541	3.1841	2.1159	5.5536	6.7283	7.5781	4.1868	1.2782	5.1983	1.0838	3.2401	9.4898	9.8757	2.9598	1.7978	2.8985	2.133	0.8367	4.1175	7.2222	11.1276	6.3013	8.7207	-1.12	2.9749	6.4801	6.8044	1.2564	3.0232
710.9375	-0.1154	3.3314	3.1118	2.0789	5.6176	6.6706	7.6084	4.3022	1.4039	5.1761	0.9446	3.2001	9.6707	9.9641	2.9294	1.885	2.9336	2.0359	0.7171	4.2356	7.2877	11.2926	6.3094	8.9898	-0.9206	3.3406	6.9654	7.1497	1.0542	2.8976
714.8438	-0.2873	3.0447	2.9037	1.8819	5.5082	6.4656	7.5284	4.3376	1.5476	5.0932	0.8023	3.0583	9.7164	9.9121	2.7906	1.8181	2.853	1.8859	0.497	4.2086	7.1895	11.3436	6.1585	9.0651	-0.7926	3.571	7.2056	7.2748	0.8095	2.7327
718.75	-0.5551	2.6733	2.6065	1.5789	5.2757	6.1528	7.3622	4.295	1.6882	4.9592	0.6698	2.8385	9.6559	9.7667	2.6088	1.6732	2.7402	1.7494	0.2682	4.1021	6.9895	11.3253	5.9148	8.9778	-0.7372	3.6676	7.2238	7.1925	0.5763	2.5861
722.6562	-0.8299	2.3008	2.2741	1.2308	4.9797	5.782	7.1322	4.1826	1.798	4.7794	0.5491	2.5643	9.5139	9.5654	2.4498	1.527	2.6729	1.6864	0.114	3.9776	6.7418	11.2793	5.6441	8.7654	-0.7498	3.6371	7.0575	6.9312	0.4048	2.5122
726.5625	-1.0277	2.0012	1.9607	0.895	4.6769	5.4036	6.8564	4.0127	1.847	4.5549	0.4319	2.2538	9.3065	9.3305	2.3665	1.4404	2.7051	1.7406	0.0904	3.8787	6.4831	11.234	5.3993	8.4642	-0.822	3.488	6.7484	6.5276	0.3334	2.5513
730.4688	-1.0833	1.8291	1.7143	0.6172	4.4128	5.0619	6.5486	3.8002	1.8094	4.2858	0.3023	1.9196	9.0418	9.0707	2.391	1.4498	2.8594	1.9334	0.217	3.8256	6.232	11.2003	5.2139	8.1051	-0.9424	3.2301	6.3354	6.022	0.3851	2.7237
734.375	-0.9607	1.8138	1.5726	0.4279	4.2173	4.7905	6.2208	3.5617	1.6703	3.9762	0.1439	1.5692	8.7261	8.7885	2.5334	1.566	3.1286	2.2639	0.479	3.8187	5.9944	11.176	5.1032	7.7143	-1.0986	2.8741	5.8521	5.4539	0.5674	3.0264
738.2812	-0.6567	1.9601	1.5602	0.3432	4.1043	4.611	5.887	3.316	1.4308	3.6381	-0.0545	1.2081	8.3697	8.4888	2.7863	1.7811	3.4859	2.7116	0.8382	3.8483	5.7735	11.1545	5.069	7.3149	-1.2785	2.4339	5.3258	4.861	0.8747	3.4367
742.1875	-0.1984	2.2531	1.6868	0.3685	4.075	4.5349	5.5645	3.0835	1.11	3.2943	-0.2926	0.8427	7.9919	8.1847	3.1322	2.0778	3.8977	3.2426	1.2478	3.9066	5.5783	11.1334	5.1051	6.9289	-1.4713	1.9281	4.7802	4.2779	1.2922	3.9193
746.0938	0.3641	2.6662	1.9466	0.5034	4.1222	4.5655	5.2742	2.8848	0.7432	2.9764	-0.5567	0.4817	7.6211	7.8991	3.551	2.4377	4.3349	3.8161	1.6654	3.9948	5.4257	11.1197	5.1988	6.5773	-1.6686	1.3813	4.2363	3.7346	1.7982	4.4368
750	0.9696	3.1669	2.3176	0.7437	4.2336	4.6992	5.0368	2.7386	0.3759	2.7202	-0.8206	0.1372	7.2904	7.659	4.0244	2.8446	4.7785	4.3896	2.0601	4.1236	5.3374	11.1281	5.3302	6.2774	-1.8643	0.8246	3.7137	3.255	2.3649	4.957
753.9062	1.5568	3.7186	2.7622	1.0799	4.3922	4.9235	4.8671	2.6563	0.0539	2.5564	-1.0525	-0.1769	7.0284	7.4863	4.5351	3.2829	5.2176	4.922	2.4128	4.3066	5.33	11.1737	5.4703	6.0389	-2.0542	0.2927	3.2301	2.8552	2.9583	5.4571
757.8125	2.0722	4.2783	3.2289	1.4912	4.5739	5.2134	4.7679	2.638	-0.1865	2.5013	-1.222	-0.447	6.8495	7.3869	5.0614	3.7309	5.6403	5.3737	2.7109	4.5483	5.4033	11.2605	5.5817	5.8598	-2.2342	-0.1787	2.7994	2.5431	3.5371	5.92
761.7188	2.4745	4.7928	3.6559	1.9405	4.744	5.5271	4.7253	2.6699	-0.3265	2.5491	-1.3088	-0.6617	6.7466	7.3443	5.5706	4.1551	6.0246	5.7062	2.941	4.8334	5.5317	11.3728	5.6229	5.7249	-2.3979	-0.5565	2.4312	2.3188	4.053	6.3286
765.625	2.7362	5.1969	3.9783	2.3705	4.8563	5.8068	4.7083	2.7254	-0.3686	2.67	-1.3074	-0.8125	6.6897	7.3181	6.0146	4.5073	6.3318	5.8814	3.0828	5.1202	5.6612	11.4713	5.5566	5.608	-2.5335	-0.8119	2.1311	2.1789	4.4541	6.6597
769.5312	2.8432	5.4166	4.1368	2.7073	4.8548	5.9828	4.6728	2.7709	-0.3345	2.8142	-1.2285	-0.8934	6.6303	7.2509	6.3306	4.7272	6.5066	5.864	3.1073	5.3439	5.716	11.497	5.3571	5.4767	-2.6222	-0.9213	1.9013	2.1195	4.6903	6.8829
773.4375	2.7942	5.3792	4.0877	2.8692	4.6805	5.9838	4.5695	2.7726	-0.2591	2.9209	-1.0959	-0.9006	6.5113	7.0792	6.4489	4.7516	6.4846	5.6251	2.9793	5.4264	5.6101	11.3807	5.0143	5.2996	-2.6397	-0.8672	1.7417	2.1395	4.7204	6.9645
777.3438	2.5985	5.0258	3.8103	2.7809	4.2823	5.7492	4.3533	2.7037	-0.1822	2.9309	-0.9408	-0.8326	6.2783	6.7466	6.3048	4.5261	6.2048	5.147	2.6642	5.2931	5.265	11.0576	4.533	5.0515	-2.5609	-0.6404	1.6506	2.2404	4.5189	6.8748
781.25	2.2738	4.326	3.3098	2.3906	3.6275	5.2415	3.9923	2.5498	-0.1394	2.7988	-0.7946	-0.6916	5.8914	6.2158	5.8537	4.0183	5.6247	4.4281	2.1377	4.8903	4.6258	10.4815	3.9292	4.7177	-2.3671	-0.2414	1.6233	2.4244	4.0814	6.5971
785.1562	1.8444	3.2871	2.6159	1.6829	2.7119	4.4558	3.4747	2.3105	-0.1552	2.5025	-0.6817	-0.484	5.3331	5.4763	5.0844	3.2274	4.7337	3.4861	1.3951	4.199	3.6753	9.6373	3.2249	4.296	-2.0519	0.3159	1.6516	2.6899	3.4264	6.1337
789.0625	1.3395	1.9576	1.7757	0.6871	1.564	3.4237	2.8122	1.9981	-0.2384	2.048	-0.6147	-0.2221	4.6129	4.5473	4.028	2.1886	3.5618	2.3594	0.4576	3.2428	2.44	8.5472	2.4459	3.7959	-1.6252	1.0038	1.7231	3.0278	2.5943	5.5094
792.9688	0.7912	0.4217	0.8456	-0.5241	0.2441	2.2104	2.0383	1.6336	-0.3818	1.469	-0.5923	0.0761	3.7659	3.4749	2.7578	0.9699	2.1793	1.1047	-0.6259	2.0857	0.9886	7.2696	1.62	3.2368	-1.1142	1.7809	1.8212	3.4189	1.6431	4.7698
796.875	0.2324	-1.2126	-0.1171	-1.8458	-1.1637	0.906	1.2029	1.2425	-0.5658	0.8194	-0.6018	0.3887	2.8469	2.3241	1.3795	-0.3376	0.6881	-0.2076	-1.7846	0.8216	-0.5786	5.8913	0.777	2.6453	-0.5593	2.5955	1.9268	3.8348	0.6415	3.9746
