time	FP1	F3	F7	FC3	C3	C5	P3	P7	PO7	PO3	O1	Oz	Pz	CPz	FP2	Fz	F4	F8	FC4	FCz	Cz	C4	C6	P4	P8	PO8	PO4	O2	HEOG_left	HEOG_right
-199.2188	4.6013	5.9398	3.1083	3.702	1.3567	1.6484	0.9462	0.7718	1.9884	1.6392	2.088	1.2703	3.0873	3.6704	3.7458	4.331	3.8329	1.3826	2.5302	5.2917	5.1711	3.1734	1.0973	4.1214	2.9987	3.6452	3.9087	3.835	1.4979	-0.0743
-195.3125	5.2799	6.3048	4.0597	4.4269	2.2779	2.3677	1.673	1.2847	2.1743	1.9657	2.2032	1.1374	3.763	4.7814	4.4345	4.7885	4.4568	1.7454	3.7096	5.9535	6.2859	4.033	1.7622	4.2108	2.4438	2.8425	3.4068	3.1355	2.0595	0.7444
-191.4062	5.874	6.5891	4.8811	5.0592	3.1157	2.9881	2.3135	1.7201	2.3159	2.2408	2.2902	0.998	4.3543	5.7779	5.0697	5.232	5.0278	2.1271	4.787	6.5783	7.3077	4.8365	2.3988	4.2795	1.9398	2.0932	2.9295	2.4825	2.5577	1.5119
-187.5	6.295	6.7157	5.4481	5.5091	3.7815	3.4225	2.7865	2.015	2.3775	2.4181	2.3302	0.8525	4.7752	6.543	5.5846	5.6245	5.4811	2.5222	5.6619	7.1089	8.1327	5.5239	2.9746	4.3028	1.5331	1.4501	2.4997	1.919	2.9321	2.1721
-183.5938	6.474	6.6282	5.6695	5.7102	4.21	3.6121	3.034	2.1255	2.3305	2.4652	2.307	0.6974	4.9585	6.9868	5.9213	5.9241	5.7602	2.9071	6.256	7.4901	8.6777	6.0424	3.4582	4.2551	1.2535	0.9493	2.1292	1.4689	3.1373	2.6759
-179.6875	6.3703	6.2988	5.5003	5.6276	4.3662	3.5346	3.0283	2.0337	2.1587	2.3676	2.2096	0.5268	4.8637	7.0553	6.0369	6.0867	5.8245	3.2411	6.5214	7.6728	8.8867	6.3501	3.8226	4.113	1.1104	0.6065	1.8178	1.135	3.1478	2.9871
-175.7812	5.9775	5.7331	4.9498	5.2631	4.2474	3.2063	2.7746	1.7502	1.862	2.1305	2.0351	0.3361	4.4814	6.7346	5.9094	6.0719	5.6578	3.4727	6.4475	7.618	8.7334	6.421	4.049	3.8592	1.0943	0.4197	1.5569	0.9028	2.9622	3.0878
-171.875	5.325	4.9706	4.0817	4.6529	3.8796	2.6786	2.3083	1.3123	1.4588	1.7757	1.7915	0.1271	3.8341	6.0493	5.5413	5.8506	5.2735	3.5524	6.0614	7.3019	8.2203	6.2473	4.1303	3.4877	1.1801	0.3729	1.335	0.7484	2.6032	2.9825
-167.9688	4.4729	4.0766	3.0053	3.8613	3.3117	2.0274	1.6878	0.7774	0.9842	1.3369	1.4973	-0.0903	2.9725	5.0559	4.9601	5.4115	4.7127	3.4459	5.4216	6.72	7.3752	5.8394	4.0707	3.0062	1.3336	0.4417	1.1417	0.647	2.1146	2.6987
-164.0625	3.501	3.1295	1.8565	2.9688	2.6067	1.3393	0.9834	0.2118	0.4834	0.852	1.1783	-0.2989	1.9682	3.8335	4.214	4.7644	4.0348	3.1455	4.6049	5.8886	6.2453	5.2223	3.8831	2.4365	1.5175	0.5973	0.9708	0.5784	1.5538	2.2845
-160.1562	2.4949	2.2056	0.7746	2.0588	1.8333	0.6954	0.2676	-0.3215	0.0035	0.3572	0.863	-0.4788	0.9045	2.4727	3.365	3.9401	3.3036	2.6755	3.6902	4.8446	4.8921	4.4299	3.5835	1.8115	1.6968	0.8093	0.8199	0.5307	0.9822	1.8002
-156.25	1.5326	1.3654	-0.1219	1.2046	1.0588	0.1579	-0.3949	-0.7736	-0.4154	-0.1176	0.5759	-0.6138	-0.1344	1.0662	2.4803	2.9874	2.5737	2.0896	2.7446	3.6435	3.3873	3.4999	3.187	1.1689	1.8421	1.0459	0.6886	0.4989	0.4552	1.3091
-152.3438	0.6744	0.6459	-0.7538	0.4616	0.3439	-0.2372	-0.953	-1.116	-0.747	-0.5504	0.3329	-0.6971	-1.0722	-0.2987	1.6244	1.9673	1.8814	1.4609	1.8145	2.3544	1.8094	2.4694	2.706	0.5449	1.9306	1.2741	0.5747	0.4811	0.0145	0.8664
-148.4375	-0.0424	0.0595	-1.0915	-0.1381	-0.2626	-0.4815	-1.3736	-1.3423	-0.9817	-0.9264	0.1373	-0.7339	-1.8493	-1.5466	0.8517	0.9452	1.2411	0.8662	0.9247	1.0534	0.2396	1.374	2.1504	-0.0327	1.9443	1.4587	0.4717	0.4736	-0.3158	0.5108
-144.5312	-0.6052	-0.4032	-1.1553	-0.5853	-0.7281	-0.5899	-1.6424	-1.4633	-1.1253	-1.2372	-0.0197	-0.7411	-2.4278	-2.6182	0.2006	-0.0181	0.6479	0.3706	0.0823	-0.1851	-1.243	0.2483	1.5315	-0.5478	1.8689	1.564	0.3673	0.4674	-0.5295	0.2594
-140.625	-1.022	-0.7645	-1.0064	-0.8915	-1.04	-0.5924	-1.7628	-1.4997	-1.1936	-1.478	-0.155	-0.7411	-2.7935	-3.4726	-0.3104	-0.8741	0.0842	0.0132	-0.7163	-1.2972	-2.5668	-0.8714	0.8651	-0.9959	1.6936	1.5573	0.2465	0.4474	-0.6351	0.1062
-136.7188	-1.3154	-1.0506	-0.7305	-1.0816	-1.2062	-0.5243	-1.7517	-1.4728	-1.2055	-1.6445	-0.2866	-0.7543	-2.9533	-4.0871	-0.6833	-1.591	-0.4697	-0.1995	-1.4759	-2.2352	-3.6734	-1.944	0.176	-1.3797	1.4132	1.4159	0.0961	0.3966	-0.6512	0.0261
-132.8125	-1.5136	-1.2815	-0.4192	-1.1853	-1.2513	-0.4174	-1.6336	-1.3972	-1.1755	-1.7308	-0.425	-0.79	-2.9286	-4.4549	-0.9375	-2.1536	-1.026	-0.2939	-2.1941	-2.9702	-4.5196	-2.9216	-0.5019	-1.7014	1.0324	1.1354	-0.0882	0.3037	-0.6013	-0.0187
-128.9062	-1.6421	-1.4661	-0.1519	-1.2282	-1.2081	-0.2934	-1.4334	-1.2768	-1.1088	-1.7269	-0.5667	-0.8408	-2.747	-4.5794	-1.1035	-2.5595	-1.581	-0.3212	-2.8556	-3.489	-5.0775	-3.7499	-1.127	-1.9565	0.5706	0.7358	-0.2969	0.1707	-0.5106	-0.0695
-125	-1.7178	-1.6009	0.0168	-1.2256	-1.1066	-0.1611	-1.1698	-1.1046	-0.9997	-1.6193	-0.6914	-0.8818	-2.4346	-4.4699	-1.2154	-2.8128	-2.1123	-0.3434	-3.4302	-3.7887	-5.3332	-4.3726	-1.6561	-2.1304	0.0635	0.2624	-0.5046	0.0169	-0.4032	-0.1629
-121.0938	-1.747	-1.674	0.0641	-1.1797	-0.9643	-0.0174	-0.8523	-0.8665	-0.8339	-1.3937	-0.7652	-0.8753	-2.0122	-4.1382	-1.3035	-2.9194	-2.5823	-0.4174	-3.8766	-3.8725	-5.2848	-4.7404	-2.0532	-2.2008	-0.4397	-0.2197	-0.6745	-0.1219	-0.3003	-0.323
-117.1875	-1.7274	-1.6714	-0.0013	-1.0821	-0.7816	0.1485	-0.481	-0.5487	-0.5939	-1.0404	-0.7499	-0.7813	-1.4952	-3.5997	-1.3897	-2.8847	-2.9471	-0.5813	-4.1515	-3.7469	-4.9432	-4.8215	-2.2972	-2.145	-0.8845	-0.6389	-0.7667	-0.2031	-0.2193	-0.5579
-113.2812	-1.6527	-1.5841	-0.1451	-0.9209	-0.5446	0.3491	-0.0518	-0.145	-0.2676	-0.5612	-0.6155	-0.5708	-0.8996	-2.8769	-1.4859	-2.7155	-3.1696	-0.8472	-4.2222	-3.4246	-4.3354	-4.6128	-2.3889	-1.951	-1.2226	-0.9332	-0.7508	-0.1905	-0.1713	-0.8599
-109.375	-1.5194	-1.4133	-0.3182	-0.6882	-0.2351	0.5917	0.4351	0.3357	0.1429	0.023	-0.3536	-0.2377	-0.2495	-2.0071	-1.5944	-2.4245	-3.2322	-1.2004	-4.0795	-2.9298	-3.509	-4.147	-2.3525	-1.6269	-1.4229	-1.0655	-0.618	-0.0681	-0.1607	-1.2076
-105.4688	-1.3321	-1.174	-0.4695	-0.3887	0.1568	0.8733	0.9657	0.866	0.6159	0.669	0.0148	0.1943	0.4158	-1.0472	-1.7103	-2.0354	-3.1454	-1.6051	-3.746	-2.3042	-2.5352	-3.4933	-2.2318	-1.2069	-1.4793	-1.0332	-0.3878	0.151	-0.1834	-1.5711
-101.5625	-1.1064	-0.8934	-0.5569	-0.043	0.6199	1.1766	1.5063	1.4006	1.109	1.3119	0.4389	0.6746	1.0402	-0.0751	-1.8233	-1.5861	-2.9485	-2.0123	-3.2764	-1.6095	-1.5074	-2.7495	-2.0818	-0.7503	-1.4108	-0.8678	-0.1081	0.4247	-0.2277	-1.9152
-97.6562	-0.8685	-0.607	-0.5562	0.3123	1.1163	1.471	2.0031	1.8832	1.5648	1.8737	0.8465	1.1367	1.5546	0.8151	-1.9196	-1.1275	-2.7019	-2.3688	-2.7495	-0.9243	-0.534	-2.0271	-1.9561	-0.3318	-1.2557	-0.6265	0.1547	0.6906	-0.2756	-2.2038
-93.75	-0.6512	-0.3537	-0.465	0.6289	1.5831	1.7153	2.3892	2.2556	1.9206	2.2753	1.1598	1.5142	1.8886	1.5255	-1.9846	-0.7179	-2.4733	-2.6251	-2.2539	-0.335	0.2751	-1.4314	-1.8936	-0.0271	-1.0605	-0.3768	0.3304	0.8826	-0.3068	-2.4033
-89.8438	-0.4904	-0.1727	-0.3038	0.8538	1.9419	1.864	2.597	2.4683	2.1204	2.4523	1.3116	1.7571	1.9842	1.9697	-2.0066	-0.4161	-2.3203	-2.7436	-1.8708	0.0771	0.8244	-1.0419	-1.9094	0.1039	-0.8686	-0.18	0.3638	0.9475	-0.3058	-2.4862
-85.9375	-0.4195	-0.1006	-0.1139	0.9367	2.115	1.8746	2.5735	2.4891	2.1256	2.3675	1.2596	1.8412	1.8101	2.0892	-1.9815	-0.2717	-2.2764	-2.7041	-1.6576	0.2501	1.0493	-0.897	-1.9901	0.0314	-0.7113	-0.0784	0.2283	0.8576	-0.2683	-2.4361
-82.0312	-0.4661	-0.1688	0.0481	0.8387	2.0427	1.7142	2.2934	2.3081	1.9214	2.0189	0.9934	1.77	1.3702	1.8663	-1.9168	-0.3156	-2.3417	-2.509	-1.6357	0.1549	0.9284	-0.9869	-2.0976	-0.2372	-0.6031	-0.0873	-0.0665	0.6172	-0.2069	-2.2522
-78.125	-0.6462	-0.3979	0.1188	0.5422	1.7006	1.3679	1.7681	1.9392	1.5192	1.4416	0.5362	1.5703	0.7067	1.3299	-1.8331	-0.5527	-2.4833	-2.1833	-1.7846	-0.1972	0.4891	-1.2564	-2.1801	-0.6577	-0.5422	-0.1946	-0.4763	0.2595	-0.1501	-1.9531
-74.2188	-0.9595	-0.7904	0.0419	0.0577	1.1101	0.8445	1.0471	1.4179	0.9557	0.7022	-0.0609	1.2833	-0.1064	0.5534	-1.7604	-0.9565	-2.6449	-1.7729	-2.0456	-0.7529	-0.1948	-1.6177	-2.1862	-1.1583	-0.5144	-0.3662	-0.9323	-0.161	-0.1369	-1.5773
-70.3125	-1.387	-1.3243	-0.2187	-0.5729	0.3385	0.1793	0.2106	0.7962	0.287	-0.1122	-0.7278	0.9555	-0.974	-0.3578	-1.7328	-1.4716	-2.7645	-1.3376	-2.3348	-1.4251	-1.016	-1.9708	-2.0807	-1.6551	-0.5	-0.556	-1.3571	-0.5818	-0.2054	-1.1791
-66.4062	-1.8897	-1.9506	-0.6664	-1.2797	-0.5116	-0.5679	-0.6433	0.1364	-0.4179	-0.908	-1.3871	0.6293	-1.7972	-1.2842	-1.7783	-2.0213	-2.7946	-0.942	-2.5629	-2.109	-1.8524	-2.225	-1.8555	-2.0693	-0.4807	-0.7178	-1.6818	-0.9458	-0.3802	-0.8195
-62.5	-2.412	-2.5959	-1.2648	-1.9756	-1.3221	-1.32	-1.4164	-0.4975	-1.0867	-1.5995	-1.966	0.3365	-2.4883	-2.1134	-1.9095	-2.522	-2.7176	-0.6427	-2.6573	-2.7026	-2.5896	-2.3184	-1.5332	-2.3428	-0.446	-0.817	-1.8616	-1.2136	-0.6625	-0.5541
-58.5938	-2.8879	-3.172	-1.9389	-2.5718	-1.9846	-1.9949	-2.027	-1.0465	-1.6528	-2.1216	-2.4061	0.0946	-2.9847	-2.7588	-2.1159	-2.8979	-2.5493	-0.4765	-2.5794	-3.1271	-3.1415	-2.2287	-1.1617	-2.4474	-0.3971	-0.8387	-1.8839	-1.3702	-1.0242	-0.4192
-54.6875	-3.2508	-3.591	-2.5867	-2.9951	-2.4237	-2.5206	-2.4236	-1.4647	-2.0638	-2.437	-2.6701	-0.0935	-3.2561	-3.1722	-2.3636	-3.0959	-2.3311	-0.4527	-2.3319	-3.3415	-3.4634	-1.9744	-0.8021	-2.3879	-0.3474	-0.7902	-1.7694	-1.4255	-1.4123	-0.423
-50.7812	-3.4456	-3.7832	-3.1003	-3.2032	-2.6133	-2.8492	-2.592	-1.7249	-2.2894	-2.5395	-2.7455	-0.2368	-3.3056	-3.3469	-2.6008	-3.0944	-2.1119	-0.5515	-1.9542	-3.3478	-3.5566	-1.6063	-0.5129	-2.1961	-0.3195	-0.6977	-1.5647	-1.4093	-1.759	-0.5421
-46.875	-3.4407	-3.715	-3.3908	-3.1937	-2.5809	-2.9674	-2.5551	-1.8222	-2.3254	-2.4519	-2.6443	-0.3516	-3.1647	-3.3125	-2.7706	-2.9065	-1.9277	-0.7292	-1.5067	-3.1863	-3.4612	-1.1918	-0.3352	-1.9208	-0.3385	-0.5987	-1.3287	-1.3612	-1.9983	-0.7261
-42.9688	-3.2364	-3.3991	-3.4124	-3.0047	-2.3986	-2.899	-2.3649	-1.7748	-2.194	-2.2187	-2.3988	-0.4559	-2.8825	-3.1214	-2.8255	-2.5747	-1.7861	-0.9272	-1.0522	-2.9216	-3.2413	-0.7978	-0.2828	-1.6143	-0.4244	-0.5316	-1.1171	-1.3195	-2.0828	-0.9092
-39.0625	-2.8673	-2.8978	-3.1753	-2.7063	-2.1648	-2.6999	-2.0884	-1.6198	-1.9385	-1.8954	-2.0544	-0.5634	-2.513	-2.8329	-2.7405	-2.1619	-1.6623	-1.0851	-0.6382	-2.6261	-2.9669	-0.4764	-0.3404	-1.3196	-0.584	-0.5256	-0.9681	-1.311	-1.9964	-1.0249
-35.1562	-2.3991	-2.3133	-2.7472	-2.3869	-1.9794	-2.4457	-1.7925	-1.4057	-1.6143	-1.537	-1.6606	-0.6788	-2.1024	-2.4984	-2.5219	-1.7398	-1.5093	-1.1519	-0.2893	-2.3648	-2.6979	-0.256	-0.4701	-1.0616	-0.807	-0.5934	-0.8931	-1.3441	-1.7605	-1.0226
-31.25	-1.9174	-1.7704	-2.2389	-2.1359	-1.9215	-2.2163	-1.5298	-1.184	-1.2785	-1.1881	-1.2626	-0.7961	-1.6813	-2.1518	-2.2082	-1.3781	-1.2787	-1.0969	-0.0085	-2.185	-2.4741	-0.1416	-0.6232	-0.8441	-1.0667	-0.7289	-0.8758	-1.4082	-1.4304	-0.8794
-27.3438	-1.512	-1.3905	-1.7794	-2.0261	-2.0327	-2.0801	-1.3311	-1.0002	-0.9808	-0.8776	-0.8956	-0.9	-1.2625	-1.8077	-1.8617	-1.1341	-0.9441	-0.9159	0.2133	-2.1123	-2.3122	-0.1197	-0.7537	-0.6533	-1.3257	-0.9101	-0.8791	-1.4776	-1.0843	-0.6059
-23.4375	-1.2573	-1.2639	-1.4851	-2.0994	-2.3103	-2.0804	-1.2036	-0.8875	-0.7568	-0.6189	-0.5824	-0.9699	-0.8454	-1.4651	-1.5531	-1.0443	-0.5183	-0.6316	0.3864	-2.1509	-2.2093	-0.1671	-0.8296	-0.4663	-1.545	-1.1065	-0.858	-1.5211	-0.8045	-0.2437
-19.5312	-1.1957	-1.4272	-1.4311	-2.356	-2.7093	-2.2285	-1.1356	-0.8628	-0.625	-0.4135	-0.3339	-0.9868	-0.4238	-1.1156	-1.3423	-1.1174	-0.0561	-0.2889	0.5122	-2.2863	-2.1494	-0.261	-0.8405	-0.262	-1.6951	-1.2883	-0.7757	-1.5127	-0.6585	0.1461
-15.625	-1.3261	-1.8507	-1.6333	-2.7524	-3.1527	-2.5015	-1.1035	-0.9248	-0.586	-0.2563	-0.1522	-0.9401	0.0047	-0.7523	-1.2629	-1.3318	0.3585	0.0539	0.5804	-2.4896	-2.1106	-0.3857	-0.7983	-0.0313	-1.7639	-1.4359	-0.6164	-1.4414	-0.6817	0.4964
-11.7188	-1.6033	-2.443	-2.0445	-3.2078	-3.5476	-2.8465	-1.0792	-1.0544	-0.6238	-0.1394	-0.033	-0.8314	0.4335	-0.3749	-1.3133	-1.6377	0.6364	0.3369	0.5704	-2.7223	-2.071	-0.5374	-0.7337	0.2172	-1.761	-1.5455	-0.3928	-1.3167	-0.8692	0.7502
-7.8125	-1.9488	-3.07	-2.567	-3.6202	-3.8033	-3.1912	-1.0362	-1.2169	-0.7088	-0.0553	0.0312	-0.6764	0.8452	0.0072	-1.4591	-1.9663	0.7101	0.5076	0.4593	-2.9417	-2.013	-0.7224	-0.6881	0.4562	-1.7147	-1.6288	-0.1437	-1.1674	-1.1772	0.8716
-3.9062	-2.2706	-3.5878	-3.0784	-3.8894	-3.8502	-3.4576	-0.9538	-1.3681	-0.8031	0.0031	0.0495	-0.5028	1.2141	0.3766	-1.6459	-2.2453	0.5528	0.5274	0.2308	-3.109	-1.9265	-0.9547	-0.7041	0.6451	-1.6652	-1.7088	0.0742	-1.0349	-1.5354	0.8497
0	-2.4879	-3.879	-3.4628	-3.9413	-3.6539	-3.578	-0.8202	-1.4612	-0.8672	0.0415	0.0309	-0.3467	1.5115	0.7095	-1.8176	-2.4179	0.1831	0.3743	-0.1181	-3.1973	-1.8114	-1.2496	-0.8183	0.7385	-1.6545	-1.8116	0.201	-0.9628	-1.865	0.6967
3.9062	-2.5532	-3.8825	-3.6384	-3.7466	-3.223	-3.5083	-0.6338	-1.4556	-0.8676	0.0645	-0.0165	-0.2472	1.7111	0.9803	-1.9353	-2.459	-0.345	0.0439	-0.5757	-3.1996	-1.6788	-1.6204	-1.0561	0.6958	-1.717	-1.9582	0.1876	-0.9864	-2.0993	0.4395
7.8125	-2.4638	-3.6071	-3.5749	-3.3284	-2.606	-3.2361	-0.4028	-1.3243	-0.7833	0.0752	-0.086	-0.2404	1.7949	1.1649	-1.9895	-2.3835	-0.9609	-0.4502	-1.1192	-3.1316	-1.5499	-2.0746	-1.4308	0.4909	-1.8728	-2.1589	0.0075	-1.1245	-2.1974	0.1105
11.7188	-2.2608	-3.1257	-3.2958	-2.7558	-1.8803	-2.7821	-0.1426	-1.0588	-0.6091	0.0767	-0.1714	-0.3524	1.7571	1.2451	-2.0022	-2.2424	-1.5977	-1.0766	-1.7214	-3.0291	-1.4528	-2.612	-1.9442	0.1192	-2.125	-2.4108	-0.3362	-1.3754	-2.1511	-0.2604
15.625	-2.0149	-2.5524	-2.8681	-2.1266	-1.1355	-2.1944	0.1281	-0.6705	-0.3558	0.0728	-0.2654	-0.5932	1.6073	1.2128	-2.0178	-2.1082	-2.206	-1.7884	-2.3554	-2.9388	-1.4158	-3.2231	-2.5858	-0.3983	-2.4601	-2.6982	-0.8101	-1.7168	-1.9812	-0.649
19.5312	-1.8052	-2.0113	-2.3831	-1.5424	-0.4552	-1.5389	0.3919	-0.1884	-0.0474	0.0706	-0.3573	-0.9516	1.3698	1.0733	-2.0881	-2.0527	-2.7586	-2.5271	-2.9968	-2.9058	-1.4596	-3.8863	-3.3315	-1.0153	-2.8505	-2.9964	-1.3553	-2.1104	-1.7286	-1.0365
23.4375	-1.6978	-1.6064	-1.935	-1.0861	0.0969	-0.887	0.6363	0.3451	0.285	0.08	-0.4321	-1.3939	1.0815	0.8462	-2.2549	-2.1258	-3.246	-3.2298	-3.6208	-2.9601	-1.5909	-4.5657	-4.1405	-1.6648	-3.2591	-3.2752	-1.8961	-2.5082	-1.4425	-1.4067
27.3438	-1.7292	-1.4003	-1.6021	-0.8059	0.4843	-0.3059	0.8552	0.8809	0.6083	0.1132	-0.472	-1.8671	0.7857	0.5636	-2.5376	-2.3404	-3.6666	-3.8377	-4.198	-3.1083	-1.799	-5.2104	-4.9545	-2.2674	-3.6436	-3.5032	-2.3518	-2.8606	-1.1695	-1.7434
31.25	-1.9002	-1.4067	-1.4341	-0.7104	0.6977	0.1498	1.048	1.3697	0.8937	0.1821	-0.4582	-2.3063	0.5255	0.2656	-2.9277	-2.669	-4.0152	-4.3032	-4.6906	-3.3307	-2.0563	-5.7566	-5.6992	-2.7432	-3.9606	-3.6504	-2.6487	-3.123	-0.9464	-2.0276
35.1562	-2.1787	-1.5956	-1.4469	-0.7745	0.7494	0.4421	1.2184	1.7694	1.1214	0.2943	-0.3761	-2.646	0.3367	-0.007	-3.3901	-3.0505	-4.2763	-4.5952	-5.0518	-3.5862	-2.3233	-6.1343	-6.291	-3.0235	-4.1691	-3.6893	-2.7304	-3.2603	-0.7974	-2.2389
39.0625	-2.5109	-1.908	-1.6253	-0.9511	0.6661	0.5521	1.3716	2.0513	1.2844	0.4506	-0.2197	-2.8327	0.2413	-0.2196	-3.8723	-3.4066	-4.4225	-4.7022	-5.2311	-3.8222	-2.5563	-6.2778	-6.6486	-3.0622	-4.2341	-3.5948	-2.566	-3.2493	-0.7352	-2.357
42.9688	-2.8371	-2.2744	-1.9306	-1.1857	0.4813	0.4797	1.5126	2.2049	1.3907	0.644	0.0049	-2.8357	0.2441	-0.3502	-4.3175	-3.6616	-4.4226	-4.6317	-5.1847	-3.987	-2.7165	-6.1394	-6.7075	-2.8439	-4.1291	-3.3455	-2.1528	-3.0798	-0.764	-2.366
46.875	-3.1075	-2.6319	-2.3136	-1.4295	0.2296	0.243	1.6444	2.2406	1.4623	0.8594	0.2776	-2.6551	0.3315	-0.3937	-4.6785	-3.7614	-4.2559	-4.4092	-4.89	-4.0434	-2.7788	-5.7037	-6.4354	-2.388	-3.8396	-2.9253	-1.5173	-2.7553	-0.8828	-2.2609
50.7812	-3.295	-2.9366	-2.7262	-1.6483	-0.0577	-0.1259	1.766	2.187	1.5311	1.0758	0.5664	-2.3231	0.4731	-0.3632	-4.9307	-3.6882	-3.927	-4.0748	-4.3601	-3.9779	-2.7384	-4.9988	-5.8451	-1.748	-3.3671	-2.3291	-0.7109	-2.2926	-1.0878	-2.0521
54.6875	-3.4013	-3.169	-3.1319	-1.8281	-0.3558	-0.5861	1.8715	2.0848	1.6315	1.2694	0.833	-1.8982	0.6262	-0.289	-5.0786	-3.4657	-3.476	-3.6781	-3.652	-3.8062	-2.6142	-4.0995	-5.0006	-1.0044	-2.7317	-1.5671	0.1972	-1.7216	-1.3729	-1.7686
58.5938	-3.4548	-3.3343	-3.5109	-1.9752	-0.6474	-1.094	1.9511	1.9777	1.7911	1.4193	1.0424	-1.4526	0.7441	-0.2127	-5.1542	-3.1543	-2.9761	-3.2718	-2.8633	-3.5711	-2.4453	-3.1222	-4.0124	-0.2519	-1.9726	-0.6687	1.1298	-1.081	-1.7285	-1.4548
62.5	-3.5016	-3.4578	-3.8599	-2.1126	-0.9232	-1.6101	1.9937	1.9019	2.0233	1.5134	1.1739	-1.0551	0.7856	-0.1789	-5.2086	-2.8379	-2.5185	-2.9043	-2.1175	-3.334	-2.2838	-2.2077	-3.0225	0.4164	-1.1459	0.3179	2.0149	-0.4128	-2.1397	-1.1636
66.4062	-3.5919	-3.5774	-4.1883	-2.2723	-1.1795	-2.1021	1.9917	1.8775	2.3222	1.554	1.2308	-0.7527	0.7263	-0.2249	-5.298	-2.604	-2.1888	-2.6138	-1.5388	-3.1618	-2.183	-1.4975	-2.1803	0.927	-0.3182	1.3305	2.7968	0.2451	-2.5851	-0.9447
70.3125	-3.7649	-3.7331	-4.5106	-2.4858	-1.4151	-2.5473	1.9461	1.9037	2.6619	1.5612	1.2451	-0.5583	0.5664	-0.3699	-5.4685	-2.5229	-2.0417	-2.4238	-1.2235	-3.1114	-2.1847	-1.1065	-1.6143	1.2399	0.4405	2.3	3.4447	0.8652	-3.0365	-0.8338
74.2188	-4.0356	-3.9559	-4.8372	-2.7718	-1.6262	-2.9297	1.8708	1.9598	3.0018	1.5714	1.275	-0.4464	0.3353	-0.6079	-5.7426	-2.6306	-2.0828	-2.3414	-1.2158	-3.2158	-2.3081	-1.0984	-1.4063	1.3554	1.0662	3.1589	3.9543	1.4324	-3.4606	-0.8445
78.125	-4.3873	-4.2571	-5.1669	-3.1268	-1.8019	-3.2368	1.7941	2.0123	3.2952	1.6327	1.3939	-0.3597	0.0893	-0.9042	-6.11	-2.9186	-2.2634	-2.357	-1.4943	-3.4734	-2.5424	-1.47	-1.5732	1.3137	1.5085	3.8487	4.3436	1.9427	-3.8223	-0.9649
82.0312	-4.7713	-4.6212	-5.4833	-3.5193	-1.9215	-3.4559	1.7562	2.0246	3.4996	1.796	1.6751	-0.2231	-0.0965	-1.1988	-6.5273	-3.3345	-2.4916	-2.4459	-1.9743	-3.8459	-2.8468	-2.1491	-2.0619	1.1852	1.7368	4.3245	4.6432	2.3984	-4.0899	-1.1608
85.9375	-5.1163	-5.0058	-5.7565	-3.8924	-1.9556	-3.5718	1.8031	1.9681	3.5864	2.1042	2.1732	0.0361	-0.1403	-1.415	-6.9248	-3.7931	-2.657	-2.5719	-2.5269	-4.2635	-3.1555	-3.0061	-2.7602	1.0553	1.7435	4.5585	4.886	2.8023	-4.2398	-1.3849
89.8438	-5.3434	-5.3491	-5.9502	-4.1738	-1.8709	-3.5693	1.9777	1.831	3.5459	2.5821	2.9083	0.4697	0.0309	-1.4733	-7.2218	-4.196	-2.6639	-2.6929	-3.0089	-4.6385	-3.3907	-3.8788	-3.5197	1.0078	1.5426	4.5408	5.0979	3.1529	-4.2615	-1.588
93.75	-5.3862	-5.585	-6.0331	-4.2935	-1.6399	-3.438	2.3096	1.6213	3.3893	3.2285	3.8581	1.0948	0.4662	-1.3076	-7.3451	-4.4544	-2.4618	-2.7688	-3.2977	-4.8845	-3.4787	-4.6055	-4.1885	1.1076	1.1662	4.2788	5.2926	3.4423	-4.1597	-1.7308
97.6562	-5.2093	-5.6618	-5.9896	-4.2036	-1.2522	-3.1799	2.806	1.3665	3.1456	4.0134	4.9578	1.8891	1.1794	-0.8809	-7.2496	-4.5118	-2.0637	-2.7696	-3.3216	-4.9378	-3.3672	-5.0581	-4.6437	1.3881	0.6573	3.796	5.47	3.6563	-3.9555	-1.7936
101.5625	-4.8221	-5.5607	-5.8293	-3.8959	-0.7254	-2.8166	3.447	1.1079	2.8574	4.8809	6.1106	2.7951	2.1419	-0.1968	-6.9329	-4.359	-1.5457	-2.6843	-3.0769	-4.7746	-3.0408	-5.169	-4.8178	1.8439	0.0632	3.1303	5.6175	3.7781	-3.685	-1.7804
105.4688	-4.2819	-5.3065	-5.5894	-3.411	-0.1096	-2.3926	4.1863	0.8927	2.5741	5.7573	7.205	3.7325	3.2842	0.6961	-6.4413	-4.0396	-1.0263	-2.5257	-2.6277	-4.4207	-2.5283	-4.9435	-4.7107	2.4307	-0.5716	2.3312	5.7139	3.7934	-3.3967	-1.7165
109.375	-3.6832	-4.9643	-5.3282	-2.8352	0.5154	-1.9726	4.9568	0.7648	2.3452	6.563	8.1353	4.6148	4.5043	1.7092	-5.8614	-3.6409	-0.6316	-2.3306	-2.0861	-3.9482	-1.9006	-4.4552	-4.3849	3.0731	-1.2084	1.457	5.7344	3.696	-3.1456	-1.6425
113.2812	-3.137	-4.623	-5.1111	-2.2827	1.0534	-1.6307	5.6813	0.7557	2.2121	7.2254	8.8194	5.3655	5.683	2.7275	-5.3015	-3.2722	-0.4571	-2.1517	-1.5791	-3.4599	-1.2577	-3.8243	-3.9457	3.6793	-1.8152	0.5717	5.6566	3.492	-2.9857	-1.6027
117.1875	-2.7434	-4.3701	-4.9933	-1.8695	1.4112	-1.4356	6.2851	0.879	2.2021	7.6894	9.2102	5.9302	6.7027	3.6293	-4.866	-3.0363	-0.5376	-2.0447	-1.2116	-3.0634	-0.707	-3.1853	-3.5108	4.1584	-2.3649	-0.2598	5.4662	3.2012	-2.9594	-1.6351
121.0938	-2.5682	-4.2668	-5.0055	-1.6854	1.5197	-1.4336	6.7077	1.127	2.323	7.9243	9.2989	6.2823	7.4655	4.3086	-4.6306	-3.0014	-0.8358	-2.0519	-1.0366	-2.8439	-0.3395	-2.6532	-3.18	4.4392	-2.8327	-0.9758	5.1619	2.8548	-3.0893	-1.7612
125	-2.6285	-4.3321	-5.1465	-1.771	1.3516	-1.6359	6.9116	1.473	2.5619	7.9261	9.1104	6.4219	7.9078	4.694	-4.6263	-3.1831	-1.2513	-2.1885	-1.0425	-2.8423	-0.2088	-2.2974	-3.0121	4.4825	-3.1936	-1.5231	4.7576	2.4906	-3.3709	-1.9814
128.9062	-2.893	-4.5403	-5.3857	-2.1088	0.9298	-2.014	6.8875	1.8772	2.8874	7.7153	8.6933	6.3703	8.0082	4.7607	-4.8359	-3.54	-1.6488	-2.4377	-1.1592	-3.0458	-0.32	-2.1315	-3.0151	4.2878	-3.4223	-1.8623	4.2823	2.1465	-3.7728	-2.2739
132.8125	-3.2933	-4.8329	-5.6725	-2.6277	0.3243	-2.5034	6.6538	2.2948	3.256	7.3319	8.1087	6.1621	7.7861	4.533	-5.2015	-3.986	-1.8948	-2.7536	-1.283	-3.3917	-0.6299	-2.1181	-3.1518	3.8896	-3.4965	-1.9715	3.7752	1.8544	-4.2414	-2.5995
136.7188	-3.743	-5.1368	-5.949	-3.2206	-0.3605	-3.0168	6.2538	2.6851	3.6211	6.8282	7.42	5.8371	7.295	4.0761	-5.6407	-4.4126	-1.8938	-3.0727	-1.3085	-3.7846	-1.0589	-2.1875	-3.3559	3.3478	-3.4013	-1.8501	3.2794	1.6352	-4.7113	-2.9083
140.625	-4.1574	-5.3835	-6.162	-3.7679	-1.0064	-3.461	5.7478	3.0179	3.942	6.2618	6.686	5.4343	6.6103	3.4823	-6.0644	-4.7155	-1.614	-3.328	-1.1594	-4.1192	-1.5092	-2.2622	-3.5533	2.733	-3.1358	-1.5197	2.8339	1.4966	-5.1154	-3.1489
144.5312	-4.4687	-5.5221	-6.2711	-4.1618	-1.5026	-3.7543	5.2052	3.2769	4.1909	5.6881	5.9577	4.9889	5.8158	2.8534	-6.3932	-4.8175	-1.0947	-3.4626	-0.8078	-4.3033	-1.8845	-2.2788	-3.6819	2.1136	-2.7165	-1.0222	2.4676	1.4334	-5.3949	-3.2761
148.4375	-4.6333	-5.5234	-6.2508	-4.3253	-1.7645	-3.8396	4.694	3.4605	4.3568	5.1558	5.2786	4.5309	4.9925	2.2839	-6.5692	-4.683	-0.434	-3.4405	-0.2778	-4.2754	-2.1065	-2.2026	-3.7049	1.5454	-2.1793	-0.4156	2.1958	1.4306	-5.5048	-3.2578
152.3438	-4.632	-5.3777	-6.089	-4.2214	-1.745	-3.6911	4.2724	3.5782	4.4442	4.7017	4.6856	4.086	4.2096	1.8479	-6.5609	-4.3203	0.2399	-3.2527	0.3651	-4.013	-2.1257	-2.032	-3.6152	1.0662	-1.577	0.2325	2.0211	1.4683	-5.4171	-3.0803
156.25	-4.4671	-5.0908	-5.7841	-3.8547	-1.4387	-3.3154	3.9796	3.6448	4.4684	4.3487	4.2095	3.6769	3.519	1.59	-6.365	-3.7755	0.8048	-2.9189	1.0339	-3.5332	-1.9261	-1.7937	-3.4334	0.695	-0.9736	0.8522	1.9351	1.5264	-5.1241	-2.7504
160.1562	-4.1571	-4.68	-5.3452	-3.2665	-0.8801	-2.7474	3.8305	3.6743	4.4476	4.1027	3.873	3.3239	2.9522	1.5216	-6.004	-3.1203	1.1757	-2.4852	1.6406	-2.8869	-1.5263	-1.5337	-3.2	0.4334	-0.4368	1.3787	1.9222	1.5883	-4.6407	-2.298
164.0625	-3.7347	-4.1739	-4.7928	-2.5259	-0.1352	-2.0441	3.8126	3.6741	4.3957	3.9534	3.6867	3.0451	2.5196	1.6204	-5.5227	-2.4382	1.3223	-2.0186	2.1109	-2.1495	-0.9754	-1.306	-2.9662	0.2686	-0.0305	1.758	1.9614	1.6424	-4.0064	-1.7745
167.9688	-3.2436	-3.612	-4.1618	-1.7189	0.7082	-1.2759	3.889	3.6432	4.3185	3.877	3.6466	2.8554	2.2124	1.8359	-4.9823	-1.8122	1.2671	-1.5964	2.3933	-1.4094	-0.3472	-1.1623	-2.7849	0.1771	0.1937	1.9511	2.0282	1.6822	-3.2832	-1.2483
171.875	-2.7355	-3.0431	-3.5009	-0.9368	1.5544	-0.5184	4.0053	3.5732	4.213	3.8415	3.7331	2.7663	2.0074	2.0985	-4.4515	-1.3141	1.0682	-1.2942	2.4607	-0.7557	0.271	-1.1436	-2.703	0.1294	0.2024	1.9377	2.0963	1.7056	-2.5488	-0.7958
175.7812	-2.266	-2.5219	-2.8695	-0.2639	2.3111	0.1566	4.1013	3.4535	4.0708	3.8141	3.9127	2.7844	1.8738	2.3325	-3.9971	-0.9966	0.7944	-1.172	2.3092	-0.2673	0.7904	-1.2741	-2.754	0.0948	-0.0141	1.7175	2.1398	1.714	-1.8845	-0.4886
179.6875	-1.8883	-2.1034	-2.3303	0.2318	2.9011	0.6873	4.1227	3.2758	3.8826	3.7683	4.1441	2.9109	1.7818	2.4709	-3.6746	-0.8897	0.5018	-1.2621	1.9549	-0.0041	1.135	-1.5571	-2.9529	0.047	-0.4394	1.3109	2.137	1.7112	-1.3622	-0.3797
183.5938	-1.6478	-1.838	-1.9418	0.5042	3.2688	1.0284	4.0327	3.0389	3.6428	3.6892	4.3838	3.1388	1.7105	2.4684	-3.5205	-0.9999	0.2191	-1.562	1.4308	-0.0001	1.2542	-1.974	-3.2929	-0.0305	-1.0323	0.7566	2.0744	1.7027	-1.0317	-0.4922
187.5	-1.5761	-1.7656	-1.7495	0.5319	3.3852	1.1545	3.8193	2.7493	3.352	3.5753	4.594	3.4516	1.6534	2.3114	-3.5467	-1.3123	-0.0562	-2.0341	0.7835	-0.2609	1.1312	-2.4855	-3.7454	-0.1412	-1.7316	0.1081	1.9501	1.6953	-0.9136	-0.8135
191.4062	-1.6861	-1.91	-1.7795	0.3167	3.2489	1.0626	3.4982	2.4218	3.0187	3.4384	4.748	3.8216	1.6203	2.0212	-3.7396	-1.7946	-0.35	-2.6134	0.0692	-0.7635	0.787	-3.0366	-4.2632	-0.2737	-2.4635	-0.5728	1.7763	1.6956	-0.9977	-1.2967
195.3125	-1.9685	-2.2742	-2.0336	-0.119	2.8842	0.7721	3.1097	2.0766	2.6587	3.2991	4.8326	4.2116	1.6349	1.6508	-4.0612	-2.4015	-0.6978	-3.2212	-0.6505	-1.4587	0.2771	-3.5633	-4.7871	-0.4044	-3.153	-1.2232	1.5775	1.709	-1.2478	-1.8693
199.2188	-2.3916	-2.8362	-2.4872	-0.7368	2.337	0.3216	2.7113	1.7371	2.2936	3.1814	4.8485	4.5769	1.727	1.2739	-4.4552	-3.0796	-1.128	-3.78	-1.3146	-2.2781	-0.3184	-4.0007	-5.2544	-0.5017	-3.7331	-1.7867	1.3864	1.7381	-1.6106	-2.4458
203.125	-2.9039	-3.5489	-3.0905	-1.4865	1.6687	-0.2348	2.3668	1.4279	1.9485	3.1058	4.8054	4.8717	1.9229	0.9692	-4.8551	-3.772	-1.6462	-4.2261	-1.8678	-3.1424	-0.9095	-4.2913	-5.6069	-0.5341	-4.1546	-2.2208	1.2363	1.7806	-2.0263	-2.9431
207.0312	-3.4421	-4.3442	-3.7738	-2.3101	0.9493	-0.8346	2.1346	1.1724	1.6488	3.0837	4.7171	5.055	2.2351	0.8039	-5.1967	-4.4238	-2.2268	-4.5187	-2.2648	-3.9726	-1.4128	-4.3924	-5.7995	-0.4779	-4.391	-2.5018	1.1539	1.8288	-2.4392	-3.294
210.9375	-3.9416	-5.1429	-4.4575	-3.147	0.2508	-1.4131	2.0581	0.9924	1.4168	3.1146	4.5957	5.0974	2.655	0.8199	-5.4304	-4.9885	-2.8128	-4.6435	-2.4741	-4.7012	-1.7665	-4.2815	-5.8055	-0.3244	-4.4404	-2.6268	1.1512	1.8698	-2.8056	-3.4578
214.8438	-4.3497	-5.8686	-5.0659	-3.9395	-0.3592	-1.9106	2.16	0.9063	1.2692	3.1874	4.4495	4.9862	3.1512	1.0261	-5.5332	-5.4349	-3.3259	-4.6132	-2.481	-5.2824	-1.9398	-3.9607	-5.6211	-0.0829	-4.3233	-2.6127	1.2227	1.8866	-3.0993	-3.4266
218.75	-4.6362	-6.4625	-5.5402	-4.6382	-0.8234	-2.2786	2.4427	0.9291	1.2169	3.2859	4.284	4.7281	3.6752	1.3996	-5.5154	-5.7528	-3.6864	-4.4637	-2.2899	-5.6982	-1.9358	-3.4572	-5.2665	0.2198	-4.0778	-2.4918	1.3459	1.8618	-3.3138	-3.2251
222.6562	-4.8004	-6.8967	-5.8495	-5.2078	-1.101	-2.485	2.8917	1.0709	1.266	3.3967	4.1069	4.3498	4.1721	1.8931	-5.4208	-5.9557	-3.8362	-4.2487	-1.9257	-5.9599	-1.7864	-2.8213	-4.7845	0.5462	-3.7526	-2.3054	1.4872	1.7821	-3.4605	-2.9055
226.5625	-4.8704	-7.1799	-5.995	-5.6304	-1.1725	-2.5177	3.4822	1.3365	1.4202	3.518	3.933	3.8957	4.595	2.4476	-5.3173	-6.079	-3.7602	-4.0302	-1.4339	-6.1031	-1.5428	-2.1205	-4.235	0.8574	-3.3999	-2.0959	1.6112	1.6433	-3.5654	-2.5367
230.4688	-4.8958	-7.3544	-6.0087	-5.9068	-1.043	-2.386	4.1842	1.7239	1.6819	3.6633	3.7882	3.4226	4.9173	3.0059	-5.2831	-6.1729	-3.4959	-3.8681	-0.8774	-6.1781	-1.2617	-1.4295	-3.686	1.1245	-3.0673	-1.8989	1.692	1.4543	-3.6612	-2.1924
234.375	-4.9334	-7.4818	-5.9437	-6.0538	-0.7414	-2.1193	4.967	2.223	2.0527	3.862	3.7087	2.994	5.1411	3.5246	-5.387	-6.2905	-3.1282	-3.8096	-0.3279	-6.236	-0.9921	-0.8171	-3.2018	1.338	-2.7903	-1.7364	1.7227	1.2399	-3.7798	-1.9372
238.2812	-5.0303	-7.6224	-5.8607	-6.098	-0.3154	-1.7616	5.8014	2.815	2.5319	4.1532	3.7366	2.6718	5.2995	3.9829	-5.6709	-6.4731	-2.7679	-3.8803	0.1466	-6.3147	-0.764	-0.333	-2.83	1.5136	-2.5865	-1.6131	1.7208	1.0396	-3.9442	-1.8165
242.1875	-5.2082	-7.8147	-5.8123	-6.0672	0.1782	-1.365	6.6608	3.4723	3.1131	4.5762	3.9114	2.5105	5.4509	4.3852	-6.1368	-6.7369	-2.5218	-4.0786	0.4968	-6.4268	-0.5814	0.0034	-2.5915	1.6909	-2.4525	-1.5155	1.7273	0.9034	-4.1635	-1.849
246.0938	-5.455	-8.0615	-5.8305	-5.9816	0.6865	-0.9798	7.5216	4.16	3.7807	5.1593	4.26	2.5492	5.6687	4.7593	-6.743	-7.0649	-2.4612	-4.3768	0.7048	-6.5545	-0.4226	0.2082	-2.4767	1.9264	-2.3662	-1.4171	1.7986	0.8832	-4.4325	-2.0264
250	-5.7248	-8.3274	-5.9201	-5.8465	1.1721	-0.6458	8.3638	4.8371	4.5068	5.9103	4.7881	2.8071	6.0261	5.1495	-7.4102	-7.4069	-2.6001	-4.7259	0.7892	-6.6519	-0.2445	0.3301	-2.4483	2.2795	-2.2933	-1.2863	1.992	1.0221	-4.7345	-2.3173
253.9062	-5.9475	-8.547	-6.0594	-5.6502	1.6228	-0.3848	9.1714	5.4599	5.2507	6.811	5.4753	3.2785	6.5818	5.6064	-8.0357	-7.6876	-2.8875	-5.0646	0.8028	-6.6541	0.0074	0.4402	-2.4503	2.7983	-2.1968	-1.0966	2.3505	1.3431	-5.0462	-2.6753
257.8125	-6.0438	-8.6421	-6.208	-5.3662	2.0544	-0.197	9.9335	5.9853	5.9614	7.8173	6.276	3.9328	7.3677	6.177	-8.5125	-7.8205	-3.2175	-5.3301	0.8207	-6.4918	0.388	0.617	-2.4206	3.5066	-2.0469	-0.8359	2.8891	1.8409	-5.3434	-3.048
261.7188	-5.9431	-8.54	-6.3184	-4.9597	2.5069	-0.0613	10.6454	6.3764	6.5844	8.8662	7.1263	4.7171	8.3825	6.895	-8.7486	-7.7256	-3.4552	-5.4684	0.9241	-6.1058	0.9422	0.9291	-2.3041	4.3958	-1.8294	-0.5115	3.5885	2.4794	-5.6052	-3.386
265.625	-5.5994	-8.1926	-6.3489	-4.3979	3.0338	0.0584	11.3078	6.6076	7.0707	9.8864	7.9561	5.5633	9.5918	7.7751	-8.683	-7.3457	-3.4722	-5.4431	1.1824	-5.4595	1.6969	1.4216	-2.0624	5.4262	-1.5479	-0.1494	4.3974	3.1969	-5.8163	-3.6503
269.5312	-5.0021	-7.588	-6.2747	-3.6604	3.6862	0.204	11.9257	6.6699	7.3869	10.8123	8.7023	6.3985	10.9347	8.8098	-8.2965	-6.66	-3.1807	-5.2406	1.6379	-4.5473	2.656	2.1082	-1.6801	6.5345	-1.2214	0.2134	5.2438	3.9181	-5.9685	-3.8167
273.4375	-4.1793	-6.7539	-6.0934	-2.7485	4.4981	0.4125	12.5069	6.5753	7.5233	11.5956	9.321	7.156	12.3354	9.9725	-7.6154	-5.6886	-2.5558	-4.8705	2.299	-3.3947	3.8016	2.9719	-1.1652	7.648	-0.8764	0.541	6.0529	4.5713	-6.0604	-3.8777
277.3438	-3.1917	-5.7517	-5.8235	-1.6876	5.4752	0.7074	13.0599	6.3567	7.4973	12.2134	9.7923	7.7848	13.7167	11.2223	-6.706	-4.4895	-1.6394	-4.3627	3.1411	-2.0532	5.0983	3.9724	-0.5444	8.701	-0.5373	0.8102	6.7648	5.103	-6.0956	-3.8418
281.25	-2.1194	-4.6601	-5.4961	-0.5245	6.5931	1.0947	13.5924	6.0653	7.3511	12.6687	10.1187	8.2541	15.0122	12.513	-5.6634	-3.1453	-0.5244	-3.761	4.1167	-0.5893	6.5006	5.0587	0.1448	9.6477	-0.2182	1.0187	7.3465	5.4875	-6.081	-3.7304
285.1562	-1.0434	-3.5559	-5.1423	0.6829	7.8029	1.5642	14.112	5.7631	7.1433	12.9859	10.3171	8.5532	16.1752	13.8007	-4.5931	-1.7465	0.6743	-3.1158	5.1697	0.9276	7.961	6.1813	0.8635	10.4696	0.0801	1.1842	7.7954	5.7276	-6.0243	-3.5729
289.0625	-0.0289	-2.4957	-4.7818	1.878	9.0439	2.0953	14.6259	5.5137	6.9373	13.2023	10.4096	8.6889	17.1824	15.0511	-3.5923	-0.3727	1.8515	-2.4764	6.2496	2.4369	9.4363	7.3025	1.58	11.1744	0.3688	1.336	8.1318	5.8468	-5.9326	-3.4011
292.9688	0.8868	-1.5054	-4.4174	3.0183	10.2585	2.6647	15.1426	5.3718	6.7901	13.3597	10.4164	8.6805	18.0333	16.2426	-2.7331	0.9206	2.9362	-1.8837	7.321	3.8939	10.891	8.3995	2.2751	11.7878	0.6633	1.5025	8.3868	5.8789	-5.8115	-3.2444
296.875	1.6966	-0.5798	-4.0364	4.0819	11.4038	3.2538	15.6719	5.3754	6.7435	13.4972	10.3548	8.557	18.7457	17.3662	-2.0522	2.108	3.9029	-1.3664	8.3657	5.2717	12.2978	9.4627	2.9421	12.3421	0.9752	1.6981	8.5882	5.8575	-5.6655	-3.1257
300.7812	2.4183	0.3092	-3.6197	5.069	12.458	3.8524	16.2236	5.5421	6.8213	13.6485	10.2429	8.3562	19.3482	18.4218	-1.5498	3.1907	4.7664	-0.94	9.3793	6.5586	13.6353	10.4886	3.5833	12.8638	1.3043	1.9159	8.7508	5.8085	-5.4992	-3.0599
304.6875	3.0837	1.1979	-3.1519	5.9949	13.4194	4.4582	16.8066	5.8688	7.0301	13.8406	10.1056	8.123	19.8726	19.4125	-1.1961	4.1868	5.5668	-0.6084	10.3637	7.7518	14.8851	11.4725	4.2042	13.3654	1.6357	2.1284	8.8726	5.7476	-5.3183	-3.0536
308.5938	3.7252	2.1167	-2.6303	6.8806	14.2997	5.0736	17.4259	6.3357	7.363	14.0934	9.9768	7.9064	20.3471	20.3396	-0.9427	5.1199	6.3499	-0.3665	11.3198	8.8509	16.0297	12.4022	4.8084	13.8423	1.9426	2.2945	8.9384	5.6806	-5.1311	-3.1051
312.5	4.367	3.0796	-2.0662	7.7426	15.1152	5.7008	18.0803	6.9117	7.8036	14.4188	9.8958	7.7511	20.7912	21.1991	-0.7349	6.0081	7.1502	-0.2019	12.2419	9.8534	17.0527	13.2571	5.3945	14.2765	2.193	2.3706	8.9268	5.6041	-4.947	-3.2043
316.4062	5.0189	4.0794	-1.4823	8.5865	15.8783	6.3379	18.7608	7.5591	8.3272	14.8167	9.8968	7.6871	21.2136	21.9813	-0.5213	6.8582	7.9802	-0.0942	13.1152	10.7529	17.9404	14.0114	5.9557	14.6424	2.3581	2.3217	8.8177	5.5067	-4.7751	-3.3334
320.3125	5.676	5.0885	-0.9056	9.4033	16.5917	6.9766	19.4486	8.2376	8.9011	15.2717	9.9963	7.7189	21.611	22.6724	-0.261	7.6631	8.8259	-0.0165	13.9158	11.539	18.6834	14.6393	6.4818	14.9148	2.4193	2.1285	8.5984	5.3707	-4.6222	-3.468
324.2188	6.3191	6.0622	-0.3625	10.1707	17.2465	7.601	20.1161	8.9073	9.4861	15.7525	10.1849	7.8215	21.9699	23.2558	0.0709	8.403	9.6482	0.0609	14.6128	12.1994	19.2772	15.1207	6.9604	15.0742	2.3703	1.79	8.2659	5.1743	-4.4914	-3.5807
328.125	6.9174	6.944	0.1239	10.8547	17.8233	8.1886	20.7283	9.5314	10.0384	16.2143	10.4275	7.9454	22.2688	23.7144	0.478	9.0474	10.3873	0.1637	15.1716	12.7208	19.7216	15.4444	7.3776	15.11	2.216	1.3217	7.8274	4.8967	-4.3832	-3.6473
332.0312	7.4304	7.671	0.5325	11.415	18.2963	8.7113	21.2486	10.0791	10.5167	16.6085	10.6744	8.0317	22.4831	24.0323	0.9384	9.5588	10.9707	0.3045	15.5581	13.0902	20.0178	15.6088	7.7186	15.0206	1.9682	0.7519	7.3008	4.5263	-4.298	-3.6537
335.9375	7.8126	8.1825	0.8427	11.8105	18.6399	9.1392	21.6455	10.5289	10.8891	16.8939	10.8776	8.0318	22.592	24.1976	1.4048	9.8977	11.3239	0.476	15.7439	13.2971	20.1677	15.621	7.9676	14.8145	1.6431	0.1183	6.714	4.0674	-4.2385	-3.6022
339.8438	8.0205	8.4287	1.0337	12.0082	18.8362	9.4462	21.8999	10.8717	11.14	17.0482	11.0072	7.9251	22.5846	24.2069	1.8099	10.0298	11.383	0.6506	15.712	13.3358	20.1748	15.4958	8.1102	14.5106	1.2608	-0.5346	6.1065	3.5466	-4.2107	-3.5131
343.75	8.0221	8.3826	1.0889	11.9919	18.882	9.6167	22.0105	11.1121	11.2746	17.0754	11.0607	7.7287	22.4666	24.0685	2.0797	9.9336	11.1084	0.7867	15.4618	13.2091	20.0474	15.2562	8.1366	14.1397	0.8468	-1.157	5.5278	3.0125	-4.2227	-3.4213
347.6562	7.8067	8.049	1.0027	11.7694	18.7928	9.6512	21.9952	11.2675	11.3171	17.0057	11.0633	7.4949	22.2617	23.8064	2.1508	9.6082	10.4983	0.8412	15.0141	12.9312	19.8024	14.9335	8.0472	13.7448	0.4329	-1.6969	5.0344	2.53	-4.2816	-3.3686
351.5625	7.3929	7.469	0.7881	11.3758	18.602	9.5696	21.8869	11.3638	11.3049	16.8871	11.0585	7.2967	22.0095	23.4595	1.9886	9.078	9.5981	0.7843	14.4139	12.5299	19.4689	14.5685	7.8568	13.378	0.0576	-2.105	4.6818	2.1677	-4.3899	-3.3911
355.4688	6.8284	6.7157	0.4798	10.8684	18.355	9.4073	21.7255	11.4285	11.2784	16.7721	11.0925	7.2064	21.7575	23.0773	1.598	8.3914	8.5004	0.6102	13.7292	12.0455	19.0872	14.2091	7.5953	13.0936	-0.2386	-2.3425	4.5148	1.9835	-4.5431	-3.5096
359.375	6.1814	5.8802	0.1296	10.316	18.0982	9.2078	21.5467	11.4833	11.2707	16.7021	11.1981	7.2732	21.5496	22.7104	1.0225	7.6128	7.3331	0.3406	13.0429	11.5246	18.7035	13.9047	7.3054	12.9373	-0.4199	-2.3891	4.5564	2.01	-4.73	-3.7229
363.2812	5.5255	5.0513	-0.2057	9.7831	17.8675	9.0107	21.3722	11.5371	11.2984	16.6946	11.3827	7.5076	21.4153	22.3998	0.3333	6.8103	6.237	0.0185	12.4403	11.0124	18.361	13.6982	7.0341	12.9348	-0.4633	-2.2496	4.7992	2.2446	-4.9357	-4.0095
367.1875	4.9221	4.2971	-0.4795	9.3149	17.6781	8.8407	21.2035	11.5842	11.3584	16.738	11.6239	7.8758	21.3616	22.1673	-0.3895	6.0422	5.3384	-0.3035	11.9927	10.5436	18.0898	13.6169	6.8234	13.0831	-0.3662	-1.9563	5.2023	2.648	-5.1453	-4.3332
371.0938	4.4075	3.6517	-0.6682	8.9278	17.5208	8.7008	21.0225	11.6052	11.4288	16.794	11.8731	8.307	21.3708	22.0111	-1.0757	5.3467	4.7253	-0.5798	11.7437	10.1361	17.901	13.6666	6.701	13.3482	-0.1488	-1.5657	5.6955	3.1491	-5.3477	-4.653
375	3.9876	3.1126	-0.7772	8.6071	17.3657	8.5715	20.7969	11.5724	11.4751	16.8075	12.0664	8.7089	21.4057	21.9078	-1.6777	4.7385	4.4315	-0.7833	11.7009	9.7892	17.7845	13.829	6.6747	13.6701	0.1466	-1.1497	6.1893	3.6579	-5.5363	-4.9318
378.9062	3.642	2.6491	-0.8372	8.3138	17.1705	8.4177	20.4912	11.458	11.459	16.7204	12.1387	8.989	21.418	21.8203	-2.1758	4.2106	4.4335	-0.9122	11.8355	9.486	17.7128	14.0665	6.7322	13.9751	0.4627	-0.7839	6.5907	4.082	-5.7081	-5.1426
382.8125	3.3359	2.2172	-0.8923	7.9982	16.8938	8.1998	20.0775	11.2418	11.3479	16.4867	12.0389	9.0746	21.3611	21.7083	-2.5732	3.7429	4.658	-0.9867	12.0894	9.2004	17.6489	14.3292	6.8454	14.1905	0.7372	-0.5341	6.8195	4.3428	-5.8594	-5.2698
386.7188	3.034	1.777	-0.9845	7.6151	16.506	7.8863	19.544	10.9175	11.1226	16.0832	11.7405	8.9277	21.1997	21.5377	-2.8859	3.312	4.9997	-1.0396	12.388	8.9049	17.5549	14.5655	6.9788	14.2594	0.9144	-0.4456	6.8228	4.3898	-5.9822	-5.3083
390.625	2.714	1.307	-1.1377	7.1373	15.9966	7.4646	18.8983	10.4948	10.7804	15.5141	11.2463	8.5495	20.916	21.2864	-3.1302	2.9006	5.345	-1.103	12.6553	8.578	17.3987	14.7309	7.0975	14.1501	0.9544	-0.5366	6.5833	4.2072	-6.0616	-5.2591
394.5312	2.3737	0.8107	-1.3483	6.5627	15.3754	6.9447	18.1639	9.9976	10.3344	14.8078	10.5865	7.9753	20.5099	20.9445	-3.3131	2.5016	5.5945	-1.1957	12.8269	8.2083	17.1574	14.7938	7.1742	13.8587	0.8404	-0.7971	6.1207	3.8137	-6.0768	-5.1258
398.4375	2.0298	0.3129	-1.5841	5.9135	14.6674	6.357	17.3732	9.458	9.8082	14.0094	9.8098	7.263	19.994	20.5105	-3.4297	2.1176	5.6793	-1.3164	12.8585	7.7937	16.8168	14.7364	7.1912	13.4052	0.5804	-1.192	5.486	3.2567	-6.005	-4.9117
402.3438	1.7088	-0.1524	-1.7933	5.227	13.9045	5.7441	16.5577	8.9098	9.2311	13.1691	8.9741	6.4795	19.3861	19.9856	-3.4683	1.7541	5.5656	-1.4436	12.7272	7.3374	16.369	14.5527	7.1399	12.8263	0.2061	-1.6676	4.7515	2.6024	-5.8284	-4.6205
406.25	1.4343	-0.5573	-1.9209	4.5439	13.1169	5.1501	15.7427	8.3822	8.6331	12.334	8.1368	5.6896	18.7034	19.3698	-3.4208	1.4112	5.2504	-1.5432	12.4278	6.8418	15.8099	14.2442	7.0178	12.167	-0.2319	-2.1592	3.9994	1.926	-5.5406	-4.2573
410.1562	1.2155	-0.8925	-1.9261	3.8963	12.3272	4.6104	14.9441	7.8963	8.0431	11.5434	7.3501	4.9505	17.9597	18.6619	-3.2926	1.078	4.7518	-1.5793	11.968	6.3047	15.1388	13.8174	6.826	11.4753	-0.672	-2.5997	3.311	1.3027	-5.1507	-3.8324
414.0625	1.0424	-1.1708	-1.7951	3.301	11.5487	4.146	14.1721	7.4648	7.4887	10.8288	6.6596	4.3109	17.1675	17.8625	-3.108	0.7317	4.0992	-1.5258	11.3629	5.7178	14.3607	13.2823	6.5684	10.7985	-1.0502	-2.9277	2.7574	0.8003	-4.685	-3.3633
417.9688	0.8887	-1.4223	-1.5469	2.7585	10.7892	3.7617	13.4355	7.0923	6.9966	10.2158	6.1053	3.8122	16.3428	16.9798	-2.9086	0.3426	3.3269	-1.3755	10.6326	5.0698	13.4886	12.654	6.2523	10.1817	-1.3102	-3.0958	2.3923	0.4725	-4.1844	-2.8763
421.875	0.7206	-1.6829	-1.2293	2.2586	10.0556	3.4488	12.7466	6.777	6.5904	9.727	5.7215	3.4888	15.5102	16.0352	-2.7444	-0.1173	2.4718	-1.1448	9.8028	4.353	12.5476	11.9547	5.8905	9.6652	-1.4116	-3.0772	2.2465	0.3538	-3.6998	-2.4057
425.7812	0.5087	-1.9808	-0.9077	1.7886	9.3591	3.1908	12.1237	6.5115	6.288	9.3808	5.5344	3.3656	14.7046	15.066	-2.6616	-0.6634	1.5748	-0.8715	8.9069	3.57	11.5749	11.2157	5.5024	9.282	-1.3361	-2.8691	2.3247	0.4549	-3.2839	-1.99
429.6875	0.2391	-2.3247	-0.6487	1.3426	8.7182	2.9689	11.5898	6.2834	6.097	9.1895	5.5576	3.4535	13.9709	14.1248	-2.6901	-1.2905	0.6847	-0.6092	7.9892	2.7399	10.6204	10.4778	5.1148	9.0543	-1.0892	-2.4923	2.6051	0.7623	-2.9829	-1.6672
433.5938	-0.0786	-2.6976	-0.5036	0.9274	8.1589	2.7684	11.1691	6.0768	6.0121	9.1539	5.7853	3.7433	13.358	13.275	-2.8347	-1.9666	-0.1381	-0.415	7.1079	1.9021	9.7428	9.7897	4.76	8.9903	-0.6984	-1.9875	3.0425	1.2394	-2.8277	-1.4678
437.5	-0.41	-3.0564	-0.495	0.5649	7.7127	2.5823	10.8821	5.8748	6.0143	9.2605	6.1873	4.2011	12.9118	12.5826	-3.0712	-2.6339	-0.8221	-0.3361	6.334	1.1157	9.0052	9.2047	4.4728	9.0826	-0.2072	-1.409	3.574	1.8308	-2.828	-1.409
441.4062	-0.7002	-3.339	-0.6105	0.2904	7.4115	2.4141	10.7408	5.663	6.0729	9.479	6.7072	4.7674	12.6669	12.107	-3.3487	-3.2146	-1.2891	-0.3955	5.7464	0.4549	8.4687	8.7747	4.286	9.3091	0.331	-0.8171	4.1283	2.4692	-2.9697	-1.4892
445.3125	-0.8843	-3.4776	-0.8044	0.1463	7.2831	2.2772	10.7453	5.4329	6.1507	9.7653	7.2671	5.3621	12.6392	11.8911	-3.5975	-3.6233	-1.4665	-0.5831	5.4216	-0.0015	8.1846	8.5433	4.2255	9.6358	0.8606	-0.2705	4.6356	3.0831	-3.216	-1.6852
449.2188	-0.9019	-3.4144	-1.0086	0.1726	7.3451	2.1917	10.8823	5.1856	6.2115	10.0682	7.7786	5.8963	12.8226	11.9541	-3.7439	-3.7839	-1.3039	-0.8542	5.4185	-0.1845	8.1861	8.5374	4.3046	10.0219	1.3299	0.1805	5.0382	3.6061	-3.5133	-1.9534
453.125	-0.7132	-3.118	-1.1499	0.3954	7.5995	2.1792	11.1267	4.9324	6.2274	10.3377	8.1573	6.2875	13.1887	12.2872	-3.7268	-3.6485	-0.7909	-1.1394	5.7635	-0.0511	8.4808	8.7598	4.52	10.4252	1.6966	0.5005	5.2996	3.9865	-3.7999	-2.2361
457.0312	-0.3109	-2.5941	-1.1679	0.8178	8.029	2.2559	11.4446	4.6929	6.1844	10.5353	8.3396	6.4756	13.69	12.853	-3.514	-3.2116	0.0302	-1.3616	6.4368	0.4013	9.0447	9.1847	4.848	10.808	1.9318	0.6737	5.4097	4.1952	-4.0171	-2.4718
460.9375	0.274	-1.8878	-1.0305	1.4133	8.595	2.4261	11.7976	4.4901	6.0845	10.6405	8.2944	6.4347	14.2666	13.5887	-3.1126	-2.5167	1.063	-1.4557	7.3675	1.1276	9.8207	9.7575	5.2454	11.1409	2.0231	0.7056	5.3854	4.2298	-4.1194	-2.609
464.8438	0.9762	-1.0771	-0.741	2.1267	9.2404	2.6784	12.1468	4.3435	5.9426	10.653	8.0294	6.178	14.8536	14.4125	-2.5692	-1.652	2.1692	-1.3864	8.4379	2.0375	10.7222	10.4004	5.6538	11.4042	1.9748	0.6205	5.2657	4.1145	-4.0832	-2.6173
468.75	1.7066	-0.2592	-0.3382	2.881	9.8947	2.9844	12.4562	4.2631	5.7811	10.5903	7.5898	5.755	15.3886	15.2328	-1.9623	-0.735	3.1919	-1.158	9.4999	3.0083	11.6423	11.0219	6.0081	11.5876	1.8067	0.4566	5.103	3.8948	-3.9116	-2.4962
472.6562	2.3685	0.4664	0.1103	3.5895	10.4847	3.3029	12.6954	4.2451	5.6227	10.4816	7.0494	5.2419	15.8184	15.9582	-1.3867	0.1089	3.9856	-0.8141	10.3991	3.9068	12.4683	11.5311	6.2475	11.6877	1.5508	0.2579	4.9516	3.6287	-3.6354	-2.2763
476.5625	2.8746	1.0151	0.5212	4.172	10.9457	3.586	12.8412	4.2722	5.485	10.3595	6.4981	4.7276	16.1032	16.5092	-0.9344	0.7705	4.4449	-0.4271	11.0033	4.6137	13.0988	11.8523	6.3266	11.7055	1.2459	0.0665	4.8564	3.3764	-3.3088	-2.0136
480.4688	3.1626	1.3319	0.8117	4.5699	11.234	3.7894	12.8796	4.3157	5.3758	10.252	6.0251	4.2973	16.22	16.8288	-0.6768	1.1775	4.5253	-0.0817	11.2288	5.0478	13.4614	11.9382	6.2246	11.645	0.9328	-0.0835	4.8445	3.1896	-2.9992	-1.7783
484.375	3.2066	1.4001	0.9175	4.7573	11.3342	3.8808	12.8057	4.3411	5.2916	10.1761	5.7029	4.0162	16.1633	16.89	-0.6496	1.3062	4.2507	0.1443	11.0564	5.1805	13.5249	11.7783	5.9498	11.5125	0.6489	-0.1703	4.9203	3.103	-2.775	-1.6391
488.2812	3.0205	1.2428	0.8065	4.7451	11.2605	3.8473	12.6234	4.314	5.2191	10.1328	5.5735	3.9181	15.9441	16.6991	-0.8469	1.1828	3.705	0.1962	10.5342	5.0387	13.3045	11.4003	5.538	11.3167	0.4244	-0.1854	5.066	3.1281	-2.6917	-1.6478
492.1875	2.6543	0.9173	0.4874	4.5758	11.0517	3.6972	12.3443	4.2075	5.1396	10.1075	5.6404	3.9997	15.5861	16.2922	-1.2226	0.8728	3.0113	0.0534	9.7652	4.6947	12.857	10.864	5.0457	11.0692	0.2794	-0.1323	5.2458	3.2522	-2.7799	-1.8272
496.0938	2.1828	0.5028	0.0097	4.3127	10.7609	3.4592	11.9852	4.0077	5.035	10.0732	5.8683	4.2227	15.1219	15.7279	-1.701	0.4631	2.3024	-0.266	8.8834	4.2458	12.2671	10.2485	4.5396	10.7841	0.2225	-0.0241	5.4143	3.4415	-3.0382	-2.1652
500	1.6903	0.0852	-0.5446	4.0253	10.4431	3.1766	11.5667	3.7183	4.8939	9.9964	6.1892	4.5225	14.5871	15.0761	-2.1919	0.0408	1.6923	-0.7071	8.0233	3.7902	11.6294	9.6366	4.0832	10.4767	0.2499	0.1196	5.5255	3.647	-3.4315	-2.6155
503.9062	1.2548	-0.2586	-1.0765	3.7743	10.1447	2.8995	11.1112	3.3606	4.7147	9.8455	6.5158	4.8205	14.0165	14.4066	-2.609	-0.3243	1.2549	-1.1879	7.2928	3.4049	11.029	9.0992	3.726	10.1613	0.347	0.2758	5.5413	3.8147	-3.897	-3.1074
507.8125	0.9348	-0.4716	-1.4896	3.602	9.8964	2.675	10.6405	2.9696	4.5055	9.597	6.7572	5.0381	13.4402	13.7786	-2.8853	-0.5902	1.0148	-1.6156	6.7548	3.1327	10.5271	8.6838	3.4957	9.8493	0.4903	0.4201	5.4376	3.8944	-4.3549	-3.56
511.7188	0.7632	-0.5226	-1.7078	3.5274	9.7112	2.5381	10.1746	2.5864	4.2808	9.2408	6.8359	5.1096	12.8817	13.234	-2.9822	-0.7426	0.9545	-1.9066	6.4241	2.9796	10.1542	8.4099	3.3967	9.5475	0.651	0.5304	5.2074	3.8494	-4.7237	-3.8988
515.625	0.7483	-0.4059	-1.6876	3.5491	9.5866	2.5058	9.7303	2.2492	4.0555	8.7828	6.7023	4.9924	12.3579	12.7949	-2.8907	-0.7883	1.0309	-2.0042	6.2773	2.9243	9.9114	8.2718	3.4141	9.259	0.7999	0.5898	4.8618	3.6632	-4.9349	-4.068
519.5312	0.8795	-0.1366	-1.4236	3.6509	9.5101	2.5744	9.3204	1.9844	3.8408	8.2451	6.3436	4.6736	11.8805	12.4657	-2.6254	-0.7433	1.1959	-1.8897	6.2705	2.9325	9.7791	8.2464	3.5212	8.9846	0.9129	0.5896	4.4274	3.3439	-4.9444	-4.0384
523.4375	1.1349	0.2552	-0.9459	3.8093	9.4645	2.7212	8.9533	1.8013	3.6398	7.6627	5.7855	4.1709	11.4572	12.2365	-2.2148	-0.6242	1.4116	-1.5838	6.3554	2.9721	9.7282	8.3023	3.6875	8.725	0.9742	0.5311	3.943	2.922	-4.7394	-3.8096
527.3438	1.4869	0.7299	-0.3124	3.9985	9.4319	2.91	8.6328	1.6921	3.4478	7.0784	5.0871	3.5291	11.0927	12.088	-1.693	-0.443	1.6545	-1.1381	6.4898	3.0232	9.7285	8.4065	3.8831	8.4813	0.9775	0.4237	3.4524	2.4454	-4.3381	-3.4072
531.25	1.9048	1.2431	0.4028	4.1929	9.3959	3.0978	8.3569	1.6347	3.2532	6.5357	4.3279	2.8116	10.7873	11.9949	-1.0947	-0.2094	1.9094	-0.6217	6.637	3.0794	9.7539	8.5264	4.0798	8.2539	0.924	0.2816	2.9961	1.9684	-3.785	-2.8775
535.1562	2.3545	1.7474	1.1217	4.367	9.341	3.2425	8.1184	1.5995	3.0419	6.0708	3.5927	2.089	10.5358	11.9277	-0.4536	0.0628	2.1575	-0.1059	6.7605	3.1416	9.782	8.6292	4.2504	8.0397	0.8187	0.1185	2.6038	1.5411	-3.142	-2.2802
539.0625	2.7977	2.1946	1.7734	4.494	9.252	3.3084	7.9048	1.5561	2.8002	5.7057	2.9557	1.4266	10.3252	11.8542	0.1968	0.3491	2.3653	0.3487	6.8176	3.2074	9.7903	8.6797	4.3667	7.8302	0.668	-0.0557	2.2887	1.2001	-2.4786	-1.6792
542.9688	3.1917	2.5361	2.302	4.5452	9.1125	3.2709	7.7	1.4787	2.5191	5.4448	2.4687	0.8749	10.1356	11.7411	0.8224	0.6092	2.4823	0.701	6.7584	3.2616	9.7528	8.641	4.401	7.6114	0.4782	-0.236	2.0459	0.9632	-1.8625	-1.1334
546.875	3.4918	2.727	2.6704	4.4909	8.906	3.1183	7.4871	1.3502	2.1966	5.2747	2.1556	0.4637	9.9423	11.5574	1.3892	0.789	2.45	0.9315	6.533	3.2716	9.6385	8.4783	4.3304	7.3667	0.2574	-0.4204	1.8566	0.8301	-1.3531	-0.6875
550.7812	3.6572	2.7303	2.8614	4.305	8.6187	2.853	7.252	1.1638	1.8396	5.1685	2.0121	0.2012	9.7209	11.2791	1.8661	0.8298	2.2199	1.0404	6.1047	3.1914	9.4156	8.1665	4.1425	7.0816	0.0179	-0.6055	1.6954	0.7864	-0.9958	-0.3666
554.6875	3.6592	2.5259	2.8759	3.9716	8.2441	2.4908	6.9868	0.9242	1.4645	5.0938	2.0123	0.0776	9.4545	10.8953	2.2281	0.6809	1.7735	1.0411	5.4653	2.9726	9.0585	7.6993	3.8426	6.7509	-0.2208	-0.7821	1.5404	0.8112	-0.8196	-0.1742
558.5938	3.4889	2.1178	2.7311	3.4926	7.7875	2.059	6.6923	0.646	1.0954	5.0205	2.1176	0.0718	9.1396	10.4135	2.4612	0.3149	1.1352	0.9541	4.6451	2.5789	8.5573	7.0956	3.4562	6.3837	-0.4314	-0.9329	1.3821	0.8834	-0.8342	-0.0936
562.5	3.1634	1.5408	2.4597	2.8933	7.2675	1.5936	6.3784	0.3516	0.7613	4.9286	2.2863	0.1575	8.7891	9.8613	2.5662	-0.2616	0.3715	0.803	3.7134	2.0001	7.9254	6.4013	3.0275	6.0054	-0.5807	-1.0333	1.2271	0.9872	-1.0283	-0.0935
566.4062	2.7269	0.8607	2.1088	2.2233	6.7145	1.1343	6.0606	0.0668	0.4901	4.8096	2.4799	0.3076	8.4309	9.2836	2.5615	-1.004	-0.4229	0.6137	2.7676	1.2598	7.2014	5.6831	2.6122	5.6541	-0.6355	-1.057	1.0965	1.1121	-1.3689	-0.1342
570.3125	2.2455	0.1673	1.7371	1.55	6.165	0.7198	5.7545	-0.1852	0.3016	4.6652	2.6658	0.4963	8.1005	8.7336	2.4826	-1.8343	-1.1474	0.4141	1.9151	0.4158	6.4446	5.0168	2.2665	5.3723	-0.5707	-0.9832	1.018	1.2503	-1.804	-0.1755
574.2188	1.7962	-0.4401	1.4075	0.9477	5.6544	0.3815	5.4689	-0.3886	0.2012	4.5005	2.8165	0.698	7.8311	8.2619	2.3781	-2.6529	-1.7163	0.2357	1.2519	-0.4481	5.7254	4.4732	2.0355	5.1955	-0.378	-0.8049	1.0148	1.3924	-2.2685	-0.1836
578.125	1.4531	-0.8703	1.1776	0.4836	5.2102	0.1403	5.2016	-0.5389	0.1765	4.3173	2.9079	0.8866	7.6431	7.9055	2.3022	-3.3552	-2.0714	0.1112	0.8457	-1.2354	5.1129	4.1049	1.9449	5.1421	-0.0715	-0.534	1.0955	1.5239	-2.6952	-0.1371
582.0312	1.2742	-1.0573	1.0897	0.2053	4.8497	0.0045	4.9385	-0.6437	0.1975	4.1098	2.9187	1.0352	7.5372	7.6809	2.305	-3.8481	-2.1849	0.071	0.7266	-1.8531	4.6642	3.9387	1.9962	5.2074	0.3115	-0.2013	1.2491	1.6257	-3.0258	-0.0304
585.9375	1.2912	-0.9721	1.1639	0.1345	4.5814	-0.0283	4.6581	-0.7198	0.2218	3.8637	2.8306	1.1177	7.4941	7.5833	2.4234	-4.0647	-2.0549	0.1372	0.8861	-2.2267	4.4165	3.974	2.1687	5.3633	0.7164	0.1476	1.4452	1.6768	-3.2208	0.1268
589.8438	1.5053	-0.6267	1.3949	0.2655	4.4083	0.0308	4.3376	-0.7887	0.2027	3.5587	2.6309	1.1124	7.4773	7.5893	2.6729	-3.9736	-1.6995	0.3179	1.2823	-2.3121	4.3824	4.1851	2.4249	5.5639	1.0798	0.4605	1.6402	1.6585	-3.2647	0.3133
593.75	1.8872	-0.0713	1.7554	0.5686	4.3315	0.1658	3.9607	-0.8715	0.0982	3.1746	2.3144	1.0058	7.4417	7.6632	3.0436	-3.5852	-1.1522	0.6026	1.8488	-2.1041	4.5486	4.5265	2.7177	5.7535	1.3417	0.687	1.7858	1.5579	-3.1664	0.5026
597.6562	2.3821	0.6137	2.2004	0.996	4.3503	0.357	3.5226	-0.9841	-0.1198	2.6967	1.8858	0.7954	7.3416	7.7634	3.5	-2.9513	-0.4625	0.9616	2.5046	-1.64	4.876	4.9389	2.9983	5.8762	1.4541	0.7861	1.8385	1.37	-2.9544	0.6694
601.5625	2.9173	1.3304	2.675	1.4879	4.4596	0.5823	3.0327	-1.1335	-0.4597	2.1231	1.3606	0.4923	7.1406	7.8479	3.9851	-2.1597	0.3029	1.3493	3.1635	-0.9966	5.3035	5.3562	3.2233	5.8851	1.3889	0.7321	1.7676	1.0982	-2.6698	0.795
605.4688	3.4135	1.9774	3.1224	1.9793	4.6454	0.8182	2.5151	-1.3163	-0.907	1.4693	0.7674	0.1212	6.8196	7.88	4.4296	-1.3213	1.0629	1.7109	3.7448	-0.2797	5.755	5.7125	3.3593	5.7504	1.1416	0.519	1.5616	0.7554	-2.3578	0.8697
609.375	3.798	2.4664	3.4927	2.4082	4.8835	1.0413	2.0066	-1.5178	-1.425	0.7723	0.1487	-0.2807	6.3823	7.8329	4.765	-0.5522	1.7298	1.9925	4.1826	0.3928	6.1502	5.9513	3.3875	5.4654	0.7318	0.1628	1.2321	0.3645	-2.0597	0.8934
613.2812	4.0192	2.7377	3.7527	2.7247	5.1405	1.2325	1.5528	-1.714	-1.959	0.09	-0.4392	-0.6663	5.8587	7.6946	4.9375	0.0472	2.2245	2.1521	4.4347	0.9127	6.418	6.033	3.3046	5.0499	0.2018	-0.2991	0.8141	-0.0408	-1.806	0.8733
617.1875	4.057	2.7724	3.8921	2.899	5.3798	1.3805	1.203	-1.8756	-2.4452	-0.5043	-0.9306	-0.9839	5.3015	7.4696	4.9209	0.4099	2.4906	2.1675	4.4861	1.2011	6.5095	5.9406	3.1226	4.548	-0.3883	-0.8112	0.3625	-0.4177	-1.6123	0.8201
621.0938	3.9263	2.5958	3.9249	2.926	5.5671	1.4839	1.0007	-1.9745	-2.8223	-0.9335	-1.2591	-1.1853	4.7777	7.1771	4.7225	0.5115	2.5018	2.0416	4.3463	1.2206	6.4043	5.6806	2.8646	4.0206	-0.9685	-1.3072	-0.0566	-0.7193	-1.4786	0.7445
625	3.6711	2.2698	3.8841	2.8232	5.6748	1.5493	0.9736	-1.9922	-3.0441	-1.1335	-1.3706	-1.2347	4.3534	6.8441	4.3815	0.3671	2.2619	1.8007	4.0411	0.9773	6.1109	5.2782	2.5593	3.5331	-1.469	-1.7208	-0.3786	-0.9019	-1.3925	0.654
628.9062	3.3511	1.8747	3.8118	2.6221	5.6833	1.5868	1.1229	-1.9267	-3.0914	-1.0697	-1.2366	-1.1177	4.0775	6.4958	3.9602	0.0207	1.7972	1.4897	3.6021	0.5117	5.6586	4.7688	2.2351	3.1406	-1.8316	-1.9969	-0.5547	-0.9349	-1.3346	0.553
632.8125	3.0257	1.4886	3.7485	2.3574	5.5795	1.6034	1.4172	-1.796	-2.9779	-0.7504	-0.8634	-0.8457	3.9679	6.1472	3.5318	-0.4707	1.1497	1.1635	3.0594	-0.1156	5.0875	4.1894	1.9149	2.875	-2.0197	-2.1021	-0.5631	-0.8077	-1.2838	0.4455
636.7188	2.7413	1.1678	3.7245	2.057	5.3564	1.5992	1.7933	-1.637	-2.7493	-0.2299	-0.2943	-0.4557	4.0059	5.7981	3.1667	-1.0491	0.3732	0.8791	2.4395	-0.8381	4.438	3.5724	1.6142	2.7387	-2.0243	-2.0305	-0.4147	-0.5348	-1.2214	0.3401
640.625	2.5255	0.9391	3.7568	1.738	5.0136	1.5673	2.165	-1.4989	-2.4758	0.3976	0.3952	-0.0041	4.1402	5.4349	2.9235	-1.6624	-0.467	0.6874	1.7686	-1.5931	3.7462	2.9437	1.3414	2.7051	-1.8655	-1.8047	-0.1506	-0.1538	-1.1328	0.2533
644.5312	2.3887	0.8023	3.8504	1.4097	4.5614	1.4981	2.4391	-1.4343	-2.2388	1.014	1.1097	0.4436	4.2993	5.0389	2.8425	-2.2632	-1.2931	0.6269	1.0786	-2.326	3.0429	2.3248	1.0999	2.7266	-1.5878	-1.4704	0.1668	0.2806	-1.0063	0.2097
648.4375	2.3324	0.7431	4.0032	1.0814	4.0242	1.3859	2.5335	-1.489	-2.1164	1.4999	1.7503	0.825	4.4103	4.5971	2.9454	-2.8049	-2.0171	0.7189	0.4118	-2.9887	2.3575	1.7362	0.8913	2.748	-1.2521	-1.0871	0.4682	0.707	-0.8322	0.2378
652.3438	2.3589	0.7499	4.213	0.7722	3.4448	1.2365	2.3959	-1.6931	-2.1686	1.7564	2.2304	1.0918	4.4166	4.1135	3.237	-3.2361	-2.5476	0.963	-0.1787	-3.5353	1.724	1.202	0.7174	2.7205	-0.9236	-0.7169	0.6926	1.0682	-0.6016	0.3622
656.25	2.4791	0.8273	4.4816	0.5174	2.884	1.0701	2.0154	-2.0559	-2.4269	1.7245	2.491	1.218	4.293	3.6156	3.7088	-3.5002	-2.803	1.3363	-0.6335	-3.9188	1.1851	0.7516	0.5811	2.6147	-0.6611	-0.4134	0.799	1.3217	-0.3077	0.5952
660.1562	2.7141	1.0017	4.8157	0.3688	2.4152	0.9205	1.4269	-2.5624	-2.888	1.3945	2.5097	1.2037	4.0515	3.1545	4.3423	-3.5398	-2.7281	1.7958	-0.8961	-4.0911	0.7922	0.4179	0.4869	2.4283	-0.5061	-0.2129	0.7751	1.4461	0.0526	0.9304
664.0625	3.0902	1.3153	5.2238	0.3856	2.1135	0.8289	0.7049	-3.1759	-3.5142	0.8069	2.3036	1.074	3.7379	2.7963	5.112	-3.307	-2.3092	2.2871	-0.9241	-4.0084	0.5991	0.2331	0.4398	2.1863	-0.4764	-0.1297	0.638	1.4449	0.4753	1.342
667.9688	3.627	1.8106	5.7089	0.6195	2.0399	0.8322	-0.0522	-3.8425	-4.2403	0.0408	1.923	0.872	3.419	2.6067	5.9858	-2.7784	-1.5834	2.7553	-0.7014	-3.6432	0.6496	0.2201	0.4446	1.9355	-0.5631	-0.1544	0.4293	1.3442	0.9468	1.7892
671.875	4.3235	2.5089	6.2601	1.0949	2.2236	0.951	-0.7439	-4.5	-4.9855	-0.8035	1.4397	0.6494	3.1634	2.6315	6.9227	-1.9702	-0.6373	3.1555	-0.2457	-2.9986	0.9608	0.3832	0.5035	1.7318	-0.7336	-0.2564	0.2052	1.1874	1.4411	2.2249
675.7812	5.1446	3.3901	6.8466	1.7925	2.648	1.1784	-1.2895	-5.0889	-5.6675	-1.6259	0.931	0.4548	3.0218	2.8785	7.8689	-0.9486	0.403	3.4582	0.3879	-2.1224	1.5085	0.701	0.6139	1.6255	-0.9381	-0.3902	0.0236	1.026	1.9194	2.6044
679.6875	6.016	4.3808	7.4161	2.6409	3.2448	1.4758	-1.6445	-5.5606	-6.2161	-2.3443	0.4653	0.3237	3.0114	3.3084	8.7548	0.1697	1.3904	3.6501	1.1123	-1.1123	2.2189	1.1225	0.7648	1.6467	-1.1196	-0.5042	-0.0684	0.9095	2.3325	2.8931
683.5938	6.8283	5.3577	7.8997	3.5209	3.9004	1.7763	-1.8072	-5.8852	-6.5823	-2.9051	0.0915	0.2729	3.1105	3.8352	9.4954	1.2288	2.1789	3.7301	1.8188	-0.1096	2.9731	1.5705	0.9345	1.7953	-1.2267	-0.5505	-0.0444	0.8763	2.6278	3.0708
687.5	7.4535	6.1661	8.2229	4.2833	4.4745	1.9973	-1.8146	-6.0528	-6.7437	-3.2863	-0.1648	0.2994	3.264	4.3414	9.999	2.0574	2.6462	3.7024	2.3934	0.7207	3.6244	1.9517	1.0893	2.0385	-1.225	-0.4965	0.095	0.945	2.7581	3.1309
691.4062	7.7696	6.6508	8.3191	4.7768	4.8273	2.0578	-1.7287	-6.0732	-6.705	-3.4923	-0.2999	0.3841	3.3993	4.7026	10.1805	2.4996	2.714	3.5701	2.7348	1.2198	4.026	2.1725	1.1864	2.316	-1.1061	-0.3332	0.3228	1.1101	2.692	3.0782
695.3125	7.6879	6.6914	8.1438	4.8799	4.8501	1.8977	-1.6175	-5.9706	-6.4936	-3.5424	-0.3248	0.4999	3.4484	4.8165	9.9801	2.4474	2.3604	3.3315	2.7717	1.2682	4.0636	2.158	1.1807	2.555	-0.8916	-0.0797	0.5919	1.3427	2.4213	2.9231
699.2188	7.1772	6.2335	7.6871	4.5295	4.4907	1.4938	-1.5354	-5.7763	-6.1516	-3.4584	-0.2553	0.6228	3.3706	4.6306	9.3803	1.8668	1.6241	2.9823	2.476	0.8155	3.6849	1.8696	1.0346	2.6888	-0.6283	0.2199	0.8474	1.5977	1.9649	2.6784
703.125	6.2761	5.3051	6.9793	3.7388	3.7683	0.8685	-1.5084	-5.5217	-5.7259	-3.253	-0.1026	0.7424	3.1678	4.1584	8.4182	0.8092	0.5971	2.5225	1.8699	-0.1043	2.9164	1.3179	0.729	2.6769	-0.377	0.5065	1.0419	1.8272	1.3677	2.3566
707.0312	5.0911	4.0163	6.09	2.5986	2.7721	0.0883	-1.5279	-5.2319	-5.2591	-2.9262	0.1329	0.8689	2.8879	3.4797	7.1859	-0.5932	-0.5921	1.9644	1.0226	-1.3739	1.863	0.5638	0.271	2.5178	-0.1971	0.7224	1.1496	1.9948	0.6938	1.9715
710.9375	3.7787	2.5384	5.1178	1.2623	1.644	-0.748	-1.5559	-4.9242	-4.7838	-2.4677	0.4605	1.0325	2.6135	2.7234	5.8199	-2.1499	-1.7995	1.3389	0.0396	-2.8139	0.6881	-0.2905	-0.3039	2.2512	-0.1306	0.8273	1.1745	2.0882	0.0162	1.5391
714.8438	2.5154	1.0703	4.1732	-0.0848	0.5478	-1.5296	-1.5394	-4.6086	-4.3217	-1.8681	0.8919	1.2753	2.4387	2.0369	4.4785	-3.6477	-2.8869	0.6963	-0.9551	-4.2183	-0.4212	-1.1215	-0.9357	1.9478	-0.1906	0.8106	1.1489	2.1237	-0.5954	1.0809
718.75	1.4633	-0.2002	3.3582	-1.2621	-0.365	-2.1563	-1.4289	-4.2923	-3.8863	-1.1315	1.4307	1.6371	2.442	1.5502	3.3146	-4.8892	-3.7392	0.0999	-1.8396	-5.3953	-1.2956	-1.8101	-1.5504	1.6897	-0.3587	0.6946	1.1232	2.1411	-1.0857	0.624
722.6562	0.7404	-1.1311	2.7482	-2.1284	-0.986	-2.5599	-1.1973	-3.9839	-3.4883	-0.2874	2.0614	2.139	2.661	1.3437	2.4484	-5.7279	-4.2755	-0.3842	-2.5128	-6.2042	-1.8203	-2.2664	-2.0737	1.5472	-0.5899	0.5277	1.1489	2.1911	-1.4203	0.2013
726.5625	0.4007	-1.6483	2.3801	-2.6069	-1.2697	-2.7154	-0.8513	-3.6968	-3.1408	0.6044	2.7437	2.7698	3.0787	1.43	1.9483	-6.0911	-4.4567	-0.7005	-2.91	-6.5798	-1.9579	-2.4485	-2.445	1.5576	-0.8274	0.3685	1.2603	2.317	-1.5871	-0.1518
730.4688	0.4292	-1.752	2.2502	-2.6939	-1.2376	-2.6438	-0.4343	-3.45	-2.8626	1.4561	3.4123	3.4784	3.6235	1.7517	1.8231	-5.9871	-4.288	-0.8156	-3.0117	-6.5388	-1.7528	-2.371	-2.6299	1.7128	-1.0186	0.2675	1.4597	2.5376	-1.5937	-0.4021
734.375	0.7518	-1.5077	2.3209	-2.4525	-0.9678	-2.4038	-0.0196	-3.2667	-2.6779	2.1639	3.9852	4.1766	4.1835	2.1972	2.026	-5.4969	-3.817	-0.727	-2.8459	-6.1683	-1.3162	-2.101	-2.6279	1.9593	-1.1309	0.2502	1.7118	2.8362	-1.4607	-0.5243
738.2812	1.2565	-1.0249	2.5337	-1.9931	-0.5738	-2.0759	0.3062	-3.1697	-2.6115	2.6255	4.3769	4.7527	4.6316	2.629	2.4685	-4.7537	-3.1263	-0.4654	-2.481	-5.6013	-0.7959	-1.7435	-2.4724	2.2098	-1.1605	0.3085	1.9484	3.1594	-1.2158	-0.5068
742.1875	1.8192	-0.4298	2.8252	-1.4468	-0.178	-1.7447	0.4626	-3.1767	-2.6825	2.761	4.5157	5.0931	4.8558	2.9172	3.0419	-3.9127	-2.32	-0.0894	-2.0123	-4.9846	-0.3406	-1.4176	-2.224	2.3651	-1.1318	0.4024	2.0839	3.4279	-0.888	-0.3548
746.0938	2.3318	0.1623	3.1424	-0.9375	0.114	-1.4812	0.3946	-3.2946	-2.8964	2.531	4.359	5.1067	4.7854	2.9702	3.6406	-3.1207	-1.507	0.3281	-1.5419	-4.4466	-0.0648	-1.2299	-1.9562	2.3389	-1.0889	0.4718	2.0369	3.5555	-0.5046	-0.0894
750	2.7231	0.6689	3.4531	-0.5573	0.2327	-1.3304	0.0861	-3.5159	-3.2411	1.9467	3.9032	4.7472	4.4084	2.7548	4.1851	-2.4869	-0.7819	0.7185	-1.1573	-4.0718	-0.0252	-1.25	-1.7378	2.0812	-1.0813	0.4551	1.7524	3.4713	-0.089	0.2572
753.9062	2.9711	1.0538	3.7502	-0.3507	0.1549	-1.306	-0.4374	-3.819	-3.687	1.0705	3.1855	4.0257	3.7745	2.3013	4.6368	-2.0638	-0.2074	1.0354	-0.9116	-3.8861	-0.2127	-1.4943	-1.6156	1.5923	-1.1486	0.3072	1.2189	3.1397	0.3402	0.6501
757.8125	3.1023	1.3279	4.0471	-0.3112	-0.0976	-1.3924	-1.1145	-4.1711	-4.1914	0.0056	2.2777	3.0134	2.9837	1.6926	5.0017	-1.841	0.1973	1.2642	-0.8121	-3.8574	-0.5603	-1.9224	-1.6035	0.9245	-1.3098	0.0142	0.4757	2.5732	0.7689	1.0589
761.7188	3.1795	1.5392	4.3665	-0.3887	-0.4678	-1.5529	-1.8623	-4.534	-4.7052	-1.1212	1.2752	1.8315	2.1642	1.0413	5.3219	-1.7527	0.4598	1.4219	-0.8194	-3.9083	-0.9647	-2.446	-1.6795	0.1726	-1.5573	-0.4007	-0.3907	1.8345	1.1853	1.4622
765.625	3.2814	1.7553	4.7251	-0.5064	-0.88	-1.7413	-2.5939	-4.8701	-5.1798	-2.1802	0.2832	0.6352	1.4458	0.4627	5.6568	-1.6968	0.6458	1.5468	-0.8576	-3.9382	-1.3143	-2.9484	-1.793	-0.5449	-1.8584	-0.8802	-1.2599	1.029	1.5787	1.8475
769.5312	3.48	2.0436	5.1204	-0.5812	-1.2562	-1.9132	-3.2338	-5.1491	-5.5729	-3.057	-0.5954	-0.4094	0.9361	0.0502	6.0617	-1.561	0.8421	1.6839	-0.8324	-3.8479	-1.5145	-3.3082	-1.8772	-1.1075	-2.1626	-1.3435	-1.9973	0.2882	1.9368	2.2084
773.4375	3.823	2.4548	5.5248	-0.5426	-1.5313	-2.0349	-3.7287	-5.3508	-5.8515	-3.6669	-1.2713	-1.1487	0.7044	-0.1408	6.57	-1.2473	1.1343	1.871	-0.6525	-3.5602	-1.5065	-3.4221	-1.8657	-1.4135	-2.4119	-1.7029	-2.4776	-0.2527	2.2463	2.54
777.3438	4.3246	3.0132	5.8886	-0.3459	-1.6628	-2.088	-4.053	-5.4671	-5.995	-3.963	-1.6781	-1.4639	0.7751	-0.0973	7.1853	-0.6906	1.5878	2.1305	-0.248	-3.0329	-1.2732	-3.2225	-1.7058	-1.396	-2.5534	-1.8811	-2.6054	-0.4787	2.4937	2.8367
781.25	4.9684	3.7169	6.1537	0.0242	-1.6338	-2.069	-4.2074	-5.5011	-5.9966	-3.9385	-1.7804	-1.2897	1.1316	0.157	7.8851	0.1333	2.2368	2.4663	0.4181	-2.2611	-0.8351	-2.6853	-1.3682	-1.0311	-2.5499	-1.8269	-2.3318	-0.3166	2.6689	3.0922
785.1562	5.7183	4.5439	6.2734	0.5554	-1.4526	-1.9864	-4.215	-5.465	-5.8645	-3.6244	-1.5804	-0.6257	1.7255	0.5743	8.6335	1.2096	3.0821	2.8684	1.346	-1.2717	-0.2376	-1.8308	-0.8503	-0.3397	-2.3878	-1.5254	-1.6627	0.2507	2.769	3.3029
789.0625	6.5325	5.4622	6.2307	1.2159	-1.1478	-1.8564	-4.1144	-5.3777	-5.6223	-3.0837	-1.1206	0.4619	2.4888	1.0961	9.3968	2.4932	4.0978	3.3191	2.5017	-0.1128	0.4636	-0.7169	-0.1751	0.6185	-2.0794	-1.0005	-0.6567	1.18	2.8012	3.4715
792.9688	7.3757	6.4371	6.0477	1.9624	-0.7615	-1.6984	-3.9525	-5.2616	-5.307	-2.401	-0.4798	1.849	3.3464	1.6656	10.1546	3.9201	5.2388	3.8	3.8235	1.156	1.2145	0.5722	0.6148	1.7552	-1.6606	-0.3099	0.5847	2.3743	2.7846	3.6095
796.875	8.2231	7.4364	5.7821	2.7478	-0.3417	-1.5315	-3.7767	-5.1393	-4.964	-1.6706	0.2389	3.3741	4.2256	2.2351	10.9025	5.4166	6.4488	4.2955	5.2315	2.4715	1.9703	1.9381	1.4642	2.9673	-1.1833	0.4662	1.9345	3.701	2.7464	3.7366
