time,FP1,F3,F7,FC3,C3,C5,P3,P7,PO7,PO3,O1,Oz,Pz,CPz,FP2,Fz,F4,F8,FC4,FCz,Cz,C4,C6,P4,P8,PO8,PO4,O2,HEOG_left,HEOG_right
-199.2188,-1.2895,-0.4561,-0.1346,0.1216,-0.341,-0.097,0.1385,-0.1506,0.0363,0.0592,0.1302,-0.1904,-0.1371,-0.3189,-0.5798,-0.6847,-0.4093,-0.1767,-0.3817,-0.5643,-0.5021,-0.2862,-0.0468,-0.1128,0.0522,0.0658,-0.1303,0.1471,-0.1848,-0.0987
-195.3125,-1.0363,-0.5498,-0.1764,-0.0059,-0.4268,-0.1716,0.0234,-0.1178,-0.005,-0.0587,0.0734,-0.2043,-0.276,-0.4895,-0.6649,-0.781,-0.4679,-0.185,-0.4278,-0.6608,-0.6184,-0.3702,-0.1219,-0.2432,-0.0609,-0.0066,-0.1139,0.063,-0.2501,-0.189
-191.4062,-0.8087,-0.6369,-0.2144,-0.1233,-0.5054,-0.2415,-0.0804,-0.0857,-0.0408,-0.1606,0.0243,-0.2116,-0.4034,-0.6484,-0.7394,-0.8695,-0.5207,-0.1903,-0.4698,-0.751,-0.7284,-0.4484,-0.1868,-0.3571,-0.1607,-0.0694,-0.098,-0.0142,-0.3057,-0.2622
-187.5,-0.6273,-0.7053,-0.2429,-0.2176,-0.5671,-0.2984,-0.1618,-0.053,-0.0648,-0.2316,-0.0096,-0.205,-0.5063,-0.7823,-0.7928,-0.9387,-0.5592,-0.1892,-0.5003,-0.8252,-0.8217,-0.5122,-0.2313,-0.4388,-0.234,-0.1134,-0.0808,-0.0768,-0.3423,-0.3025
-183.5938,-0.5052,-0.7474,-0.2589,-0.2816,-0.6075,-0.3387,-0.2162,-0.0217,-0.0759,-0.2645,-0.0247,-0.1817,-0.5763,-0.8819,-0.8173,-0.9814,-0.5789,-0.1803,-0.5159,-0.8774,-0.8913,-0.5561,-0.2507,-0.4796,-0.2735,-0.1335,-0.0609,-0.1201,-0.3543,-0.3002
-179.6875,-0.4454,-0.7615,-0.263,-0.3154,-0.6277,-0.3633,-0.2458,0.0036,-0.0774,-0.2603,-0.0224,-0.1439,-0.6109,-0.9431,-0.8089,-0.9958,-0.5803,-0.1642,-0.5172,-0.9055,-0.9341,-0.5789,-0.2467,-0.4791,-0.2791,-0.1296,-0.0376,-0.1424,-0.3408,-0.2541
-175.7812,-0.4403,-0.7514,-0.2582,-0.3249,-0.6327,-0.377,-0.2581,0.017,-0.0757,-0.2272,-0.0077,-0.097,-0.6127,-0.9662,-0.7673,-0.9848,-0.5683,-0.1438,-0.5087,-0.9116,-0.9506,-0.5831,-0.2269,-0.4444,-0.2577,-0.1068,-0.0113,-0.1445,-0.3053,-0.1712
-171.875,-0.4727,-0.7241,-0.2486,-0.3196,-0.6294,-0.3856,-0.2629,0.0132,-0.0777,-0.1769,0.0125,-0.0487,-0.5879,-0.9551,-0.696,-0.9544,-0.5499,-0.1229,-0.4966,-0.8997,-0.9439,-0.5734,-0.2019,-0.3873,-0.2201,-0.0733,0.0168,-0.1295,-0.2548,-0.0652
-167.9688,-0.5201,-0.6875,-0.2387,-0.3089,-0.6234,-0.3937,-0.2688,-0.0098,-0.0882,-0.1221,0.0317,-0.0059,-0.5439,-0.9145,-0.6019,-0.9108,-0.5314,-0.1053,-0.4857,-0.8735,-0.9175,-0.5544,-0.1818,-0.3207,-0.1784,-0.0384,0.0449,-0.1013,-0.1971,0.047
-164.0625,-0.559,-0.6463,-0.2306,-0.2991,-0.6166,-0.4021,-0.2802,-0.05,-0.1088,-0.073,0.0449,0.027,-0.4872,-0.8492,-0.4948,-0.8578,-0.515,-0.0933,-0.477,-0.8343,-0.8734,-0.5287,-0.1731,-0.2551,-0.1423,-0.0098,0.0707,-0.064,-0.1388,0.1493
-160.1562,-0.5697,-0.6008,-0.2236,-0.2909,-0.6062,-0.4079,-0.2964,-0.1013,-0.1374,-0.0358,0.0497,0.0489,-0.4225,-0.7627,-0.3856,-0.7949,-0.4977,-0.0863,-0.4663,-0.78,-0.8114,-0.4958,-0.1761,-0.1963,-0.1164,0.0079,0.0923,-0.0211,-0.0835,0.2298
-156.25,-0.5394,-0.5469,-0.2133,-0.2802,-0.5858,-0.405,-0.3119,-0.1548,-0.1693,-0.0121,0.046,0.0626,-0.3519,-0.6574,-0.2842,-0.7178,-0.472,-0.0815,-0.4453,-0.706,-0.7298,-0.4525,-0.1852,-0.1451,-0.1002,0.014,0.1086,0.0245,-0.0312,0.2834
-152.3438,-0.4644,-0.479,-0.1928,-0.2598,-0.548,-0.3869,-0.3191,-0.2006,-0.1986,0,0.0358,0.0725,-0.2765,-0.5354,-0.198,-0.6209,-0.4283,-0.0742,-0.4046,-0.6077,-0.6267,-0.3948,-0.1908,-0.0983,-0.0889,0.0119,0.1192,0.0709,0.0207,0.3117
-148.4375,-0.3491,-0.3932,-0.1548,-0.2233,-0.487,-0.349,-0.3103,-0.2303,-0.2199,0.0046,0.0219,0.084,-0.197,-0.4003,-0.1302,-0.5008,-0.3594,-0.0597,-0.3373,-0.4837,-0.503,-0.3202,-0.1829,-0.0512,-0.0758,0.0073,0.1245,0.1166,0.0756,0.322
-144.5312,-0.2046,-0.29,-0.0946,-0.167,-0.4016,-0.29,-0.2809,-0.2382,-0.2286,0.0069,0.0077,0.1006,-0.1156,-0.2574,-0.0794,-0.3587,-0.2635,-0.0347,-0.2425,-0.3372,-0.3634,-0.2299,-0.1536,-0.0002,-0.055,0.0067,0.1256,0.1602,0.1359,0.3245
-140.625,-0.0468,-0.1737,-0.0115,-0.0916,-0.2953,-0.2123,-0.2303,-0.2216,-0.2217,0.0115,-0.0037,0.1235,-0.0356,-0.1147,-0.0404,-0.2012,-0.1459,0.0018,-0.1262,-0.1772,-0.2166,-0.1295,-0.1004,0.0555,-0.0231,0.0152,0.1236,0.2,0.2017,0.3297
-136.7188,0.1066,-0.0516,0.0895,-0.0017,-0.176,-0.1209,-0.1619,-0.1812,-0.1977,0.022,-0.01,0.1508,0.0379,0.0187,-0.0057,-0.0394,-0.0178,0.0479,-0.0009,-0.0162,-0.0746,-0.0283,-0.0267,0.113,0.0195,0.0355,0.1189,0.2332,0.2702,0.3458
-132.8125,0.2383,0.0681,0.1989,0.0955,-0.0541,-0.0225,-0.0827,-0.1203,-0.1565,0.0395,-0.0094,0.1777,0.0995,0.133,0.0325,0.1134,0.1058,0.099,0.1174,0.1318,0.0498,0.0621,0.0585,0.1659,0.0686,0.0668,0.1107,0.2561,0.336,0.3765
-128.9062,0.3341,0.178,0.3044,0.191,0.059,0.076,-0.0019,-0.0441,-0.1002,0.0628,-0.0017,0.1977,0.1441,0.2197,0.0794,0.2446,0.2098,0.1485,0.2124,0.2536,0.1451,0.1307,0.1426,0.2057,0.1167,0.1043,0.0962,0.264,0.392,0.4205
-125,0.3857,0.2718,0.3928,0.2752,0.1531,0.1678,0.0707,0.0402,-0.0324,0.0879,0.0121,0.2037,0.1673,0.2726,0.1357,0.3433,0.2813,0.189,0.271,0.3391,0.2028,0.1687,0.2121,0.2234,0.1546,0.1403,0.0712,0.2523,0.4313,0.4712
-121.0938,0.3919,0.3442,0.4531,0.3387,0.2203,0.2466,0.1258,0.1244,0.041,0.1089,0.0293,0.1898,0.1665,0.2891,0.1969,0.4026,0.3124,0.2137,0.2858,0.3823,0.2187,0.1716,0.2551,0.2122,0.1732,0.1657,0.0307,0.2175,0.4486,0.5186
-117.1875,0.3589,0.3908,0.4786,0.3737,0.2559,0.307,0.1563,0.1998,0.1128,0.1191,0.0468,0.1531,0.1416,0.2707,0.2538,0.4194,0.301,0.2183,0.2569,0.3819,0.1937,0.14,0.264,0.169,0.1655,0.1719,-0.0289,0.1586,0.4414,0.5513
-113.2812,0.2994,0.4079,0.4681,0.3752,0.2594,0.3452,0.1585,0.2589,0.1749,0.113,0.0608,0.0944,0.0948,0.2226,0.2948,0.3947,0.2508,0.2023,0.1908,0.3409,0.1331,0.0795,0.2366,0.0958,0.1279,0.153,-0.1089,0.0778,0.4109,0.5597
-109.375,0.2298,0.394,0.4257,0.3425,0.2346,0.3593,0.1326,0.2961,0.2203,0.0873,0.0682,0.0185,0.0308,0.1532,0.309,0.3334,0.1705,0.1691,0.0995,0.2664,0.0467,-0.0003,0.1765,-0.0011,0.0617,0.1067,-0.2062,-0.0195,0.3617,0.5379
-105.4688,0.1677,0.3503,0.3603,0.2795,0.1887,0.3502,0.0838,0.3091,0.2436,0.0424,0.0669,-0.0667,-0.0432,0.073,0.2901,0.2442,0.0719,0.1248,-0.0024,0.1689,-0.0532,-0.0879,0.0923,-0.1115,-0.028,0.0352,-0.314,-0.1256,0.3004,0.486
-101.5625,0.1282,0.2822,0.2839,0.1952,0.1322,0.3216,0.0209,0.2995,0.243,-0.0172,0.0563,-0.1514,-0.1183,-0.007,0.2387,0.1386,-0.0316,0.0767,-0.1,0.0609,-0.1531,-0.1705,-0.0041,-0.2233,-0.132,-0.0551,-0.4218,-0.2315,0.2351,0.4101
-97.6562,0.1216,0.1994,0.2091,0.1026,0.077,0.2801,-0.0437,0.2725,0.2207,-0.083,0.0382,-0.2253,-0.1839,-0.0755,0.1637,0.0307,-0.126,0.0314,-0.1799,-0.0433,-0.2391,-0.2367,-0.0992,-0.3234,-0.2384,-0.1544,-0.5174,-0.328,0.1733,0.321
-93.75,0.1506,0.1152,0.147,0.016,0.0348,0.2339,-0.0965,0.2364,0.1829,-0.1439,0.0158,-0.2794,-0.2289,-0.1229,0.0809,-0.0643,-0.199,-0.0066,-0.2315,-0.1293,-0.299,-0.2764,-0.1795,-0.3996,-0.334,-0.2511,-0.588,-0.4064,0.1207,0.2315
-89.8438,0.2095,0.0445,0.1048,-0.0507,0.0153,0.1913,-0.1254,0.2006,0.1385,-0.1882,-0.0061,-0.307,-0.2427,-0.1413,0.0094,-0.1318,-0.2402,-0.0353,-0.2482,-0.1837,-0.3228,-0.2827,-0.2333,-0.441,-0.4055,-0.3326,-0.6229,-0.4594,0.081,0.1528
-85.9375,0.2851,0.0007,0.0839,-0.087,0.0245,0.1592,-0.1213,0.173,0.0978,-0.2053,-0.0223,-0.3043,-0.2173,-0.1255,-0.0329,-0.1598,-0.2432,-0.0546,-0.2271,-0.1963,-0.3036,-0.2517,-0.2523,-0.4401,-0.4412,-0.3874,-0.615,-0.4813,0.055,0.0917
-82.0312,0.36,-0.0067,0.0803,-0.0882,0.0642,0.1413,-0.0811,0.1589,0.0697,-0.1886,-0.0282,-0.271,-0.1486,-0.0733,-0.0342,-0.141,-0.2063,-0.0655,-0.1696,-0.1612,-0.2389,-0.1835,-0.2327,-0.3929,-0.4327,-0.4063,-0.5617,-0.4682,0.0413,0.0491
-78.125,0.4178,0.025,0.0855,-0.0554,0.131,0.1381,-0.0075,0.1592,0.0599,-0.1367,-0.0208,-0.2097,-0.0382,0.0137,0.0083,-0.0752,-0.1327,-0.0691,-0.0808,-0.079,-0.1305,-0.0819,-0.1759,-0.3003,-0.3766,-0.3846,-0.4655,-0.4191,0.0367,0.02
-74.2188,0.4469,0.0917,0.0897,0.0038,0.2175,0.1464,0.0907,0.1706,0.07,-0.0542,0.0005,-0.1265,0.1062,0.1301,0.0872,0.0313,-0.0304,-0.0652,0.031,0.0433,0.0146,0.0457,-0.0881,-0.1684,-0.2753,-0.3224,-0.3339,-0.3362,0.0378,-0.0037
-70.3125,0.4441,0.1829,0.0851,0.0777,0.3135,0.1607,0.2004,0.1867,0.0971,0.0491,0.0334,-0.0302,0.2709,0.2669,0.1877,0.1657,0.089,-0.0518,0.1554,0.1931,0.1853,0.1888,0.0203,-0.0085,-0.1381,-0.2254,-0.1782,-0.2256,0.042,-0.0306
-66.4062,0.4141,0.2838,0.0679,0.1527,0.4074,0.175,0.3069,0.1995,0.1339,0.1593,0.073,0.0683,0.4376,0.4118,0.2916,0.3123,0.2128,-0.0264,0.2809,0.3539,0.3667,0.3347,0.136,0.1637,0.0205,-0.1047,-0.0127,-0.0975,0.0477,-0.0667
-62.5,0.3678,0.3789,0.0396,0.2158,0.4881,0.1838,0.3957,0.2011,0.1707,0.2611,0.1121,0.1569,0.5863,0.5508,0.3819,0.4544,0.3283,0.0126,0.3962,0.5084,0.543,0.4701,0.2445,0.3299,0.182,0.0252,0.1469,0.0347,0.0541,-0.1135
-58.5938,0.3183,0.4544,0.005,0.2575,0.5469,0.183,0.4551,0.185,0.197,0.3394,0.1418,0.2241,0.6985,0.6697,0.4465,0.5776,0.4249,0.0639,0.4911,0.6408,0.6989,0.5819,0.3321,0.4719,0.3267,0.1479,0.2852,0.1559,0.0607,-0.1684
-54.6875,0.2772,0.5012,-0.0298,0.2721,0.5776,0.1705,0.4777,0.1479,0.2035,0.3824,0.1538,0.2611,0.7599,0.7563,0.4802,0.6716,0.4952,0.1216,0.5569,0.7388,0.8218,0.6596,0.3879,0.5741,0.4374,0.2483,0.3891,0.2515,0.0655,-0.2258
-50.7812,0.2514,0.5158,-0.0593,0.259,0.5781,0.1464,0.4611,0.0897,0.1844,0.3836,0.1414,0.2638,0.7635,0.8022,0.4847,0.731,0.535,0.176,0.5882,0.7953,0.9037,0.696,0.4049,0.6264,0.5022,0.3149,0.4494,0.3106,0.0653,-0.2791
-46.875,0.2419,0.5008,-0.0803,0.2219,0.5497,0.1129,0.4087,0.0145,0.1386,0.3427,0.1021,0.2336,0.7105,0.8043,0.4674,0.7553,0.5441,0.216,0.5828,0.8087,0.9418,0.6893,0.3816,0.6261,0.516,0.342,0.4625,0.3279,0.0557,-0.3227
-42.9688,0.2446,0.463,-0.0919,0.1675,0.4978,0.0744,0.3287,-0.0701,0.0706,0.2664,0.0384,0.1778,0.6104,0.7653,0.4384,0.748,0.5254,0.2323,0.5428,0.7827,0.9385,0.6427,0.3219,0.578,0.4818,0.3299,0.4312,0.3052,0.0327,-0.353
-39.0625,0.2528,0.4115,-0.0955,0.104,0.4308,0.0365,0.2331,-0.1539,-0.0097,0.1674,-0.0418,0.1081,0.4788,0.6936,0.4076,0.7159,0.4847,0.2195,0.4743,0.7251,0.9009,0.5648,0.2352,0.4932,0.4091,0.285,0.3646,0.2506,-0.0058,-0.3699
-35.1562,0.2589,0.3552,-0.0936,0.0393,0.3586,0.0053,0.1356,-0.2257,-0.0888,0.062,-0.1259,0.0384,0.335,0.6014,0.3811,0.6672,0.43,0.1783,0.3878,0.6464,0.839,0.468,0.1344,0.3872,0.3128,0.218,0.2765,0.1775,-0.059,-0.376
-31.25,0.2562,0.301,-0.0896,-0.0198,0.2915,-0.0143,0.0492,-0.2758,-0.1521,-0.0324,-0.1998,-0.0186,0.1984,0.5022,0.3606,0.6102,0.3705,0.1149,0.296,0.5579,0.7637,0.3668,0.0341,0.2768,0.2096,0.142,0.1835,0.1012,-0.1225,-0.377
-27.3438,0.2391,0.253,-0.0875,-0.0686,0.238,-0.0198,-0.0159,-0.2976,-0.1871,-0.1015,-0.2502,-0.0534,0.0854,0.409,0.3429,0.5526,0.3154,0.0393,0.2128,0.4704,0.6858,0.2756,-0.0516,0.1773,0.116,0.0696,0.1017,0.0356,-0.1901,-0.3799
-23.4375,0.203,0.2124,-0.0908,-0.105,0.2032,-0.0122,-0.0547,-0.29,-0.1868,-0.1363,-0.2678,-0.0622,0.0067,0.3315,0.3215,0.5001,0.2726,-0.0369,0.1501,0.3923,0.6142,0.2062,-0.1116,0.1004,0.0453,0.0115,0.0446,-0.0087,-0.2551,-0.3927
-19.5312,0.1444,0.1779,-0.1032,-0.1295,0.1883,0.004,-0.0674,-0.2568,-0.1506,-0.1347,-0.2496,-0.047,-0.0334,0.2756,0.2891,0.4556,0.2472,-0.1038,0.115,0.3292,0.5551,0.1658,-0.1401,0.0523,0.0056,-0.0257,0.0206,-0.0269,-0.3124,-0.4225
-15.625,0.0623,0.1466,-0.127,-0.1447,0.1903,0.0219,-0.0595,-0.2067,-0.0852,-0.1017,-0.1991,-0.0142,-0.0371,0.2425,0.2401,0.4193,0.2405,-0.1541,0.1092,0.2834,0.5118,0.1564,-0.1372,0.0341,-0.0008,-0.0395,0.0324,-0.0196,-0.3593,-0.4738
-11.7188,-0.0407,0.1157,-0.1627,-0.1546,0.204,0.0347,-0.0387,-0.1501,-0.0021,-0.0466,-0.1247,0.0275,-0.0109,0.2307,0.1735,0.3897,0.25,-0.184,0.1286,0.2552,0.4856,0.1747,-0.1073,0.0429,0.0232,-0.0309,0.0775,0.0085,-0.3957,-0.5472
-7.8125,-0.1557,0.0842,-0.2072,-0.1626,0.2232,0.0384,-0.0128,-0.0967,0.0854,0.0197,-0.0375,0.0705,0.0374,0.2377,0.0944,0.3651,0.2716,-0.1919,0.166,0.2437,0.4766,0.2148,-0.0576,0.0738,0.072,-0.0027,0.1502,0.0512,-0.4221,-0.6377
-3.9062,-0.2683,0.0539,-0.2532,-0.1707,0.2435,0.0336,0.0125,-0.0528,0.1653,0.0883,0.0519,0.1101,0.1009,0.2615,0.0141,0.3454,0.3014,-0.1775,0.2143,0.2484,0.4847,0.2703,0.0057,0.1222,0.1388,0.0421,0.2439,0.103,-0.4384,-0.735
0,-0.3605,0.0295,-0.2905,-0.1782,0.2626,0.0257,0.0351,-0.0206,0.2293,0.1537,0.1353,0.146,0.175,0.3014,-0.0527,0.3326,0.3369,-0.1418,0.2682,0.2695,0.5099,0.3361,0.0785,0.1847,0.2179,0.1011,0.3519,0.1605,-0.4425,-0.8246
3.9062,-0.4141,0.0174,-0.3078,-0.1827,0.2804,0.0228,0.0555,0.0015,0.2737,0.2139,0.2077,0.1809,0.2572,0.357,-0.091,0.3299,0.3778,-0.0866,0.3256,0.3068,0.5513,0.4085,0.1587,0.2584,0.3047,0.1729,0.4681,0.2224,-0.4312,-0.8907
7.8125,-0.4161,0.0237,-0.2965,-0.1807,0.2987,0.0324,0.0758,0.017,0.2989,0.2692,0.2668,0.2191,0.3454,0.4272,-0.0893,0.3408,0.4249,-0.0151,0.3863,0.3592,0.6065,0.4848,0.2452,0.3402,0.395,0.2552,0.5862,0.2882,-0.4005,-0.9201
11.7188,-0.361,0.053,-0.2523,-0.1684,0.3201,0.0592,0.0987,0.0297,0.3081,0.321,0.3123,0.2645,0.437,0.5085,-0.0423,0.3684,0.4794,0.0688,0.4513,0.4237,0.6717,0.5622,0.336,0.4252,0.4848,0.3447,0.7,0.3568,-0.3481,-0.9044
15.625,-0.2531,0.1082,-0.1763,-0.1413,0.348,0.1045,0.1265,0.0426,0.3067,0.3703,0.3458,0.319,0.5284,0.5957,0.0486,0.4146,0.5431,0.1611,0.5221,0.4974,0.7428,0.6381,0.4277,0.5075,0.5695,0.4358,0.8031,0.4258,-0.2732,-0.8416
19.5312,-0.1047,0.1906,-0.074,-0.0945,0.3867,0.166,0.1616,0.0577,0.3014,0.4179,0.3698,0.3819,0.6155,0.6831,0.1768,0.4814,0.6181,0.2584,0.6006,0.5782,0.817,0.7102,0.5154,0.5813,0.6448,0.5218,0.8907,0.4914,-0.178,-0.7358
23.4375,0.0668,0.3003,0.0478,-0.0229,0.4407,0.2398,0.2064,0.076,0.2994,0.465,0.3882,0.451,0.6953,0.7657,0.332,0.5706,0.7074,0.3581,0.689,0.6666,0.8945,0.7781,0.5945,0.6425,0.7076,0.5963,0.9606,0.5495,-0.0675,-0.5958
27.3438,0.2431,0.4357,0.1828,0.0773,0.5141,0.3215,0.2628,0.0982,0.3083,0.5129,0.406,0.523,0.7665,0.8411,0.503,0.6835,0.8138,0.4574,0.7894,0.7656,0.9783,0.8424,0.6612,0.69,0.757,0.6543,1.0132,0.5971,0.0513,-0.4332
31.25,0.4083,0.5931,0.3256,0.2068,0.6087,0.4067,0.3313,0.1246,0.3341,0.5638,0.4282,0.5949,0.83,0.9088,0.6785,0.8193,0.9388,0.5541,0.9025,0.8784,1.0724,0.9044,0.7135,0.7254,0.7933,0.6935,1.0511,0.6328,0.1703,-0.2604
35.1562,0.5522,0.7652,0.4716,0.3609,0.7226,0.4907,0.4094,0.1544,0.3804,0.6191,0.4588,0.6637,0.8875,0.9691,0.8483,0.9734,1.0805,0.6455,1.0254,1.006,1.1792,0.9643,0.7501,0.7512,0.8183,0.7142,1.0773,0.6572,0.2813,-0.0893
39.0625,0.6714,0.9412,0.6144,0.5285,0.8488,0.5684,0.4908,0.1856,0.4465,0.6785,0.499,0.7265,0.94,1.0216,1.0034,1.1366,1.2326,0.7295,1.1513,1.1444,1.2967,1.0198,0.7701,0.7695,0.8328,0.7186,1.0935,0.6715,0.3776,0.0696
42.9688,0.7687,1.1082,0.7458,0.6939,0.976,0.6338,0.566,0.2137,0.5268,0.7389,0.5464,0.7799,0.9868,1.0642,1.137,1.2956,1.3849,0.8043,1.2693,1.2842,1.417,1.0658,0.7728,0.7804,0.837,0.7094,1.0992,0.6768,0.4557,0.208
46.875,0.8521,1.2538,0.8561,0.84,1.0906,0.6811,0.6238,0.2334,0.6114,0.7946,0.5945,0.8201,1.0251,1.0938,1.2449,1.4365,1.5257,0.8697,1.367,1.4129,1.5287,1.0965,0.758,0.7824,0.8302,0.6897,1.0921,0.6731,0.5152,0.3215
50.7812,0.9313,1.3692,0.9367,0.9525,1.1805,0.7063,0.6551,0.2385,0.6875,0.8383,0.6347,0.8435,1.0512,1.1078,1.3267,1.5473,1.6452,0.9263,1.4341,1.5179,1.6189,1.107,0.7274,0.7733,0.8117,0.6626,1.0697,0.6595,0.5597,0.4091
54.6875,1.0138,1.451,0.9822,1.0237,1.2373,0.7083,0.655,0.2247,0.7429,0.8634,0.658,0.8475,1.0625,1.1057,1.3857,1.6213,1.7374,0.9755,1.4652,1.5902,1.6779,1.0961,0.6852,0.7521,0.7828,0.6312,1.0311,0.6349,0.595,0.4734
58.5938,1.1022,1.5009,0.9918,1.0533,1.258,0.6886,0.6246,0.1902,0.7678,0.8657,0.6576,0.8315,1.0578,1.0899,1.4273,1.6573,1.8013,1.0175,1.4607,1.6263,1.7005,1.0665,0.6382,0.7203,0.7464,0.5989,0.9778,0.5991,0.6269,0.5191
62.5,1.1921,1.5239,0.9689,1.0468,1.2442,0.651,0.5698,0.1365,0.7577,0.8442,0.6307,0.7973,1.0387,1.0646,1.4572,1.6581,1.839,1.05,1.4261,1.6274,1.687,1.0241,0.5941,0.6815,0.7077,0.5694,0.9143,0.5537,0.6593,0.5511
66.4062,1.273,1.5246,0.9193,1.012,1.2003,0.5992,0.4996,0.0682,0.7135,0.8017,0.5792,0.7492,1.0077,1.0341,1.4784,1.6276,1.8526,1.0672,1.3693,1.5977,1.6412,0.9753,0.5597,0.641,0.6723,0.5464,0.8465,0.5023,0.692,0.5732
70.3125,1.3306,1.5043,0.849,0.9555,1.1306,0.5352,0.4232,-0.0082,0.6413,0.743,0.509,0.6927,0.9676,1.0005,1.4891,1.5681,1.8418,1.0604,1.297,1.5407,1.5685,0.9251,0.5381,0.6036,0.6443,0.532,0.7801,0.4501,0.72,0.5858
74.2188,1.3501,1.4595,0.7627,0.8798,1.0383,0.4592,0.3471,-0.0857,0.5504,0.6738,0.4281,0.6339,0.9199,0.9629,1.4815,1.4784,1.8018,1.0202,1.2128,1.4585,1.4732,0.8743,0.5278,0.5723,0.6254,0.527,0.7189,0.4026,0.735,0.5861
78.125,1.3198,1.3823,0.6628,0.7832,0.9252,0.3699,0.2745,-0.1581,0.4512,0.5995,0.3451,0.5782,0.8646,0.9173,1.4439,1.3546,1.7246,0.9393,1.1165,1.3504,1.3579,0.8205,0.5225,0.5472,0.6135,0.5297,0.6638,0.3646,0.7272,0.5686
82.0312,1.234,1.2638,0.5505,0.6616,0.7921,0.2661,0.2052,-0.2208,0.3533,0.5244,0.2667,0.5298,0.8004,0.8586,1.3639,1.1924,1.6018,0.8159,1.0053,1.215,1.2244,0.7587,0.5132,0.5259,0.6041,0.5362,0.6133,0.3392,0.6879,0.5269
85.9375,1.0945,1.0973,0.427,0.5108,0.6408,0.149,0.1372,-0.271,0.2643,0.4518,0.1974,0.4914,0.7261,0.782,1.233,0.99,1.4284,0.655,0.8764,1.052,1.0738,0.6837,0.4905,0.5045,0.5909,0.5418,0.5644,0.3267,0.6127,0.4562
89.8438,0.9099,0.8831,0.2951,0.3302,0.4753,0.0231,0.0682,-0.3075,0.1886,0.3843,0.1391,0.4643,0.6419,0.6855,1.0503,0.7509,1.2059,0.468,0.7289,0.8637,0.9087,0.5915,0.4467,0.4785,0.5679,0.5416,0.5141,0.3248,0.502,0.3555
93.75,0.695,0.6306,0.1597,0.1248,0.3024,-0.1031,-0.0022,-0.3305,0.1284,0.3245,0.0919,0.4481,0.5501,0.5703,0.8244,0.4848,0.9441,0.2707,0.5651,0.6564,0.7333,0.4815,0.3778,0.4444,0.5308,0.5314,0.4606,0.3294,0.3616,0.229
97.6562,0.4682,0.3582,0.0283,-0.0933,0.1328,-0.2182,-0.0724,-0.3405,0.0835,0.2751,0.0549,0.4416,0.4554,0.4418,0.5733,0.2078,0.6609,0.0806,0.3922,0.441,0.5545,0.357,0.2853,0.4008,0.4786,0.5094,0.4041,0.3358,0.2022,0.0865
101.5625,0.25,0.092,-0.0894,-0.3063,-0.0208,-0.3095,-0.1384,-0.3386,0.0525,0.2383,0.0272,0.4427,0.3649,0.309,0.3221,-0.059,0.3805,-0.0858,0.2217,0.2323,0.3821,0.2259,0.1767,0.3491,0.4139,0.4758,0.3468,0.3399,0.0382,-0.0577
105.4688,0.0606,-0.1394,-0.1822,-0.4926,-0.144,-0.3657,-0.1951,-0.3257,0.0335,0.2154,0.0077,0.4481,0.2861,0.1834,0.0989,-0.2923,0.1305,-0.2147,0.0689,0.0483,0.2286,0.1003,0.0649,0.2933,0.3426,0.4333,0.2919,0.3386,-0.1131,-0.1866
109.375,-0.0823,-0.31,-0.24,-0.6312,-0.2243,-0.3789,-0.2377,-0.3034,0.0236,0.2055,-0.005,0.4537,0.2257,0.0772,-0.0693,-0.4698,-0.0625,-0.2964,-0.0494,-0.093,0.1072,-0.0055,-0.034,0.2393,0.2724,0.3856,0.2422,0.33,-0.2336,-0.2825
113.2812,-0.1659,-0.4006,-0.2549,-0.7048,-0.2532,-0.3458,-0.2633,-0.2744,0.0193,0.2047,-0.0139,0.4535,0.1876,0.0003,-0.1617,-0.5743,-0.1773,-0.3257,-0.118,-0.1764,0.0297,-0.0776,-0.1039,0.1926,0.2106,0.3365,0.1986,0.3129,-0.3065,-0.3306
117.1875,-0.1839,-0.4026,-0.2235,-0.7039,-0.2283,-0.2687,-0.2725,-0.2422,0.0162,0.2064,-0.0241,0.441,0.1713,-0.0411,-0.1673,-0.5972,-0.2022,-0.3018,-0.1271,-0.1931,0.0038,-0.1061,-0.1331,0.1563,0.162,0.2882,0.1588,0.2856,-0.3195,-0.3211
121.0938,-0.1378,-0.3183,-0.1468,-0.6281,-0.1539,-0.154,-0.2688,-0.2107,0.0092,0.202,-0.0425,0.4092,0.1719,-0.0466,-0.0877,-0.54,-0.1375,-0.2278,-0.0747,-0.1427,0.0308,-0.088,-0.1172,0.1299,0.1271,0.2406,0.1177,0.2458,-0.2676,-0.2514
125,-0.0358,-0.16,-0.0297,-0.4862,-0.0406,-0.0114,-0.2584,-0.1839,-0.0064,0.1836,-0.076,0.3527,0.181,-0.0219,0.0641,-0.4145,0.0044,-0.1102,0.0321,-0.0337,0.1048,-0.0282,-0.0604,0.1091,0.1016,0.1909,0.0679,0.1906,-0.155,-0.127
128.9062,0.1083,0.0529,0.1191,-0.2948,0.0972,0.1488,-0.2478,-0.164,-0.0336,0.145,-0.13,0.2686,0.1886,0.0232,0.2654,-0.2407,0.2012,0.0427,0.1776,0.1175,0.2131,0.0606,0.025,0.0871,0.0778,0.1342,0.0026,0.1173,0.005,0.0393
132.8125,0.2775,0.2971,0.2886,-0.0755,0.2435,0.3166,-0.2426,-0.1515,-0.0727,0.0845,-0.2063,0.1587,0.1855,0.076,0.4892,-0.043,0.4245,0.2203,0.3411,0.2898,0.3385,0.1604,0.1217,0.0566,0.0465,0.0656,-0.0819,0.0247,0.1915,0.2295
136.7188,0.4536,0.5485,0.4658,0.1489,0.3836,0.4837,-0.2455,-0.1445,-0.1207,0.0047,-0.302,0.029,0.1655,0.1241,0.7083,0.1532,0.6448,0.4106,0.4998,0.4606,0.4619,0.2521,0.2118,0.0123,0.0005,-0.0177,-0.1847,-0.0856,0.3796,0.4232
140.625,0.6192,0.7851,0.6377,0.3571,0.5061,0.6432,-0.2561,-0.1394,-0.1716,-0.0874,-0.4097,-0.1101,0.1266,0.1574,0.8997,0.3257,0.8363,0.6004,0.6339,0.6096,0.5662,0.3192,0.2804,-0.0467,-0.0633,-0.1145,-0.2986,-0.2083,0.5444,0.601
144.5312,0.759,0.9894,0.7921,0.5328,0.604,0.7891,-0.2708,-0.1321,-0.2176,-0.1819,-0.5181,-0.2453,0.0723,0.1707,1.0476,0.4586,0.9811,0.7762,0.7298,0.7223,0.639,0.3514,0.319,-0.1168,-0.1415,-0.2187,-0.4116,-0.3342,0.6656,0.7466
148.4375,0.8614,1.1502,0.9194,0.6661,0.6748,0.9161,-0.2841,-0.119,-0.2512,-0.2678,-0.6145,-0.3617,0.01,0.1641,1.1442,0.5441,1.0715,0.9254,0.7825,0.7916,0.6753,0.3466,0.3269,-0.1896,-0.225,-0.3191,-0.5087,-0.4512,0.7305,0.849
152.3438,0.9201,1.2632,1.0135,0.7543,0.7206,1.0191,-0.2901,-0.0981,-0.2661,-0.3347,-0.6864,-0.4454,-0.0496,0.1434,1.1903,0.5838,1.1098,1.0373,0.7957,0.8194,0.6785,0.3113,0.3108,-0.254,-0.3003,-0.4021,-0.5749,-0.5456,0.7366,0.9037
156.25,0.9352,1.3302,1.0717,0.8007,0.7464,1.0937,-0.2837,-0.0695,-0.2592,-0.3746,-0.7238,-0.485,-0.0945,0.1188,1.194,0.587,1.1071,1.1053,0.7804,0.8148,0.6591,0.2588,0.2826,-0.2985,-0.3524,-0.4536,-0.5985,-0.6047,0.6914,0.9122
160.1562,0.9144,1.3579,1.0949,0.8136,0.7588,1.1363,-0.2619,-0.0358,-0.231,-0.3833,-0.7211,-0.4742,-0.1142,0.1025,1.1686,0.5683,1.0789,1.127,0.7516,0.7921,0.6324,0.2059,0.2563,-0.3132,-0.3685,-0.4627,-0.5735,-0.6186,0.6105,0.8816
164.0625,0.8717,1.3554,1.0862,0.8033,0.764,1.1446,-0.2247,-0.0022,-0.1858,-0.3608,-0.6785,-0.4131,-0.101,0.1063,1.13,0.544,1.0411,1.1054,0.724,0.7671,0.6146,0.1693,0.244,-0.2925,-0.3406,-0.4238,-0.5005,-0.5827,0.5139,0.8233
167.9688,0.8248,1.3328,1.0507,0.7801,0.7669,1.1181,-0.1753,0.0245,-0.1314,-0.3117,-0.602,-0.3088,-0.0518,0.1381,1.0937,0.528,1.0062,1.0484,0.7087,0.7533,0.619,0.1615,0.2534,-0.2359,-0.2679,-0.338,-0.3866,-0.4982,0.4219,0.7504
171.875,0.7915,1.2985,0.994,0.7525,0.7698,1.0578,-0.1195,0.0366,-0.0771,-0.2441,-0.5024,-0.1745,0.0311,0.2007,1.0722,0.5293,0.9815,0.9673,0.7114,0.7592,0.6526,0.1886,0.2864,-0.148,-0.1564,-0.2128,-0.2436,-0.3729,0.3507,0.6759
175.7812,0.7856,1.2589,0.9224,0.7252,0.7724,0.9664,-0.0645,0.0271,-0.0329,-0.1685,-0.393,-0.0269,0.1405,0.2906,1.0734,0.5508,0.969,0.8757,0.7321,0.7869,0.7151,0.2494,0.3393,-0.0371,-0.0174,-0.0607,-0.085,-0.2196,0.3097,0.611
179.6875,0.8138,1.2169,0.8421,0.6993,0.7719,0.8481,-0.0175,-0.0084,-0.0065,-0.0953,-0.2876,0.1162,0.2654,0.3989,1.0997,0.5889,0.9662,0.7867,0.766,0.8321,0.7989,0.3367,0.4047,0.087,0.1349,0.104,0.0766,-0.0541,0.3008,0.5629
183.5938,0.8747,1.1724,0.7593,0.6717,0.7635,0.7084,0.016,-0.0705,-0.0024,-0.0337,-0.1971,0.2398,0.3933,0.5126,1.148,0.6355,0.9685,0.7111,0.8056,0.8854,0.8911,0.4395,0.4739,0.2146,0.2865,0.2677,0.2317,0.1074,0.3188,0.5345
187.5,0.9588,1.1225,0.6793,0.6367,0.7422,0.5543,0.0326,-0.155,-0.0208,0.0103,-0.1284,0.3332,0.5118,0.6177,1.2108,0.6798,0.9713,0.6558,0.8434,0.9353,0.9764,0.5455,0.5395,0.3378,0.4263,0.4197,0.375,0.2507,0.3534,0.5237
191.4062,1.0509,1.064,0.6066,0.588,0.7036,0.3939,0.032,-0.254,-0.0578,0.0336,-0.0838,0.3911,0.6107,0.7017,1.278,0.7112,0.9703,0.6227,0.8732,0.9705,1.0406,0.6431,0.5963,0.4506,0.5466,0.5529,0.5045,0.3653,0.3922,0.5241
195.3125,1.1323,0.9943,0.5447,0.5208,0.6455,0.2361,0.0159,-0.3574,-0.1066,0.036,-0.0617,0.4134,0.6825,0.7551,1.3377,0.7208,0.9632,0.609,0.8908,0.9826,1.0728,0.7228,0.6419,0.5486,0.6436,0.6636,0.6198,0.4452,0.4224,0.5266
199.2188,1.1853,0.9134,0.4957,0.4338,0.5691,0.0897,-0.0124,-0.4547,-0.1597,0.0192,-0.0578,0.4037,0.7233,0.7736,1.379,0.7037,0.9486,0.6075,0.8942,0.9678,1.0681,0.7776,0.6757,0.628,0.7158,0.7503,0.7197,0.4887,0.434,0.5215
203.125,1.1966,0.8245,0.4609,0.3303,0.4791,-0.0367,-0.0486,-0.5369,-0.2095,-0.0137,-0.0666,0.3679,0.7326,0.758,1.3929,0.6591,0.9262,0.6094,0.8832,0.9281,1.0281,0.804,0.6987,0.6856,0.764,0.8129,0.8018,0.4978,0.4215,0.5018
207.0312,1.1598,0.7341,0.4409,0.2184,0.3838,-0.1356,-0.0875,-0.5969,-0.2493,-0.0582,-0.0823,0.3128,0.7136,0.7149,1.3741,0.5914,0.8975,0.6065,0.8595,0.8706,0.9609,0.8024,0.7131,0.7196,0.7901,0.8521,0.8618,0.4777,0.3856,0.4648
210.9375,1.0762,0.6514,0.4353,0.1096,0.294,-0.2008,-0.123,-0.63,-0.2732,-0.1086,-0.0996,0.2452,0.6726,0.6551,1.3217,0.5093,0.8658,0.5943,0.8268,0.8064,0.8795,0.7778,0.7226,0.7308,0.7974,0.8691,0.895,0.4354,0.3337,0.4139
214.8438,0.9539,0.5864,0.4438,0.0169,0.2208,-0.2284,-0.1491,-0.6336,-0.2773,-0.1588,-0.1141,0.1716,0.6182,0.5916,1.2401,0.4245,0.8366,0.5734,0.7908,0.7483,0.7994,0.7391,0.7323,0.7226,0.7901,0.8652,0.8974,0.3788,0.2786,0.3583
218.75,0.8063,0.5483,0.4655,-0.0481,0.1736,-0.2167,-0.1607,-0.6076,-0.2593,-0.2023,-0.1227,0.097,0.5597,0.537,1.1377,0.3494,0.8172,0.5493,0.7582,0.7078,0.7353,0.6978,0.7477,0.7008,0.7725,0.842,0.8668,0.3152,0.2362,0.3107
222.6562,0.6492,0.5429,0.4997,-0.0774,0.1585,-0.1672,-0.1545,-0.5551,-0.22,-0.2343,-0.1239,0.0255,0.5053,0.5008,1.0267,0.2943,0.8153,0.5305,0.7351,0.6922,0.6975,0.6644,0.7732,0.6718,0.7479,0.8007,0.8027,0.2504,0.2217,0.2853
226.5625,0.4988,0.5722,0.5455,-0.0681,0.1764,-0.0847,-0.1304,-0.4818,-0.1634,-0.2519,-0.1182,-0.0402,0.4607,0.487,0.9204,0.2655,0.8362,0.5256,0.7256,0.703,0.6897,0.6462,0.8103,0.6405,0.7179,0.7425,0.707,0.1878,0.2463,0.2944
230.4688,0.368,0.6332,0.6012,-0.0232,0.2239,0.0237,-0.0916,-0.3958,-0.0966,-0.2547,-0.1075,-0.0986,0.4283,0.4939,0.8307,0.2634,0.881,0.5403,0.7299,0.735,0.7087,0.6445,0.8559,0.6086,0.6817,0.6684,0.583,0.1286,0.3136,0.3458
234.375,0.2653,0.7188,0.6637,0.0491,0.2929,0.1485,-0.0442,-0.3069,-0.0288,-0.2453,-0.0951,-0.149,0.4067,0.5142,0.7652,0.2824,0.9452,0.5755,0.7436,0.7779,0.7447,0.6543,0.9024,0.5741,0.6366,0.5794,0.435,0.0717,0.4191,0.4409
238.2812,0.1936,0.8187,0.729,0.1374,0.3735,0.2796,0.004,-0.2249,0.03,-0.2285,-0.0854,-0.1915,0.3916,0.5376,0.725,0.3123,1.0188,0.6274,0.7589,0.8185,0.7842,0.6652,0.9387,0.5318,0.5789,0.4772,0.2689,0.0148,0.5504,0.5729
242.1875,0.1511,0.922,0.7931,0.2294,0.4554,0.4072,0.0454,-0.1577,0.0716,-0.21,-0.0824,-0.2268,0.3772,0.5538,0.7045,0.3409,1.0888,0.6895,0.7664,0.8443,0.8133,0.6651,0.9533,0.4754,0.5056,0.3647,0.0914,-0.0442,0.6897,0.7286
246.0938,0.1323,1.0188,0.853,0.3147,0.5304,0.5236,0.0748,-0.1102,0.0909,-0.1951,-0.0894,-0.2559,0.3583,0.5554,0.6939,0.3579,1.1423,0.7546,0.7584,0.8467,0.8219,0.644,0.9378,0.4007,0.4165,0.2465,-0.089,-0.1063,0.8176,0.8893
250,0.1291,1.1024,0.9084,0.3872,0.5948,0.6244,0.0907,-0.0835,0.0875,-0.187,-0.107,-0.2798,0.3325,0.541,0.6829,0.3583,1.171,0.8173,0.7325,0.8242,0.8068,0.5985,0.8904,0.3081,0.3154,0.1293,-0.2622,-0.1703,0.9168,1.0349
253.9062,0.1323,1.1708,0.9618,0.446,0.6494,0.7088,0.0964,-0.0743,0.0659,-0.1863,-0.1332,-0.2991,0.3018,0.5165,0.6647,0.3441,1.1733,0.875,0.6931,0.7834,0.7737,0.5343,0.8179,0.2047,0.2108,0.021,-0.4164,-0.2325,0.9753,1.1466
257.8125,0.1332,1.2263,1.0177,0.4956,0.6998,0.7798,0.0992,-0.0761,0.0343,-0.19,-0.1631,-0.3136,0.2722,0.4941,0.6385,0.3249,1.156,0.9282,0.6521,0.7385,0.7365,0.4657,0.7353,0.1037,0.1153,-0.0697,-0.5392,-0.2868,0.9887,1.2105
261.7188,0.1253,1.2751,1.0807,0.5442,0.7542,0.8427,0.1087,-0.0805,0.0028,-0.1925,-0.1902,-0.3224,0.2535,0.4899,0.6093,0.3149,1.1327,0.9792,0.6266,0.7077,0.714,0.4134,0.6634,0.0226,0.0438,-0.1342,-0.6187,-0.3261,0.9607,1.2197
265.625,0.1052,1.3245,1.154,0.6012,0.8208,0.9036,0.1339,-0.0789,-0.019,-0.1869,-0.2073,-0.3238,0.2559,0.5191,0.5849,0.3295,1.1207,1.0313,0.6346,0.7094,0.7254,0.399,0.6245,-0.0207,0.0107,-0.1651,-0.6455,-0.3434,0.9021,1.1756
269.5312,0.0726,1.3804,1.237,0.6733,0.9045,0.9673,0.1808,-0.0649,-0.0238,-0.1666,-0.2091,-0.3157,0.2872,0.5921,0.5726,0.3797,1.1359,1.087,0.6901,0.7563,0.7844,0.4395,0.6367,-0.0122,0.0271,-0.1574,-0.6153,-0.3334,0.8283,1.0864
273.4375,0.03,1.4442,1.3239,0.7613,1.004,1.0344,0.2501,-0.0357,-0.0087,-0.1279,-0.1929,-0.2964,0.3501,0.7099,0.575,0.4682,1.1879,1.1469,0.7984,0.8512,0.894,0.5418,0.7092,0.0543,0.0976,-0.1093,-0.5301,-0.2936,0.7557,0.965
277.3438,-0.0191,1.5108,1.4034,0.8578,1.1099,1.1002,0.3357,0.0065,0.0245,-0.0707,-0.1599,-0.2657,0.4395,0.862,0.5876,0.5864,1.2759,1.2077,0.952,0.984,1.044,0.6992,0.8386,0.1742,0.2185,-0.0235,-0.3997,-0.2259,0.6976,0.8251
281.25,-0.0712,1.5683,1.4588,0.9475,1.206,1.1543,0.4256,0.0548,0.069,-0.0006,-0.1156,-0.2257,0.5428,1.0276,0.599,0.7149,1.3868,1.2603,1.131,1.1328,1.2116,0.8915,1.0086,0.3315,0.377,0.0925,-0.2409,-0.136,0.6605,0.6785
285.1562,-0.1248,1.5996,1.4709,1.0093,1.2711,1.1819,0.5039,0.0983,0.1148,0.0727,-0.0685,-0.1817,0.6416,1.1787,0.5934,0.8264,1.497,1.2904,1.3055,1.2672,1.3652,1.0878,1.1915,0.5017,0.5532,0.227,-0.0758,-0.0342,0.6423,0.5328
289.0625,-0.182,1.5865,1.4222,1.0208,1.2842,1.1671,0.5538,0.125,0.1504,0.1367,-0.0291,-0.1416,0.7152,1.2856,0.5539,0.8914,1.577,1.28,1.4409,1.3543,1.4708,1.2528,1.3543,0.6565,0.7232,0.3661,0.072,0.0671,0.6323,0.3905
292.9688,-0.2491,1.5135,1.3011,0.9635,1.2291,1.0968,0.5618,0.1246,0.1655,0.1786,-0.0071,-0.1145,0.745,1.3237,0.4678,0.8843,1.5972,1.212,1.5053,1.3656,1.4998,1.3536,1.4643,0.7694,0.8641,0.4955,0.1812,0.1549,0.6138,0.2502
296.875,-0.3354,1.372,1.1051,0.8279,1.0988,0.9647,0.5211,0.0909,0.1534,0.1888,-0.0096,-0.1087,0.7187,1.2787,0.3294,0.789,1.5353,1.0753,1.4761,1.2836,1.4355,1.3668,1.4962,0.8215,0.9581,0.6034,0.2369,0.2183,0.5687,0.1083
300.7812,-0.4507,1.163,0.8429,0.6159,0.8979,0.7739,0.4331,0.0244,0.1128,0.1636,-0.0389,-0.1296,0.6336,1.1496,0.1421,0.6029,1.3814,0.8693,1.3451,1.1052,1.2767,1.2832,1.4375,0.8059,0.9956,0.6822,0.2334,0.2506,0.482,-0.0383
304.6875,-0.6016,0.8979,0.5332,0.342,0.6427,0.5378,0.3082,-0.0676,0.0487,0.106,-0.0919,-0.1775,0.4978,0.9498,-0.0824,0.338,1.1412,0.6062,1.1204,0.8428,1.0385,1.1089,1.2904,0.728,0.9773,0.7298,0.1754,0.251,0.347,-0.1905
308.5938,-0.7881,0.597,0.2026,0.0309,0.3587,0.2781,0.164,-0.1718,-0.0287,0.0261,-0.1598,-0.2478,0.3288,0.7036,-0.3255,0.0182,0.8352,0.3089,0.8252,0.5221,0.7489,0.8645,1.0714,0.6047,0.9127,0.7489,0.0763,0.2246,0.1668,-0.3451
312.5,-1.0022,0.2861,-0.1181,-0.2872,0.0757,0.0211,0.0216,-0.2712,-0.1059,-0.061,-0.23,-0.3315,0.1499,0.4415,-0.5653,-0.3248,0.4958,0.0072,0.4927,0.1762,0.4422,0.5792,0.8074,0.4593,0.8175,0.7462,-0.0446,0.1813,-0.045,-0.4947
316.4062,-1.2283,-0.0073,-0.3985,-0.582,-0.1774,-0.2074,-0.0984,-0.3485,-0.1684,-0.1384,-0.2888,-0.4177,-0.0143,0.1939,-0.7802,-0.6582,0.1605,-0.2692,0.1596,-0.1607,0.152,0.2852,0.5298,0.316,0.7096,0.7299,-0.1663,0.1329,-0.2676,-0.6284
320.3125,-1.4455,-0.2586,-0.6132,-0.828,-0.378,-0.3865,-0.18,-0.3898,-0.2042,-0.1907,-0.3242,-0.4961,-0.1436,-0.0147,-0.9524,-0.9537,-0.1346,-0.4958,-0.1406,-0.4594,-0.0953,0.0109,0.2673,0.194,0.6044,0.7072,-0.2707,0.0906,-0.4772,-0.7336
324.2188,-1.632,-0.4493,-0.7462,-1.0084,-0.513,-0.5035,-0.2148,-0.3871,-0.2059,-0.208,-0.3287,-0.5588,-0.2258,-0.1696,-1.0701,-1.1918,-0.3617,-0.6579,-0.3838,-0.7,-0.2845,-0.2241,0.0412,0.1042,0.5118,0.6828,-0.3455,0.0618,-0.6512,-0.7993
328.125,-1.769,-0.5692,-0.7928,-1.117,-0.5799,-0.5551,-0.2028,-0.3404,-0.172,-0.1876,-0.3011,-0.6023,-0.2584,-0.2667,-1.1296,-1.3632,-0.5045,-0.7513,-0.5576,-0.8729,-0.4119,-0.4104,-0.1376,0.0475,0.4353,0.6574,-0.3865,0.0487,-0.7723,-0.8179
332.0312,-1.8435,-0.6174,-0.7605,-1.1569,-0.5862,-0.5467,-0.1517,-0.2575,-0.1073,-0.1344,-0.2469,-0.6268,-0.2481,-0.3115,-1.1339,-1.4677,-0.5603,-0.7809,-0.6606,-0.9778,-0.4829,-0.5484,-0.2682,0.0169,0.3723,0.6283,-0.3973,0.048,-0.8304,-0.7875
335.9375,-1.8508,-0.6009,-0.6661,-1.1389,-0.5461,-0.49,-0.0747,-0.1524,-0.0217,-0.0601,-0.1769,-0.6359,-0.2078,-0.3155,-1.0917,-1.5118,-0.5381,-0.7588,-0.7007,-1.0211,-0.5086,-0.6449,-0.3569,0.0009,0.3164,0.5909,-0.3873,0.0523,-0.8234,-0.7113
339.8438,-1.7935,-0.5336,-0.5326,-1.0791,-0.478,-0.401,0.0128,-0.043,0.0717,0.0201,-0.1047,-0.6347,-0.1535,-0.2927,-1.0148,-1.5061,-0.456,-0.7002,-0.691,-1.0133,-0.5015,-0.71,-0.4139,-0.0131,0.2601,0.5401,-0.3699,0.0529,-0.7562,-0.5977
343.75,-1.6809,-0.4336,-0.3845,-0.9958,-0.4008,-0.2966,0.0959,0.0529,0.1589,0.0904,-0.0441,-0.6288,-0.1008,-0.2571,-0.9151,-1.4628,-0.3371,-0.6208,-0.6471,-0.967,-0.4733,-0.754,-0.4501,-0.0353,0.1972,0.4724,-0.3585,0.0417,-0.6398,-0.4584
347.6562,-1.5275,-0.3209,-0.244,-0.9074,-0.3312,-0.193,0.1625,0.1204,0.228,0.1374,-0.0061,-0.6229,-0.0618,-0.2202,-0.8031,-1.3949,-0.2062,-0.534,-0.5845,-0.8952,-0.4333,-0.7854,-0.4745,-0.0714,0.124,0.3872,-0.3642,0.0137,-0.4893,-0.3073
351.5625,-1.3505,-0.2138,-0.1276,-0.8294,-0.2814,-0.1029,0.206,0.1512,0.2711,0.1537,0.0036,-0.6202,-0.0439,-0.1901,-0.6867,-1.3147,-0.0857,-0.4498,-0.5173,-0.8105,-0.3883,-0.81,-0.4934,-0.1224,0.0406,0.2874,-0.3925,-0.0314,-0.3225,-0.1586
355.4688,-1.169,-0.1257,-0.0435,-0.7721,-0.2571,-0.0339,0.2254,0.1448,0.2862,0.1385,-0.0148,-0.6216,-0.0486,-0.171,-0.5703,-1.2329,0.0073,-0.3737,-0.4561,-0.7239,-0.343,-0.8305,-0.5093,-0.1838,-0.0488,0.1799,-0.4429,-0.0898,-0.158,-0.0253
359.375,-1.0021,-0.0633,0.0083,-0.7388,-0.2572,0.0119,0.2252,0.1088,0.2767,0.098,-0.0555,-0.6261,-0.0719,-0.1634,-0.4572,-1.1575,0.0633,-0.3074,-0.4077,-0.6436,-0.3002,-0.8465,-0.5218,-0.2477,-0.1368,0.0745,-0.5084,-0.1536,-0.0137,0.0822
363.2812,-0.8675,-0.0258,0.0346,-0.7262,-0.2746,0.0377,0.2132,0.0564,0.2503,0.0428,-0.1088,-0.6316,-0.1061,-0.165,-0.351,-1.0934,0.0813,-0.2509,-0.3744,-0.5749,-0.2614,-0.8557,-0.5282,-0.3047,-0.2141,-0.0177,-0.5782,-0.2139,0.0952,0.1564
367.1875,-0.7789,-0.0072,0.0453,-0.7259,-0.2994,0.0499,0.1978,0.002,0.2161,-0.0155,-0.1646,-0.6363,-0.1428,-0.1724,-0.2573,-1.0422,0.0672,-0.2035,-0.3551,-0.5204,-0.228,-0.8547,-0.5256,-0.3461,-0.2713,-0.0867,-0.6406,-0.2628,0.1573,0.1934
371.0938,-0.7443,0.0014,0.0503,-0.7282,-0.3216,0.0556,0.185,-0.0422,0.1818,-0.0673,-0.2146,-0.639,-0.1748,-0.1824,-0.1839,-1.0034,0.0319,-0.1655,-0.346,-0.4809,-0.2012,-0.8415,-0.5118,-0.3662,-0.3016,-0.1252,-0.6862,-0.2954,0.1671,0.1926
375,-0.764,0.0083,0.0564,-0.7248,-0.3342,0.0608,0.177,-0.0694,0.1521,-0.1074,-0.2546,-0.6399,-0.1984,-0.1935,-0.1386,-0.9745,-0.012,-0.1373,-0.3418,-0.4556,-0.1825,-0.8153,-0.4862,-0.3633,-0.3015,-0.13,-0.7096,-0.3107,0.1256,0.1568
378.9062,-0.8311,0.0197,0.0657,-0.7112,-0.3344,0.0687,0.1719,-0.0794,0.1276,-0.1357,-0.2848,-0.6399,-0.2137,-0.2056,-0.1261,-0.9517,-0.0521,-0.1194,-0.3372,-0.443,-0.1734,-0.7774,-0.4495,-0.3396,-0.2714,-0.1018,-0.7106,-0.3111,0.0412,0.0924
382.8125,-0.9327,0.0374,0.0756,-0.6879,-0.3242,0.0792,0.1648,-0.0773,0.1057,-0.156,-0.3083,-0.6396,-0.2234,-0.22,-0.1459,-0.9312,-0.0791,-0.1115,-0.3275,-0.4417,-0.1749,-0.7309,-0.404,-0.3004,-0.2155,-0.0449,-0.6939,-0.301,-0.0719,0.0079
386.7188,-1.0519,0.0594,0.0805,-0.6604,-0.3093,0.0894,0.15,-0.0718,0.0815,-0.1742,-0.3299,-0.6391,-0.2321,-0.2389,-0.1916,-0.9099,-0.0885,-0.1118,-0.31,-0.4502,-0.1882,-0.6802,-0.3529,-0.2531,-0.1411,0.0335,-0.6672,-0.2853,-0.196,-0.0861
390.625,-1.1704,0.0797,0.0736,-0.6379,-0.2983,0.0938,0.1226,-0.0722,0.0501,-0.1964,-0.3538,-0.6373,-0.2439,-0.2645,-0.2527,-0.8873,-0.0806,-0.118,-0.2854,-0.4684,-0.2143,-0.6302,-0.3001,-0.2054,-0.0572,0.1248,-0.6396,-0.268,-0.3125,-0.179
394.5312,-1.2717,0.0901,0.0495,-0.6311,-0.2994,0.0866,0.0808,-0.0854,0.008,-0.2263,-0.382,-0.6324,-0.2618,-0.2987,-0.3172,-0.8657,-0.0608,-0.1277,-0.257,-0.4967,-0.2541,-0.5867,-0.2502,-0.1643,0.0267,0.2203,-0.6193,-0.2513,-0.4052,-0.2608
398.4375,-1.3432,0.0825,0.0064,-0.6497,-0.3187,0.063,0.0269,-0.1141,-0.0452,-0.2642,-0.4133,-0.6222,-0.286,-0.3419,-0.3746,-0.8496,-0.037,-0.1381,-0.2305,-0.5362,-0.3075,-0.5543,-0.2071,-0.1346,0.102,0.3119,-0.6113,-0.2353,-0.4625,-0.3226
402.3438,-1.3784,0.0514,-0.0528,-0.6987,-0.3578,0.0207,-0.0327,-0.1557,-0.1065,-0.3061,-0.4433,-0.6048,-0.3139,-0.3922,-0.4171,-0.8437,-0.017,-0.1469,-0.2117,-0.5868,-0.3724,-0.5364,-0.1737,-0.1177,0.1626,0.3934,-0.6162,-0.2183,-0.4789,-0.3576
406.25,-1.3776,-0.0036,-0.1208,-0.7768,-0.4129,-0.0385,-0.0885,-0.2035,-0.1697,-0.3451,-0.4651,-0.5791,-0.3401,-0.445,-0.4406,-0.8509,-0.0066,-0.1524,-0.2051,-0.6458,-0.4435,-0.5337,-0.1517,-0.1122,0.2052,0.4603,-0.6302,-0.1974,-0.4555,-0.3623
410.1562,-1.3479,-0.0771,-0.1883,-0.8759,-0.4752,-0.1095,-0.13,-0.2477,-0.2269,-0.3727,-0.4717,-0.5456,-0.3579,-0.4931,-0.4443,-0.87,-0.0081,-0.1542,-0.212,-0.7076,-0.5124,-0.5442,-0.1413,-0.1141,0.2298,0.5101,-0.6466,-0.1699,-0.4,-0.3377
414.0625,-1.3006,-0.1596,-0.2468,-0.9829,-0.5337,-0.1843,-0.1482,-0.2793,-0.2707,-0.3817,-0.4576,-0.5058,-0.361,-0.5287,-0.4297,-0.8964,-0.0205,-0.1543,-0.231,-0.7647,-0.5688,-0.5637,-0.1423,-0.1186,0.2381,0.5415,-0.6579,-0.134,-0.3253,-0.2902
417.9688,-1.249,-0.2398,-0.2917,-1.0836,-0.5778,-0.2545,-0.1379,-0.2916,-0.2955,-0.3681,-0.4204,-0.4623,-0.3451,-0.5449,-0.4008,-0.9234,-0.0415,-0.1571,-0.2589,-0.809,-0.6031,-0.5872,-0.1545,-0.1217,0.2333,0.5541,-0.6583,-0.0901,-0.2477,-0.232
421.875,-1.2055,-0.3081,-0.3229,-1.1661,-0.6005,-0.3134,-0.0991,-0.2825,-0.2992,-0.3326,-0.3621,-0.418,-0.3094,-0.5377,-0.3636,-0.9447,-0.0684,-0.1688,-0.2919,-0.8347,-0.6086,-0.6103,-0.1783,-0.1213,0.2183,0.5483,-0.6446,-0.0402,-0.184,-0.1784
425.7812,-1.1796,-0.3588,-0.3447,-1.2237,-0.5999,-0.3572,-0.0367,-0.2546,-0.2828,-0.28,-0.2879,-0.3755,-0.2569,-0.5072,-0.3261,-0.9564,-0.0997,-0.1956,-0.3268,-0.8401,-0.5839,-0.63,-0.2145,-0.1176,0.1954,0.5253,-0.6171,0.012,-0.148,-0.1446
429.6875,-1.1766,-0.3912,-0.3632,-1.2565,-0.5795,-0.3856,0.0411,-0.2137,-0.25,-0.2177,-0.2053,-0.3364,-0.1932,-0.4573,-0.2971,-0.9582,-0.1346,-0.2415,-0.3621,-0.8276,-0.5326,-0.6458,-0.2638,-0.1125,0.1666,0.4876,-0.5782,0.0628,-0.1476,-0.1421
433.5938,-1.1975,-0.4085,-0.384,-1.2698,-0.5465,-0.4007,0.1248,-0.1668,-0.2053,-0.1532,-0.1223,-0.3008,-0.1251,-0.3944,-0.2854,-0.953,-0.1724,-0.3062,-0.3967,-0.803,-0.4629,-0.6583,-0.3251,-0.1087,0.134,0.4393,-0.5318,0.1089,-0.1829,-0.1753
437.5,-1.239,-0.4154,-0.4095,-1.272,-0.5092,-0.406,0.2056,-0.1205,-0.1539,-0.0929,-0.0461,-0.2677,-0.0589,-0.3261,-0.2974,-0.9452,-0.2115,-0.3844,-0.4301,-0.7733,-0.3849,-0.6689,-0.3953,-0.1081,0.0999,0.3858,-0.4814,0.1482,-0.2463,-0.2403
441.4062,-1.2949,-0.4164,-0.4383,-1.2713,-0.4751,-0.4049,0.2772,-0.0792,-0.0999,-0.0403,0.0179,-0.2358,0.0005,-0.259,-0.3352,-0.9389,-0.2493,-0.4671,-0.4607,-0.7445,-0.3084,-0.6784,-0.4691,-0.1116,0.0673,0.3331,-0.4305,0.1796,-0.3254,-0.3259
445.3125,-1.3572,-0.4135,-0.4653,-1.2732,-0.4492,-0.3999,0.3355,-0.0452,-0.0476,0.0028,0.0657,-0.2046,0.0501,-0.1987,-0.3949,-0.9363,-0.2818,-0.5433,-0.4866,-0.7198,-0.2415,-0.6871,-0.54,-0.1186,0.039,0.2869,-0.3816,0.2025,-0.4054,-0.4164
449.2188,-1.4177,-0.4066,-0.4837,-1.2794,-0.4331,-0.3926,0.3788,-0.0189,-0.0008,0.0362,0.0948,-0.1753,0.0884,-0.1487,-0.4662,-0.9373,-0.3051,-0.6032,-0.5051,-0.6998,-0.1889,-0.6941,-0.6012,-0.1276,0.0174,0.2514,-0.3369,0.2157,-0.4736,-0.4956
453.125,-1.4686,-0.3943,-0.4866,-1.2886,-0.4263,-0.3839,0.4066,0.0004,0.0366,0.0601,0.1039,-0.1507,0.1149,-0.1113,-0.5345,-0.9396,-0.3161,-0.6402,-0.5141,-0.6831,-0.1531,-0.6982,-0.6473,-0.1376,0.0028,0.2282,-0.2984,0.2182,-0.521,-0.5503
457.0312,-1.5035,-0.3764,-0.4699,-1.298,-0.427,-0.3745,0.4188,0.0132,0.0604,0.0744,0.0931,-0.1346,0.1287,-0.0878,-0.5841,-0.9403,-0.3137,-0.6524,-0.513,-0.668,-0.1347,-0.6984,-0.6756,-0.1483,-0.0061,0.216,-0.2681,0.2082,-0.5443,-0.5732
460.9375,-1.5176,-0.3548,-0.4342,-1.305,-0.433,-0.3656,0.4153,0.0199,0.0677,0.0784,0.0643,-0.1306,0.1291,-0.0791,-0.6028,-0.9373,-0.2995,-0.6425,-0.5035,-0.6542,-0.1336,-0.6951,-0.6868,-0.1613,-0.0128,0.2111,-0.2482,0.1848,-0.5447,-0.5642
464.8438,-1.5077,-0.3341,-0.3845,-1.3088,-0.4424,-0.3581,0.3965,0.0206,0.0569,0.0719,0.0214,-0.1408,0.1154,-0.0856,-0.5846,-0.9306,-0.278,-0.6171,-0.4894,-0.6434,-0.1496,-0.69,-0.6848,-0.1791,-0.022,0.208,-0.2404,0.1479,-0.5277,-0.5297
468.75,-1.4737,-0.3199,-0.3297,-1.3099,-0.4532,-0.3526,0.3636,0.0161,0.0293,0.0554,-0.0296,-0.1642,0.0879,-0.1067,-0.5315,-0.9217,-0.2549,-0.584,-0.4756,-0.6391,-0.1818,-0.6861,-0.6757,-0.2048,-0.0381,0.2015,-0.2458,0.0994,-0.5008,-0.4813
472.6562,-1.4183,-0.3169,-0.2798,-1.3099,-0.4636,-0.3488,0.3196,0.0079,-0.0105,0.0311,-0.0807,-0.1969,0.0481,-0.1404,-0.4522,-0.9135,-0.2358,-0.5509,-0.4666,-0.6446,-0.228,-0.6859,-0.6659,-0.24,-0.0639,0.1873,-0.2638,0.0431,-0.4722,-0.4324
476.5625,-1.348,-0.3263,-0.2435,-1.3101,-0.4715,-0.3454,0.269,-0.0008,-0.0558,0.0031,-0.1235,-0.2323,-0.0006,-0.1827,-0.3594,-0.908,-0.2243,-0.5241,-0.464,-0.6615,-0.2834,-0.6905,-0.6602,-0.2836,-0.0996,0.164,-0.2922,-0.0157,-0.4494,-0.3958
480.4688,-1.2715,-0.3451,-0.2252,-1.3106,-0.4741,-0.3406,0.2175,-0.0064,-0.0983,-0.0236,-0.1507,-0.2626,-0.0535,-0.2275,-0.2663,-0.9049,-0.2203,-0.5071,-0.4659,-0.688,-0.3408,-0.698,-0.6599,-0.3316,-0.1415,0.1327,-0.3261,-0.0709,-0.4373,-0.3804
484.375,-1.1991,-0.3663,-0.2242,-1.3098,-0.4691,-0.3321,0.1713,-0.0051,-0.1305,-0.0436,-0.1574,-0.2811,-0.1051,-0.2679,-0.1833,-0.9008,-0.2195,-0.4999,-0.4666,-0.718,-0.3912,-0.7036,-0.662,-0.3771,-0.1835,0.0974,-0.3592,-0.1168,-0.4379,-0.3903
488.2812,-1.1394,-0.381,-0.2345,-1.3049,-0.4545,-0.3181,0.135,0.0056,-0.1474,-0.0531,-0.1428,-0.2836,-0.1502,-0.2972,-0.1169,-0.8895,-0.2146,-0.4999,-0.4579,-0.7427,-0.4252,-0.7005,-0.6601,-0.4123,-0.2178,0.0633,-0.3844,-0.1497,-0.4497,-0.4245
492.1875,-1.0982,-0.3811,-0.2472,-1.2925,-0.43,-0.2979,0.1114,0.026,-0.1471,-0.0508,-0.1101,-0.2704,-0.1854,-0.3108,-0.0684,-0.8632,-0.1976,-0.5018,-0.4317,-0.7527,-0.4359,-0.6822,-0.646,-0.4305,-0.2376,0.0355,-0.3961,-0.168,-0.4684,-0.4774
496.0938,-1.0759,-0.362,-0.2532,-1.2704,-0.3975,-0.2721,0.1003,0.0537,-0.1318,-0.0385,-0.0663,-0.246,-0.2094,-0.3073,-0.0351,-0.8156,-0.1623,-0.4991,-0.3825,-0.7405,-0.4203,-0.6448,-0.6126,-0.4285,-0.2391,0.0173,-0.3917,-0.1732,-0.4872,-0.5408
500,-1.0681,-0.324,-0.2463,-1.2381,-0.361,-0.243,0.0991,0.0841,-0.1067,-0.021,-0.0203,-0.2184,-0.2231,-0.2889,-0.0108,-0.7433,-0.1065,-0.4855,-0.3096,-0.7029,-0.3808,-0.5887,-0.5564,-0.4074,-0.2223,0.0091,-0.372,-0.169,-0.4987,-0.6058
503.9062,-1.0658,-0.2722,-0.2256,-1.1972,-0.3257,-0.2138,0.1035,0.1116,-0.0788,-0.0044,0.0185,-0.1965,-0.2297,-0.2607,0.0112,-0.6478,-0.0326,-0.4562,-0.2178,-0.6421,-0.3246,-0.519,-0.4794,-0.3725,-0.1919,0.0089,-0.3412,-0.1602,-0.4962,-0.6644
507.8125,-1.058,-0.2154,-0.1953,-1.1512,-0.2973,-0.1887,0.1093,0.13,-0.0553,0.0055,0.0427,-0.1883,-0.2326,-0.2289,0.0373,-0.5354,0.0521,-0.4093,-0.1162,-0.5651,-0.2618,-0.4443,-0.3891,-0.3319,-0.1552,0.0126,-0.3056,-0.1519,-0.475,-0.7111
511.7188,-1.0343,-0.1641,-0.1637,-1.1047,-0.2797,-0.1719,0.113,0.1351,-0.0415,0.0052,0.0484,-0.1985,-0.2347,-0.1992,0.0709,-0.4165,0.1378,-0.3464,-0.0169,-0.4823,-0.2034,-0.375,-0.2974,-0.2947,-0.1208,0.0153,-0.2715,-0.1478,-0.4339,-0.7436
515.625,-0.9873,-0.1273,-0.1401,-1.0617,-0.2745,-0.1665,0.1136,0.1249,-0.0401,-0.0052,0.0359,-0.228,-0.2369,-0.1751,0.1124,-0.3027,0.2134,-0.2721,0.0679,-0.4046,-0.1581,-0.321,-0.218,-0.2687,-0.0965,0.0133,-0.2436,-0.1499,-0.3757,-0.762
519.5312,-0.915,-0.1104,-0.1315,-1.0246,-0.2796,-0.1739,0.1124,0.1004,-0.0506,-0.0218,0.0098,-0.2738,-0.2377,-0.157,0.1586,-0.2051,0.2697,-0.1937,0.1282,-0.3415,-0.1308,-0.289,-0.1634,-0.2586,-0.0866,0.0051,-0.2242,-0.1573,-0.3071,-0.7689
523.4375,-0.8211,-0.1141,-0.1405,-0.994,-0.29,-0.1933,0.1131,0.0658,-0.0688,-0.0376,-0.0225,-0.3298,-0.2334,-0.1421,0.2049,-0.1313,0.3007,-0.1204,0.1586,-0.298,-0.1215,-0.2813,-0.1414,-0.2647,-0.0913,-0.0077,-0.2127,-0.1671,-0.238,-0.7673
527.3438,-0.7142,-0.1343,-0.1639,-0.9676,-0.2981,-0.221,0.1203,0.0279,-0.0883,-0.0441,-0.0515,-0.3878,-0.2188,-0.125,0.2469,-0.084,0.3053,-0.0619,0.1587,-0.2746,-0.1248,-0.2953,-0.1537,-0.2829,-0.1063,-0.0202,-0.2062,-0.1739,-0.1794,-0.7605
531.25,-0.6052,-0.1626,-0.1938,-0.9418,-0.2957,-0.2513,0.1393,-0.0054,-0.1014,-0.0326,-0.0674,-0.439,-0.1886,-0.0993,0.283,-0.0605,0.2875,-0.0269,0.1342,-0.2666,-0.1317,-0.3237,-0.1949,-0.3052,-0.1233,-0.0253,-0.2,-0.1713,-0.1418,-0.7508
535.1562,-0.5046,-0.1888,-0.2196,-0.9118,-0.2756,-0.2774,0.1742,-0.0265,-0.1005,0.0038,-0.0625,-0.4749,-0.1381,-0.0586,0.3144,-0.0532,0.2559,-0.021,0.0952,-0.2651,-0.1315,-0.3563,-0.2541,-0.3214,-0.1323,-0.0147,-0.1887,-0.1523,-0.1318,-0.7394
539.0625,-0.4202,-0.2026,-0.2307,-0.8729,-0.233,-0.2925,0.2273,-0.0294,-0.0803,0.0683,-0.0319,-0.4888,-0.0648,0.0017,0.3456,-0.051,0.2218,-0.0451,0.0547,-0.2599,-0.1139,-0.3811,-0.3171,-0.3212,-0.1235,0.0183,-0.1672,-0.1116,-0.1509,-0.7266
542.9688,-0.356,-0.1959,-0.2197,-0.8225,-0.168,-0.2915,0.2981,-0.0117,-0.0395,0.1591,0.0243,-0.477,0.0302,0.0827,0.3814,-0.0431,0.1969,-0.0945,0.0255,-0.2415,-0.0721,-0.3879,-0.37,-0.2968,-0.0905,0.0769,-0.1318,-0.0466,-0.1951,-0.7121
546.875,-0.3121,-0.1652,-0.1844,-0.7609,-0.0852,-0.2723,0.3826,0.0244,0.0184,0.2687,0.1003,-0.4402,0.1418,0.1806,0.4249,-0.0215,0.1896,-0.1601,0.0167,-0.2048,-0.0052,-0.3702,-0.4028,-0.2457,-0.0321,0.1589,-0.082,0.0404,-0.2561,-0.696
550.7812,-0.2857,-0.113,-0.1288,-0.6925,0.0055,-0.2374,0.4727,0.0719,0.0843,0.3837,0.1852,-0.3837,0.2606,0.2865,0.4753,0.0156,0.2027,-0.2318,0.0311,-0.1512,0.0805,-0.3275,-0.4116,-0.1718,0.0461,0.2565,-0.0212,0.1418,-0.3242,-0.6791
554.6875,-0.2733,-0.0472,-0.062,-0.6255,0.0908,-0.1935,0.557,0.1205,0.1453,0.4874,0.2642,-0.3176,0.3735,0.3874,0.5271,0.0628,0.2318,-0.3012,0.0643,-0.0891,0.1724,-0.2658,-0.3997,-0.0851,0.1327,0.3565,0.0431,0.2452,-0.391,-0.6632
558.5938,-0.2718,0.0204,0.0042,-0.5698,0.1573,-0.15,0.6234,0.1587,0.1875,0.5622,0.3218,-0.2542,0.4663,0.4688,0.5717,0.1091,0.2673,-0.363,0.106,-0.0315,0.2545,-0.1957,-0.3749,0.0005,0.2127,0.4437,0.1002,0.3354,-0.4511,-0.6505
562.5,-0.2787,0.0778,0.0596,-0.5339,0.1947,-0.1161,0.661,0.1771,0.1994,0.5941,0.3455,-0.2061,0.5271,0.5184,0.5995,0.1421,0.2977,-0.4154,0.1447,0.0081,0.3122,-0.1291,-0.3465,0.071,0.272,0.5042,0.1388,0.3978,-0.5017,-0.6427
566.4062,-0.2919,0.1165,0.0985,-0.5218,0.199,-0.0978,0.6639,0.1714,0.1753,0.5759,0.329,-0.1822,0.549,0.5297,0.603,0.1524,0.3148,-0.4576,0.1717,0.0208,0.3363,-0.0751,-0.3208,0.1162,0.3012,0.529,0.1505,0.4219,-0.5413,-0.6393
570.3125,-0.3092,0.1339,0.122,-0.5311,0.174,-0.0957,0.6326,0.1433,0.117,0.5093,0.274,-0.1861,0.5326,0.5042,0.5793,0.1379,0.3167,-0.4885,0.1848,0.0058,0.3268,-0.0371,-0.2988,0.1323,0.2981,0.5163,0.1319,0.4041,-0.5683,-0.6382
574.2188,-0.3281,0.1345,0.1367,-0.5527,0.1304,-0.1049,0.5746,0.1003,0.0338,0.4052,0.1902,-0.215,0.4856,0.4509,0.5313,0.1051,0.309,-0.5053,0.1893,-0.0284,0.2928,-0.0116,-0.2764,0.1227,0.2684,0.4718,0.0859,0.3491,-0.5806,-0.636
578.125,-0.3463,0.1284,0.1527,-0.5738,0.0837,-0.1164,0.5026,0.0531,-0.0599,0.2813,0.0931,-0.2605,0.422,0.3851,0.4675,0.0682,0.3035,-0.5043,0.1963,-0.0656,0.2506,0.0103,-0.2456,0.0965,0.2238,0.4067,0.0211,0.2679,-0.5751,-0.6297
582.0312,-0.3615,0.1287,0.1801,-0.5799,0.0505,-0.1199,0.432,0.0131,-0.1472,0.159,0.0008,-0.3108,0.3584,0.3244,0.4003,0.0453,0.3144,-0.4817,0.2194,-0.0861,0.2198,0.0402,-0.1985,0.0658,0.1787,0.3351,-0.0501,0.1764,-0.5497,-0.6173
585.9375,-0.3704,0.1487,0.2263,-0.5589,0.0453,-0.1066,0.3778,-0.0106,-0.2123,0.0593,-0.0691,-0.353,0.312,0.286,0.3431,0.0542,0.3546,-0.435,0.2705,-0.0708,0.2189,0.0893,-0.1292,0.0432,0.1473,0.2708,-0.1142,0.0916,-0.5033,-0.5982
589.8438,-0.3675,0.1985,0.2936,-0.5033,0.0782,-0.0708,0.3525,-0.0124,-0.2431,-0.0003,-0.1025,-0.3759,0.2969,0.2836,0.3085,0.1081,0.4319,-0.3645,0.3573,-0.006,0.2618,0.1655,-0.0362,0.0392,0.1403,0.2251,-0.1588,0.0287,-0.4368,-0.5726
593.75,-0.3448,0.2831,0.3787,-0.4116,0.1535,-0.0105,0.364,0.0086,-0.2335,-0.0089,-0.0915,-0.3717,0.3227,0.3253,0.306,0.2124,0.5473,-0.2729,0.481,0.1134,0.3549,0.2722,0.0779,0.061,0.1637,0.2047,-0.1749,-0.0012,-0.3524,-0.5409
597.6562,-0.2927,0.4011,0.4739,-0.2881,0.269,0.0719,0.4149,0.0491,-0.1841,0.0365,-0.0351,-0.3377,0.3927,0.4133,0.3404,0.3639,0.6948,-0.1653,0.6364,0.2833,0.4966,0.4078,0.2072,0.1113,0.2177,0.2116,-0.158,0.0073,-0.2529,-0.5027
601.5625,-0.2031,0.5453,0.5689,-0.142,0.4169,0.1711,0.502,0.1021,-0.1022,0.1305,0.06,-0.2771,0.5036,0.5429,0.4123,0.5518,0.8634,-0.0475,0.8134,0.4912,0.6775,0.5665,0.344,0.1885,0.2975,0.2429,-0.1088,0.0528,-0.1413,-0.4574
605.4688,-0.0718,0.7048,0.6547,0.0154,0.5857,0.2791,0.6173,0.1586,-0.0004,0.2605,0.181,-0.1982,0.6465,0.7045,0.5179,0.7603,1.0399,0.0759,0.9999,0.7191,0.8831,0.7399,0.4808,0.2874,0.3947,0.2917,-0.0328,0.1283,-0.02,-0.4039
609.375,0.0992,0.8685,0.7263,0.1731,0.7621,0.387,0.7495,0.2092,0.1055,0.4087,0.3107,-0.1134,0.8089,0.8853,0.6507,0.9727,1.2119,0.2026,1.1843,0.9484,1.0969,0.9189,0.6117,0.4004,0.4985,0.3486,0.0611,0.2223,0.1087,-0.3414
613.2812,0.3005,1.0274,0.7843,0.3217,0.9335,0.4864,0.8857,0.2459,0.1997,0.5557,0.431,-0.036,0.9766,1.0715,0.8022,1.1745,1.3708,0.3331,1.358,1.1631,1.3039,1.0955,0.7332,0.519,0.5986,0.4038,0.1616,0.3213,0.2424,-0.2702
617.1875,0.5164,1.1767,0.8344,0.4549,1.0894,0.5703,1.014,0.2635,0.2691,0.6839,0.5258,0.0219,1.1364,1.2503,0.9635,1.3554,1.5122,0.4682,1.5162,1.3525,1.4927,1.2633,0.844,0.6357,0.686,0.4481,0.2576,0.4124,0.3775,-0.1922
621.0938,0.7268,1.3145,0.8848,0.5686,1.2226,0.634,1.1247,0.2601,0.3052,0.7801,0.5841,0.052,1.2781,1.4118,1.1249,1.5098,1.6349,0.6073,1.6574,1.5119,1.6569,1.4175,0.9439,0.7442,0.7548,0.4753,0.3393,0.4852,0.5084,-0.1112
625,0.9102,1.4412,0.9421,0.6611,1.3291,0.6751,1.2122,0.2377,0.3063,0.8383,0.6016,0.0517,1.3955,1.5494,1.2771,1.6358,1.7396,0.7467,1.7813,1.6417,1.7943,1.5547,1.0326,0.8402,0.8026,0.4828,0.4004,0.5339,0.6279,-0.033
628.9062,1.0475,1.5567,1.0087,0.7318,1.4082,0.6941,1.2753,0.2017,0.2768,0.8603,0.582,0.0242,1.4866,1.66,1.4107,1.7343,1.8267,0.8793,1.8877,1.7451,1.9061,1.672,1.1093,0.9217,0.831,0.4724,0.439,0.5583,0.7277,0.0357
632.8125,1.1252,1.6597,1.0811,0.7817,1.462,0.6942,1.3166,0.16,0.2267,0.8548,0.5354,-0.0216,1.5535,1.7436,1.5167,1.8071,1.8959,0.9963,1.975,1.8261,1.9948,1.7672,1.1719,0.9886,0.8447,0.4499,0.4579,0.563,0.8005,0.0879
636.7188,1.1382,1.7462,1.1508,0.8122,1.4939,0.6804,1.3419,0.1215,0.1692,0.8353,0.4765,-0.0733,1.6009,1.8023,1.5877,1.8569,1.9461,1.0892,2.0408,1.888,2.063,1.8387,1.2181,1.042,0.8502,0.4237,0.4639,0.5566,0.8416,0.1179
640.625,1.0908,1.8111,1.2063,0.8254,1.5084,0.6585,1.358,0.0943,0.118,0.816,0.4215,-0.1169,1.6345,1.8391,1.6184,1.886,1.9761,1.1514,2.0829,1.9319,2.112,1.8861,1.2461,1.0839,0.8551,0.4034,0.4664,0.5496,0.8501,0.123
644.5312,0.9957,1.8486,1.2364,0.8235,1.5091,0.6341,1.3704,0.0835,0.0838,0.8084,0.3842,-0.1403,1.6594,1.8574,1.6073,1.8969,1.9859,1.1795,2.0999,1.957,2.1418,1.9103,1.2562,1.1172,0.8659,0.3975,0.4748,0.5513,0.8296,0.104
648.4375,0.8714,1.8544,1.2328,0.8091,1.4982,0.6105,1.382,0.09,0.0724,0.8178,0.373,-0.1362,1.6785,1.8601,1.5577,1.8917,1.9771,1.1734,2.0926,1.9615,2.1512,1.9138,1.2508,1.1443,0.8873,0.4119,0.4963,0.5684,0.7872,0.0654
652.3438,0.738,1.8268,1.1926,0.7842,1.4756,0.5883,1.3916,0.1099,0.0831,0.8417,0.3891,-0.1035,1.6915,1.8487,1.4775,1.872,1.9523,1.1363,2.0636,1.9428,2.1383,1.8998,1.2348,1.1668,0.9207,0.4483,0.5335,0.6025,0.7317,0.0148
656.25,0.6144,1.7666,1.1192,0.7498,1.4386,0.5642,1.394,0.1348,0.1087,0.8706,0.4259,-0.0485,1.6946,1.8232,1.378,1.8385,1.9146,1.0736,2.016,1.899,2.1011,1.8712,1.213,1.1847,0.9632,0.5036,0.5838,0.6502,0.6722,-0.0391
660.1562,0.5158,1.6775,1.0219,0.7051,1.3826,0.5313,1.3806,0.1541,0.1377,0.8902,0.4708,0.0167,1.6815,1.7818,1.2717,1.7903,1.8655,0.9927,1.9524,1.8291,2.0382,1.8297,1.1891,1.1951,1.0077,0.5697,0.6389,0.7034,0.6157,-0.088
664.0625,0.4521,1.5645,0.9129,0.6477,1.3021,0.481,1.3422,0.1569,0.1568,0.8855,0.508,0.0763,1.6447,1.7214,1.1698,1.7255,1.8047,0.9009,1.874,1.7331,1.9489,1.7749,1.1637,1.1927,1.0436,0.6353,0.6866,0.7509,0.5665,-0.1262
667.9688,0.4274,1.4331,0.8049,0.5737,1.1927,0.4049,1.271,0.1352,0.1548,0.8443,0.5224,0.1144,1.5776,1.6385,1.08,1.6412,1.73,0.8049,1.7805,1.6124,1.8339,1.7041,1.1338,1.17,1.0588,0.6871,0.7137,0.7806,0.5251,-0.1522
671.875,0.4393,1.2895,0.707,0.4795,1.0526,0.2985,1.1629,0.0858,0.1251,0.761,0.5034,0.1191,1.476,1.5302,1.0051,1.5348,1.638,0.7095,1.6707,1.4692,1.6948,1.6135,1.0937,1.1192,1.042,0.7128,0.7079,0.7823,0.4888,-0.1687
675.7812,0.4794,1.1397,0.6239,0.3636,0.8839,0.1631,1.0193,0.0111,0.0679,0.6374,0.447,0.0844,1.3395,1.3954,0.9436,1.4049,1.526,0.6167,1.5438,1.3065,1.5343,1.4987,1.0367,1.0333,0.9852,0.7033,0.661,0.7495,0.4528,-0.1818
679.6875,0.5343,0.9901,0.556,0.2281,0.6934,0.0069,0.8475,-0.0802,-0.0093,0.4829,0.3575,0.0125,1.1722,1.236,0.8908,1.2529,1.3932,0.5268,1.4005,1.1286,1.3563,1.3576,0.9575,0.9089,0.8856,0.6542,0.5697,0.6809,0.4118,-0.199
683.5938,0.5884,0.8475,0.5012,0.0796,0.4926,-0.155,0.6602,-0.1752,-0.0933,0.3135,0.2464,-0.0872,0.9829,1.0578,0.8411,1.0837,1.242,0.4394,1.2443,0.9414,1.1667,1.1917,0.8546,0.7476,0.7468,0.5667,0.437,0.5811,0.3613,-0.2262
687.5,0.6267,0.7197,0.4581,-0.0701,0.2973,-0.3035,0.4747,-0.2584,-0.1677,0.1489,0.1304,-0.1996,0.7848,0.8714,0.7901,0.9066,1.0792,0.3549,1.0819,0.7539,0.9739,1.008,0.7323,0.558,0.579,0.4484,0.2724,0.46,0.2993,-0.2658
691.4062,0.6378,0.6144,0.4269,-0.2056,0.1259,-0.418,0.3103,-0.3145,-0.2162,0.01,0.0286,-0.3066,0.595,0.6916,0.7367,0.7343,0.9155,0.2754,0.9242,0.5781,0.7899,0.8194,0.6012,0.3551,0.3983,0.3112,0.0908,0.3316,0.2269,-0.3164
695.3125,0.6166,0.5393,0.41,-0.3098,-0.0029,-0.4808,0.1859,-0.3315,-0.2263,-0.0849,-0.0414,-0.3909,0.4324,0.5364,0.6832,0.582,0.7645,0.2046,0.7845,0.4289,0.6295,0.6433,0.4768,0.1597,0.2241,0.1704,-0.0888,0.2117,0.1479,-0.3732
699.2188,0.5652,0.5007,0.4108,-0.3672,-0.0728,-0.4799,0.1166,-0.3028,-0.1921,-0.1229,-0.0665,-0.4383,0.315,0.4242,0.635,0.4651,0.6409,0.1469,0.677,0.3217,0.5087,0.4991,0.3772,-0.0057,0.0768,0.0417,-0.2459,0.1154,0.0679,-0.4303
703.125,0.4919,0.5017,0.4318,-0.3674,-0.0728,-0.412,0.1117,-0.2288,-0.1152,-0.0988,-0.0404,-0.4403,0.2573,0.3706,0.5987,0.3957,0.5572,0.1062,0.6142,0.2702,0.4419,0.4043,0.3185,-0.1205,-0.0264,-0.0609,-0.3621,0.0544,-0.0072,-0.4826
707.0312,0.4097,0.5408,0.4731,-0.3079,-0.0005,-0.2833,0.172,-0.1162,-0.0037,-0.0158,0.0359,-0.3953,0.2669,0.385,0.5794,0.3804,0.521,0.0843,0.6038,0.2823,0.4388,0.3703,0.3117,-0.1701,-0.074,-0.1273,-0.4233,0.0356,-0.0724,-0.5273
710.9375,0.3325,0.6108,0.5314,-0.1958,0.1373,-0.1087,0.2898,0.0226,0.1294,0.1152,0.154,-0.3085,0.3425,0.4678,0.5785,0.4178,0.5326,0.0807,0.646,0.3575,0.5014,0.4,0.3594,-0.1494,-0.0624,-0.1526,-0.4227,0.0597,-0.1251,-0.5648
714.8438,0.2728,0.6992,0.6001,-0.0472,0.3244,0.0903,0.4496,0.172,0.2689,0.2773,0.3003,-0.1911,0.4739,0.6093,0.5931,0.4979,0.5841,0.092,0.7331,0.4855,0.6226,0.4862,0.455,-0.0636,0.0037,-0.137,-0.3618,0.1215,-0.1656,-0.5977
718.75,0.2386,0.7905,0.6698,0.1156,0.5375,0.2893,0.6304,0.3154,0.4004,0.4504,0.4577,-0.0588,0.6423,0.7909,0.6157,0.6039,0.6609,0.1134,0.8499,0.6471,0.7866,0.6129,0.5841,0.0726,0.1123,-0.0859,-0.2503,0.2105,-0.1965,-0.6301
722.6562,0.2315,0.869,0.7298,0.2682,0.75,0.465,0.8092,0.4377,0.5112,0.6146,0.6086,0.0711,0.8243,0.9879,0.6367,0.7149,0.7444,0.1401,0.9767,0.8177,0.971,0.7584,0.7278,0.238,0.2464,-0.0083,-0.1047,0.3131,-0.2223,-0.6656
726.5625,0.2468,0.9231,0.7707,0.3901,0.9365,0.599,0.9643,0.5272,0.5925,0.7524,0.7368,0.1824,0.9955,1.1747,0.6472,0.8107,0.8165,0.1679,1.0938,0.9724,1.1518,0.9004,0.8665,0.4093,0.3877,0.0847,0.0548,0.4146,-0.2475,-0.7068
730.4688,0.2748,0.9472,0.7867,0.4685,1.078,0.6811,1.0793,0.5776,0.6395,0.8517,0.83,0.2628,1.1356,1.3288,0.6419,0.8763,0.8642,0.1942,1.1859,1.0916,1.3077,1.0203,0.9844,0.5653,0.5197,0.1816,0.2073,0.5018,-0.2754,-0.7537
734.375,0.3042,0.9437,0.777,0.5015,1.1646,0.7107,1.1457,0.5889,0.6518,0.907,0.8816,0.3056,1.2317,1.4357,0.6202,0.9049,0.882,0.2176,1.2447,1.1645,1.4244,1.1071,1.0717,0.6905,0.6299,0.272,0.3349,0.5656,-0.3074,-0.8042
738.2812,0.3258,0.9215,0.747,0.4973,1.1971,0.6959,1.1635,0.5664,0.6331,0.9198,0.8908,0.3106,1.2802,1.4906,0.5865,0.8984,0.8725,0.2381,1.2706,1.191,1.4964,1.1582,1.126,0.7766,0.7112,0.3478,0.4249,0.6015,-0.342,-0.8542
742.1875,0.3357,0.8939,0.7072,0.4724,1.1863,0.6517,1.1409,0.5205,0.5903,0.8972,0.8626,0.2833,1.2866,1.4983,0.5491,0.8664,0.8455,0.2574,1.2713,1.1807,1.5277,1.1793,1.151,0.8229,0.762,0.404,0.4716,0.6105,-0.3748,-0.8981
746.0938,0.3358,0.8755,0.6711,0.4466,1.1496,0.5966,1.0919,0.4638,0.5317,0.8503,0.8061,0.2331,1.2631,1.4717,0.5186,0.8232,0.8144,0.2789,1.2593,1.1496,1.5292,1.1817,1.155,0.8353,0.7852,0.4387,0.4762,0.5976,-0.3994,-0.9293
750,0.3323,0.8786,0.6521,0.439,1.1067,0.5484,1.0326,0.4085,0.4652,0.7915,0.7326,0.1711,1.2249,1.4279,0.5059,0.7846,0.7934,0.3075,1.2482,1.1157,1.5151,1.1786,1.1485,0.8234,0.7868,0.4531,0.4456,0.5706,-0.4081,-0.9417
753.9062,0.3328,0.911,0.6596,0.4628,1.0753,0.5202,0.9773,0.3639,0.3967,0.7316,0.6531,0.1078,1.186,1.3838,0.5199,0.7633,0.7935,0.3488,1.2496,1.0943,1.4993,1.1818,1.1415,0.7982,0.7741,0.4507,0.3896,0.5375,-0.3948,-0.9309
757.8125,0.3435,0.9736,0.6974,0.5224,1.0667,0.5183,0.935,0.3337,0.329,0.6778,0.576,0.051,1.1565,1.3518,0.5655,0.7672,0.8203,0.4069,1.2698,1.0946,1.4914,1.1983,1.1415,0.7693,0.7545,0.4366,0.3191,0.505,-0.3566,-0.8955
761.7188,0.368,1.0606,0.7625,0.6129,1.0834,0.541,0.9084,0.3165,0.2619,0.6329,0.5067,0.005,1.1399,1.3375,0.6417,0.797,0.8734,0.4832,1.3095,1.118,1.4949,1.2292,1.1519,0.7432,0.7332,0.4159,0.2431,0.4769,-0.2949,-0.838
765.625,0.4081,1.1609,0.8468,0.7217,1.1199,0.5812,0.8941,0.3067,0.1944,0.5959,0.4478,-0.0287,1.1344,1.339,0.7415,0.8474,0.9467,0.5755,1.364,1.1589,1.5072,1.2704,1.1729,0.7226,0.7136,0.3934,0.1681,0.4548,-0.2155,-0.7639
769.5312,0.4658,1.2607,0.9404,0.8328,1.1655,0.6293,0.8858,0.2981,0.1263,0.5648,0.4007,-0.05,1.1347,1.3495,0.8529,0.9094,1.0317,0.6784,1.4262,1.2074,1.5221,1.315,1.2023,0.7079,0.6973,0.3734,0.0982,0.4388,-0.1267,-0.6799
773.4375,0.545,1.3475,1.0344,0.931,1.2082,0.6768,0.8779,0.2868,0.0608,0.5385,0.3674,-0.0588,1.1351,1.3597,0.9618,0.9732,1.1198,0.7844,1.4896,1.2533,1.5325,1.3567,1.2379,0.6985,0.6854,0.3597,0.036,0.4288,-0.0371,-0.592
777.3438,0.6515,1.4117,1.1235,1.0058,1.2384,0.7188,0.8675,0.2728,0.004,0.5182,0.351,-0.0539,1.1319,1.3619,1.0539,1.0303,1.2051,0.8848,1.5502,1.2887,1.533,1.3917,1.2779,0.694,0.6791,0.3558,-0.0166,0.4255,0.0469,-0.5038
781.25,0.7918,1.4486,1.2064,1.0533,1.2509,0.7549,0.8555,0.2597,-0.0363,0.5073,0.3554,-0.0336,1.1243,1.3511,1.1185,1.0758,1.2849,0.9717,1.607,1.3095,1.5214,1.4194,1.3223,0.6947,0.6796,0.3646,-0.0585,0.4303,0.1217,-0.4161
785.1562,0.9701,1.4583,1.2843,1.0753,1.2452,0.7871,0.845,0.2524,-0.0537,0.5094,0.3833,0.003,1.1135,1.3261,1.1496,1.1079,1.3597,1.0401,1.6615,1.3156,1.498,1.4418,1.3713,0.7009,0.6881,0.3875,-0.0892,0.4445,0.1872,-0.3282
789.0625,1.1858,1.4449,1.3597,1.0777,1.2242,0.8186,0.839,0.2548,-0.0462,0.5262,0.4341,0.0551,1.1017,1.2883,1.1476,1.1278,1.4315,1.0887,1.7156,1.3097,1.4655,1.4613,1.4251,0.7125,0.7046,0.4239,-0.1099,0.4681,0.2453,-0.2382
792.9688,1.4315,1.4155,1.4348,1.0682,1.1926,0.8515,0.8382,0.2671,-0.0175,0.5556,0.5029,0.1191,1.0901,1.2408,1.1192,1.1388,1.5024,1.1211,1.7707,1.2955,1.4267,1.4802,1.4828,0.7283,0.7274,0.4705,-0.1237,0.4993,0.2991,-0.1455
796.875,1.6936,1.3788,1.5104,1.0537,1.1549,0.8858,0.8401,0.2855,0.0228,0.5917,0.5805,0.1887,1.0782,1.1871,1.0762,1.1447,1.5732,1.1443,1.8267,1.2769,1.3843,1.4992,1.5422,0.7455,0.753,0.5223,-0.1354,0.534,0.3509,-0.0506
