time,FP1,F3,F7,FC3,C3,C5,P3,P7,PO7,PO3,O1,Oz,Pz,CPz,FP2,Fz,F4,F8,FC4,FCz,Cz,C4,C6,P4,P8,PO8,PO4,O2,HEOG_left,HEOG_right
-199.2188,0.0762,0.045,0.0252,-0.0466,-0.1011,-0.6452,-0.0187,-0.2145,0.4077,0.6937,0.1405,-0.2607,-0.3451,-0.1033,-0.2242,-0.0108,-0.0437,0.042,0.1792,-0.2216,-0.2124,0.2301,0.4727,0.4025,-0.0964,-0.2872,0.1812,0.301,0.1942,0.4268
-195.3125,-0.029,-0.1603,-0.1335,-0.2311,-0.3074,-0.6023,-0.2119,-0.2418,0.2438,0.4769,-0.044,-0.3441,-0.5847,-0.4075,-0.3119,-0.303,-0.3028,-0.0449,0.0322,-0.5273,-0.5326,0.1158,0.4587,0.1667,-0.0096,-0.2237,0.0836,0.2637,0.129,0.2485
-191.4062,-0.123,-0.3369,-0.2716,-0.3903,-0.4853,-0.5539,-0.3707,-0.2564,0.0993,0.2904,-0.2144,-0.4077,-0.7849,-0.6706,-0.3844,-0.5596,-0.5362,-0.1257,-0.1074,-0.7955,-0.813,0.0036,0.4211,-0.0407,0.0633,-0.1593,-0.0019,0.2309,0.0766,0.0848
-187.5,-0.1955,-0.462,-0.3726,-0.5031,-0.6117,-0.4975,-0.469,-0.2479,-0.0116,0.1588,-0.3596,-0.435,-0.9145,-0.8579,-0.4281,-0.7511,-0.7198,-0.1955,-0.2302,-0.9947,-1.0197,-0.1005,0.3474,-0.1938,0.1159,-0.0932,-0.0662,0.2052,0.0459,-0.0519
-183.5938,-0.2402,-0.5239,-0.4263,-0.5584,-0.6733,-0.432,-0.4919,-0.2114,-0.08,0.0963,-0.4715,-0.4185,-0.9565,-0.9493,-0.4359,-0.8617,-0.8378,-0.2514,-0.3291,-1.1077,-1.1337,-0.1915,0.2356,-0.2786,0.1442,-0.0264,-0.1049,0.1876,0.0419,-0.1541
-179.6875,-0.2557,-0.5229,-0.43,-0.5558,-0.668,-0.3584,-0.4376,-0.1475,-0.1037,0.1049,-0.5452,-0.3602,-0.9106,-0.9417,-0.4081,-0.8907,-0.8846,-0.2921,-0.4002,-1.1333,-1.152,-0.2651,0.0943,-0.294,0.1484,0.0389,-0.1191,0.1776,0.0643,-0.2194
-175.7812,-0.2449,-0.4693,-0.387,-0.5038,-0.6035,-0.2788,-0.3167,-0.0611,-0.0864,0.1755,-0.5795,-0.27,-0.7906,-0.8472,-0.3506,-0.8504,-0.864,-0.317,-0.4425,-1.0835,-1.0858,-0.3181,-0.0603,-0.2505,0.1339,0.0996,-0.1143,0.173,0.1087,-0.25
-171.875,-0.2129,-0.3797,-0.305,-0.4164,-0.4941,-0.1956,-0.1485,0.0398,-0.0368,0.2909,-0.5766,-0.1627,-0.6206,-0.6884,-0.2734,-0.7608,-0.7873,-0.3255,-0.457,-0.9787,-0.9548,-0.3484,-0.2085,-0.1657,0.1115,0.1525,-0.0983,0.1712,0.1673,-0.251
-167.9688,-0.1659,-0.2724,-0.1947,-0.3091,-0.357,-0.1117,0.0423,0.1464,0.0329,0.4297,-0.542,-0.0535,-0.4283,-0.4924,-0.1873,-0.6442,-0.6699,-0.3176,-0.4456,-0.841,-0.7822,-0.3545,-0.3308,-0.0597,0.0948,0.1952,-0.0796,0.1688,0.2308,-0.2287
-164.0625,-0.109,-0.1632,-0.067,-0.1953,-0.2086,-0.0293,0.2313,0.2505,0.1099,0.5712,-0.4837,0.0449,-0.2397,-0.2858,-0.1016,-0.5196,-0.5287,-0.2943,-0.4103,-0.6897,-0.5892,-0.3358,-0.4102,0.0489,0.0972,0.2265,-0.0652,0.1627,0.2901,-0.19
-160.1562,-0.0454,-0.0626,0.0682,-0.0845,-0.0619,0.0506,0.3979,0.3457,0.1829,0.6984,-0.4111,0.1249,-0.0739,-0.0898,-0.0226,-0.3996,-0.3798,-0.259,-0.3526,-0.5375,-0.3921,-0.2922,-0.4346,0.1451,0.1272,0.2462,-0.0594,0.15,0.3384,-0.1409
-156.25,0.0238,0.0254,0.2035,0.0191,0.0754,0.1293,0.5289,0.4287,0.2442,0.8006,-0.333,0.1844,0.0589,0.0819,0.0473,-0.2894,-0.2363,-0.2167,-0.2742,-0.3903,-0.2007,-0.225,-0.3989,0.2192,0.1858,0.2556,-0.0639,0.1291,0.3722,-0.0866
-152.3438,0.0988,0.1027,0.334,0.1151,0.2004,0.2103,0.6199,0.4989,0.2918,0.8737,-0.256,0.2256,0.1576,0.2235,0.1088,-0.1875,-0.1077,-0.1729,-0.1784,-0.2478,-0.0191,-0.1378,-0.3061,0.2662,0.2658,0.2568,-0.077,0.0999,0.392,-0.031
-148.4375,0.1796,0.175,0.4563,0.2057,0.3144,0.2981,0.6744,0.5581,0.3287,0.9193,-0.1835,0.253,0.2284,0.3356,0.1644,-0.0884,0.0011,-0.1313,-0.0706,-0.107,0.1521,-0.0368,-0.1682,0.2856,0.353,0.253,-0.0944,0.0647,0.4008,0.0231
-144.5312,0.2645,0.2485,0.5673,0.2933,0.4196,0.3963,0.7019,0.6088,0.3614,0.9422,-0.1163,0.2713,0.2818,0.4229,0.2171,0.0143,0.0895,-0.0929,0.0421,0.0358,0.3137,0.0698,-0.004,0.2808,0.4304,0.2478,-0.1099,0.0276,0.4025,0.0741
-140.625,0.3497,0.3276,0.6625,0.3786,0.5178,0.5042,0.7139,0.6531,0.3977,0.9482,-0.0535,0.284,0.3291,0.4923,0.2687,0.1255,0.1608,-0.0555,0.1521,0.1823,0.466,0.174,0.1643,0.2588,0.4827,0.2449,-0.1167,-0.0065,0.3995,0.1214
-136.7188,0.4297,0.4126,0.7356,0.4599,0.6082,0.6152,0.7204,0.6911,0.4424,0.9422,0.006,0.2931,0.3799,0.5504,0.3193,0.2463,0.2211,-0.0144,0.253,0.3314,0.6078,0.2697,0.3165,0.2293,0.5002,0.2473,-0.1087,-0.0331,0.3921,0.1648
-132.8125,0.4977,0.4995,0.7794,0.5327,0.687,0.7172,0.7272,0.7202,0.4955,0.9268,0.0623,0.2985,0.44,0.6021,0.3671,0.374,0.278,0.0349,0.3413,0.4788,0.7361,0.3544,0.4386,0.2036,0.482,0.2571,-0.0819,-0.0489,0.3781,0.2044
-128.9062,0.5473,0.5808,0.7865,0.5912,0.7477,0.7943,0.7342,0.7359,0.5503,0.9015,0.1139,0.2989,0.5103,0.6497,0.4086,0.5019,0.3383,0.0951,0.4164,0.6174,0.8465,0.4294,0.5244,0.1926,0.4358,0.2747,-0.0352,-0.0534,0.3535,0.2402
-125,0.573,0.6469,0.7516,0.6286,0.7827,0.8302,0.7351,0.7322,0.5945,0.8633,0.1582,0.2913,0.5862,0.6921,0.4391,0.6205,0.4053,0.1649,0.4801,0.7387,0.9337,0.4977,0.5753,0.2039,0.3756,0.2991,0.0282,-0.0481,0.3148,0.2713
-121.0938,0.5714,0.6886,0.6734,0.6396,0.7851,0.8129,0.7194,0.7033,0.6132,0.8073,0.1919,0.2716,0.6589,0.725,0.454,0.7196,0.4776,0.2388,0.5338,0.8336,0.9922,0.5619,0.5972,0.2393,0.3179,0.3267,0.1014,-0.037,0.2598,0.2953
-117.1875,0.542,0.7001,0.5558,0.6214,0.7517,0.7383,0.6762,0.6453,0.5927,0.7291,0.2126,0.2354,0.7169,0.7422,0.4497,0.7897,0.5485,0.308,0.5776,0.8946,1.0175,0.6217,0.5972,0.2938,0.2767,0.3523,0.1742,-0.0247,0.1894,0.309
-113.2812,0.4882,0.6799,0.4091,0.5761,0.685,0.6129,0.5978,0.5579,0.5255,0.6274,0.2193,0.181,0.7492,0.7385,0.4253,0.825,0.6078,0.3629,0.6089,0.9174,1.0081,0.6734,0.5817,0.3565,0.2601,0.3686,0.235,-0.0151,0.109,0.3093
-109.375,0.4173,0.6327,0.2495,0.5107,0.5942,0.4543,0.4838,0.4451,0.4132,0.5059,0.2135,0.1105,0.7487,0.7118,0.3832,0.8246,0.6451,0.3963,0.6235,0.9028,0.9665,0.7109,0.5555,0.4135,0.2692,0.3678,0.273,-0.0105,0.028,0.2945
-105.4688,0.3402,0.5682,0.0974,0.4364,0.4939,0.2882,0.3427,0.3152,0.2669,0.3732,0.1994,0.0319,0.7142,0.6653,0.3289,0.7929,0.6535,0.4052,0.6167,0.8566,0.8999,0.7275,0.5222,0.4519,0.2979,0.3432,0.2814,-0.0109,-0.0413,0.2659
-101.5625,0.2692,0.4988,-0.0263,0.3666,0.4014,0.1439,0.1904,0.1792,0.1053,0.2421,0.1827,-0.0421,0.6513,0.6072,0.27,0.7386,0.631,0.3924,0.5858,0.789,0.8192,0.7181,0.4841,0.463,0.3359,0.2912,0.2587,-0.0145,-0.0862,0.2271
-97.6562,0.2148,0.4366,-0.1038,0.3133,0.3323,0.0479,0.0475,0.0487,-0.0499,0.1255,0.1688,-0.0968,0.5712,0.5492,0.2145,0.6724,0.5816,0.3653,0.5305,0.712,0.7369,0.6803,0.442,0.4448,0.3712,0.2127,0.2095,-0.0188,-0.0974,0.1835
-93.75,0.1832,0.3904,-0.1249,0.2841,0.2961,0.0168,-0.0669,-0.0671,-0.1792,0.0337,0.1607,-0.1196,0.4873,0.5029,0.1687,0.6044,0.513,0.3333,0.4532,0.6368,0.664,0.6149,0.3944,0.4013,0.3935,0.1141,0.1436,-0.0218,-0.0714,0.1399
-89.8438,0.1738,0.3632,-0.0892,0.2797,0.2937,0.0534,-0.1391,-0.1633,-0.2698,-0.0291,0.1581,-0.1038,0.4122,0.4761,0.1364,0.5413,0.434,0.305,0.3588,0.5709,0.6073,0.5259,0.3374,0.3416,0.3966,0.006,0.0735,-0.0231,-0.0124,0.099
-85.9375,0.1799,0.3513,-0.0065,0.2938,0.3164,0.1447,-0.1645,-0.2398,-0.3176,-0.065,0.1569,-0.0513,0.354,0.4708,0.1175,0.4854,0.3523,0.2851,0.2539,0.5169,0.5677,0.4197,0.2668,0.2763,0.3792,-0.0982,0.0116,-0.0232,0.0681,0.0607
-82.0312,0.1904,0.3459,0.1046,0.3145,0.3489,0.2649,-0.1482,-0.2999,-0.3272,-0.0824,0.1519,0.0277,0.3153,0.482,0.1094,0.4348,0.2728,0.2737,0.1464,0.4728,0.5401,0.3049,0.1808,0.2154,0.344,-0.1856,-0.0321,-0.0241,0.1544,0.0225
-78.125,0.1933,0.3352,0.2207,0.3274,0.3725,0.3818,-0.1027,-0.3483,-0.3092,-0.0927,0.1384,0.117,0.2931,0.4997,0.1074,0.3845,0.1979,0.2667,0.0448,0.4327,0.5152,0.1916,0.0827,0.1661,0.2958,-0.2457,-0.0513,-0.0273,0.2294,-0.0193
-74.2188,0.1795,0.3079,0.318,0.3193,0.3709,0.4645,-0.0444,-0.3879,-0.2764,-0.1081,0.1154,0.1981,0.2805,0.511,0.1067,0.3288,0.1284,0.2576,-0.043,0.3894,0.4817,0.0898,-0.0175,0.1317,0.2392,-0.2727,-0.0439,-0.0336,0.2791,-0.0676
-70.3125,0.1449,0.256,0.3777,0.2818,0.3341,0.4911,0.0105,-0.4193,-0.2405,-0.1382,0.0863,0.2551,0.2694,0.5038,0.103,0.2633,0.0651,0.2403,-0.1107,0.3359,0.4296,0.0077,-0.1054,0.1119,0.1776,-0.2658,-0.0114,-0.0425,0.2951,-0.1227
-66.4062,0.0918,0.1774,0.3893,0.213,0.261,0.4548,0.0498,-0.4402,-0.2095,-0.1882,0.0585,0.2783,0.2526,0.4693,0.0934,0.1857,0.0099,0.2112,-0.1552,0.2678,0.3526,-0.05,-0.1656,0.1029,0.1125,-0.2286,0.0413,-0.0522,0.2756,-0.1816
-62.5,0.0266,0.0763,0.3525,0.1185,0.1599,0.3638,0.0666,-0.4482,-0.1874,-0.2584,0.0411,0.266,0.2252,0.4036,0.0759,0.0972,-0.0344,0.1696,-0.1773,0.1838,0.2493,-0.0844,-0.1885,0.099,0.044,-0.1681,0.1071,-0.0607,0.2248,-0.2381
-58.5938,-0.0418,-0.0383,0.2758,0.0087,0.0447,0.2384,0.06,-0.4427,-0.175,-0.3451,0.042,0.2243,0.1853,0.3081,0.0489,0.0015,-0.0652,0.1179,-0.1818,0.0862,0.1235,-0.102,-0.1736,0.0927,-0.029,-0.0932,0.1765,-0.0661,0.1516,-0.2839
-54.6875,-0.1062,-0.1546,0.1738,-0.103,-0.0686,0.1032,0.0324,-0.4265,-0.1717,-0.4424,0.065,0.1645,0.1333,0.188,0.0114,-0.096,-0.0808,0.0603,-0.1763,-0.0196,-0.0168,-0.1143,-0.1324,0.0766,-0.1077,-0.0141,0.2387,-0.0679,0.0655,-0.3108
-50.7812,-0.1621,-0.2609,0.0622,-0.2044,-0.167,-0.0209,-0.012,-0.4053,-0.1768,-0.5443,0.1083,0.0994,0.0708,0.0513,-0.0368,-0.1888,-0.0816,0.0012,-0.1692,-0.1259,-0.1606,-0.134,-0.0852,0.0441,-0.1936,0.0585,0.2826,-0.0666,-0.0251,-0.3125
-46.875,-0.2097,-0.3486,-0.0458,-0.2865,-0.2441,-0.1233,-0.0698,-0.386,-0.1906,-0.6469,0.1649,0.04,0.0004,-0.0931,-0.0943,-0.2702,-0.0699,-0.0555,-0.1678,-0.2231,-0.2962,-0.172,-0.0562,-0.0091,-0.2871,0.1139,0.2984,-0.0641,-0.1157,-0.2868
-42.9688,-0.2524,-0.4135,-0.1429,-0.3456,-0.3005,-0.2055,-0.1394,-0.3734,-0.2139,-0.7481,0.2241,-0.0078,-0.0755,-0.2366,-0.1577,-0.3343,-0.0498,-0.1075,-0.1762,-0.3015,-0.4125,-0.2338,-0.0672,-0.0843,-0.3873,0.142,0.2793,-0.0632,-0.2054,-0.2365
-39.0625,-0.2957,-0.4561,-0.2281,-0.3828,-0.343,-0.2785,-0.2202,-0.3688,-0.2472,-0.8478,0.2742,-0.0433,-0.154,-0.3714,-0.221,-0.376,-0.0259,-0.1538,-0.1946,-0.3526,-0.5006,-0.318,-0.1315,-0.1791,-0.4915,0.1349,0.2234,-0.0668,-0.2964,-0.1691
-35.1562,-0.3441,-0.48,-0.3061,-0.4028,-0.3808,-0.3563,-0.3117,-0.3688,-0.2889,-0.9455,0.3046,-0.0699,-0.2319,-0.4911,-0.277,-0.3921,-0.003,-0.1935,-0.2191,-0.3706,-0.5554,-0.416,-0.25,-0.2874,-0.5951,0.0882,0.1353,-0.0772,-0.391,-0.0954
-31.25,-0.3987,-0.4903,-0.3843,-0.4115,-0.4221,-0.4485,-0.4116,-0.3668,-0.3345,-1.0389,0.3091,-0.0932,-0.3047,-0.5901,-0.3174,-0.3807,0.0147,-0.2249,-0.243,-0.3531,-0.5756,-0.5139,-0.4098,-0.3997,-0.6925,0.0021,0.0259,-0.0946,-0.4896,-0.0271
-27.3438,-0.4558,-0.4909,-0.4698,-0.4135,-0.4705,-0.5554,-0.5148,-0.3551,-0.3768,-1.1235,0.2862,-0.1175,-0.3666,-0.664,-0.3357,-0.3422,0.0246,-0.2451,-0.2584,-0.3013,-0.5636,-0.5961,-0.5859,-0.5046,-0.7777,-0.1177,-0.0886,-0.1177,-0.589,0.0258
-23.4375,-0.507,-0.4837,-0.5667,-0.4111,-0.5241,-0.6678,-0.6137,-0.3282,-0.407,-1.1939,0.2393,-0.1452,-0.411,-0.7092,-0.3281,-0.2783,0.0254,-0.2502,-0.2582,-0.2197,-0.5243,-0.6484,-0.7457,-0.5905,-0.8466,-0.2611,-0.1906,-0.1433,-0.683,0.0572
-19.5312,-0.541,-0.4686,-0.6743,-0.4036,-0.5765,-0.7707,-0.6998,-0.2846,-0.4179,-1.2456,0.1751,-0.1759,-0.432,-0.724,-0.2953,-0.1929,0.0177,-0.2376,-0.2387,-0.1148,-0.4644,-0.6614,-0.8562,-0.6481,-0.8973,-0.4149,-0.265,-0.1683,-0.763,0.0651
-15.625,-0.5471,-0.4441,-0.7868,-0.3881,-0.6181,-0.8487,-0.7654,-0.2278,-0.4059,-1.2771,0.1018,-0.207,-0.426,-0.7082,-0.2423,-0.0912,0.0032,-0.2075,-0.2007,0.0054,-0.391,-0.6332,-0.891,-0.6724,-0.9306,-0.5656,-0.3033,-0.1903,-0.821,0.0522
-11.7188,-0.5182,-0.4086,-0.8936,-0.3607,-0.6394,-0.8911,-0.8057,-0.1654,-0.3719,-1.2914,0.0273,-0.2354,-0.3933,-0.6641,-0.1775,0.0205,-0.0151,-0.1639,-0.1492,0.1327,-0.3106,-0.5692,-0.837,-0.664,-0.9492,-0.7013,-0.3057,-0.2092,-0.8512,0.0242
-7.8125,-0.4528,-0.3619,-0.9816,-0.3179,-0.6328,-0.8944,-0.8192,-0.1069,-0.321,-1.2947,-0.0415,-0.2579,-0.3377,-0.5958,-0.1104,0.1358,-0.0331,-0.114,-0.0932,0.2598,-0.2284,-0.4813,-0.6984,-0.6288,-0.9561,-0.8131,-0.2805,-0.2261,-0.8522,-0.0111
-3.9062,-0.3561,-0.3047,-1.0373,-0.2574,-0.594,-0.8614,-0.8078,-0.0611,-0.2611,-1.2943,-0.0997,-0.2727,-0.2663,-0.5087,-0.0497,0.2489,-0.0462,-0.066,-0.043,0.3808,-0.1472,-0.3846,-0.496,-0.5763,-0.9538,-0.8961,-0.2416,-0.2432,-0.8274,-0.0457
0,-0.2391,-0.2393,-1.0501,-0.179,-0.523,-0.8002,-0.7758,-0.0333,-0.2005,-1.2965,-0.1439,-0.2796,-0.1878,-0.4084,-0.0013,0.3555,-0.05,-0.0264,-0.0079,0.4916,-0.068,-0.2939,-0.2635,-0.5178,-0.9431,-0.9491,-0.2043,-0.262,-0.7844,-0.0727
3.9062,-0.1167,-0.1685,-1.0151,-0.085,-0.4242,-0.7212,-0.7287,-0.0243,-0.1464,-1.3047,-0.1721,-0.2804,-0.1111,-0.3005,0.032,0.4529,-0.0408,0.0018,0.0062,0.59,0.0102,-0.2202,-0.0395,-0.4633,-0.9242,-0.9739,-0.181,-0.2831,-0.7338,-0.0868
7.8125,-0.0046,-0.0963,-0.9346,0.0191,-0.3063,-0.6361,-0.6727,-0.0304,-0.1029,-1.3195,-0.1844,-0.2789,-0.0448,-0.1907,0.0502,0.5393,-0.0164,0.0199,-0.0007,0.6749,0.0885,-0.1681,0.1419,-0.4201,-0.8967,-0.9746,-0.1793,-0.3054,-0.6873,-0.0848
11.7188,0.0833,-0.0268,-0.818,0.1253,-0.1812,-0.5555,-0.6137,-0.0443,-0.0711,-1.339,-0.1823,-0.2796,0.004,-0.0853,0.0554,0.6132,0.0231,0.0329,-0.0225,0.7456,0.1669,-0.1356,0.2583,-0.3926,-0.8613,-0.9575,-0.2005,-0.3265,-0.6553,-0.0652
15.625,0.1379,0.0347,-0.6805,0.2242,-0.0626,-0.4875,-0.5574,-0.0579,-0.0493,-1.3607,-0.1687,-0.2865,0.0298,0.0094,0.0505,0.6726,0.0759,0.0479,-0.0474,0.8013,0.2441,-0.1154,0.3036,-0.3817,-0.8193,-0.9299,-0.2414,-0.3433,-0.645,-0.0275
19.5312,0.156,0.083,-0.5397,0.3063,0.0369,-0.4359,-0.5086,-0.0634,-0.0337,-1.3816,-0.1475,-0.3016,0.03,0.0862,0.0386,0.7147,0.1386,0.0715,-0.0609,0.8412,0.3162,-0.0977,0.2871,-0.3867,-0.773,-0.8994,-0.296,-0.3528,-0.6599,0.0281
23.4375,0.1401,0.1128,-0.412,0.3636,0.1071,-0.4002,-0.4709,-0.0555,-0.02,-1.3988,-0.1225,-0.3244,0.005,0.1388,0.0224,0.7364,0.2075,0.1088,-0.0497,0.8644,0.3778,-0.0736,0.2287,-0.4055,-0.7243,-0.8725,-0.3574,-0.3531,-0.6995,0.1004
27.3438,0.0973,0.1193,-0.3105,0.391,0.1418,-0.3769,-0.4466,-0.0329,-0.0048,-1.4102,-0.0968,-0.3522,-0.0411,0.1623,0.0039,0.7347,0.2787,0.1614,-0.0051,0.8699,0.4225,-0.0386,0.1519,-0.4354,-0.6741,-0.8537,-0.4194,-0.3433,-0.7594,0.1872
31.25,0.0369,0.0995,-0.2431,0.3864,0.1394,-0.3614,-0.437,0.0023,0.0141,-1.4144,-0.0727,-0.3813,-0.1013,0.1539,-0.0156,0.7079,0.349,0.2279,0.0736,0.8573,0.4432,0.0068,0.077,-0.4733,-0.6221,-0.8442,-0.4774,-0.3241,-0.833,0.2847
35.1562,-0.0313,0.0523,-0.2119,0.351,0.1022,-0.3507,-0.4426,0.0443,0.0369,-1.4122,-0.0515,-0.4088,-0.1668,0.1136,-0.0355,0.6563,0.4156,0.3041,0.1783,0.8264,0.4335,0.056,0.0166,-0.5157,-0.5672,-0.8416,-0.5282,-0.2967,-0.9114,0.3864
39.0625,-0.0988,-0.0199,-0.2141,0.2888,0.0362,-0.3442,-0.4642,0.0858,0.0615,-1.4061,-0.0339,-0.4334,-0.2294,0.0442,-0.055,0.5822,0.4757,0.3835,0.2936,0.778,0.3887,0.0995,-0.0254,-0.5587,-0.508,-0.84,-0.5704,-0.2634,-0.9855,0.4841
42.9688,-0.1596,-0.1119,-0.2431,0.2062,-0.0508,-0.3431,-0.5028,0.1187,0.0843,-1.4005,-0.0205,-0.4564,-0.2827,-0.0493,-0.0739,0.4903,0.5257,0.4589,0.4003,0.7139,0.3069,0.1274,-0.0522,-0.5984,-0.4447,-0.8326,-0.6038,-0.2267,-1.0465,0.5683
46.875,-0.2101,-0.2158,-0.2906,0.1107,-0.1502,-0.3501,-0.5593,0.1362,0.1,-1.4006,-0.0119,-0.4806,-0.324,-0.1602,-0.0922,0.3866,0.5613,0.5228,0.4805,0.6365,0.1899,0.1331,-0.0688,-0.6311,-0.3802,-0.8139,-0.6295,-0.1891,-1.0876,0.6298
50.7812,-0.2493,-0.3236,-0.3478,0.0092,-0.2543,-0.3673,-0.6347,0.1325,0.1032,-1.4105,-0.0086,-0.5098,-0.3549,-0.2822,-0.1112,0.2769,0.5769,0.5689,0.5212,0.5478,0.042,0.1154,-0.0775,-0.6541,-0.3212,-0.782,-0.6494,-0.153,-1.1054,0.6616
54.6875,-0.2784,-0.4289,-0.4075,-0.0934,-0.3581,-0.3958,-0.7281,0.1039,0.0899,-1.4314,-0.0113,-0.5474,-0.3812,-0.4103,-0.1341,0.1648,0.5664,0.5926,0.5167,0.4478,-0.1305,0.079,-0.0759,-0.6665,-0.2772,-0.7403,-0.6653,-0.1205,-1.1002,0.6604
58.5938,-0.3011,-0.5297,-0.4647,-0.1958,-0.4601,-0.436,-0.8373,0.0481,0.0576,-1.4608,-0.0209,-0.5958,-0.412,-0.5423,-0.1659,0.0505,0.5239,0.5923,0.4689,0.3342,-0.3211,0.0315,-0.0573,-0.6698,-0.2579,-0.6958,-0.6786,-0.0932,-1.0757,0.6266
62.5,-0.3231,-0.6288,-0.5172,-0.3011,-0.5631,-0.4876,-0.9576,-0.0353,0.0073,-1.4925,-0.0383,-0.6566,-0.4576,-0.6789,-0.2125,-0.0694,0.4447,0.5689,0.385,0.2019,-0.5246,-0.0198,-0.016,-0.668,-0.2707,-0.6576,-0.6899,-0.0722,-1.038,0.5636
66.4062,-0.3516,-0.7335,-0.5657,-0.4158,-0.6731,-0.5515,-1.083,-0.1448,-0.0576,-1.5175,-0.0647,-0.7298,-0.5273,-0.8229,-0.2794,-0.201,0.3267,0.5261,0.2742,0.0449,-0.7374,-0.0718,0.0486,-0.6675,-0.3173,-0.6342,-0.6993,-0.0589,-0.9943,0.4765
70.3125,-0.3946,-0.8536,-0.6126,-0.548,-0.7977,-0.6299,-1.2067,-0.2766,-0.1306,-1.5267,-0.1015,-0.8146,-0.6271,-0.9777,-0.3693,-0.3513,0.1709,0.4689,0.1452,-0.1422,-0.958,-0.1275,0.128,-0.6756,-0.3932,-0.6314,-0.7062,-0.0551,-0.9514,0.3699
74.2188,-0.4593,-0.9983,-0.6613,-0.7053,-0.9443,-0.7264,-1.3226,-0.4252,-0.2045,-1.514,-0.15,-0.9094,-0.758,-1.1457,-0.4815,-0.526,-0.0179,0.4031,0.0041,-0.362,-1.1854,-0.195,0.2045,-0.6993,-0.4878,-0.6516,-0.7098,-0.0628,-0.9153,0.2474
78.125,-0.5507,-1.1729,-0.7144,-0.8909,-1.1166,-0.8455,-1.4261,-0.5829,-0.2721,-1.4782,-0.2121,-1.0117,-0.9154,-1.326,-0.6111,-0.7275,-0.2307,0.3343,-0.1458,-0.612,-1.4177,-0.2848,0.2545,-0.7426,-0.5867,-0.6929,-0.7095,-0.0835,-0.8901,0.1117
82.0312,-0.6693,-1.3754,-0.7725,-1.1018,-1.3128,-0.9901,-1.514,-0.7409,-0.3278,-1.4242,-0.2891,-1.1181,-1.0889,-1.5129,-0.7491,-0.9521,-0.454,0.2682,-0.3023,-0.8826,-1.6496,-0.4052,0.2548,-0.8058,-0.6742,-0.7498,-0.7047,-0.1178,-0.8785,-0.0339
85.9375,-0.8099,-1.5951,-0.8332,-1.327,-1.5235,-1.1593,-1.5841,-0.8895,-0.3686,-1.3616,-0.3811,-1.2238,-1.2632,-1.695,-0.8838,-1.1883,-0.6696,0.2097,-0.4626,-1.1563,-1.8705,-0.5581,0.1891,-0.8839,-0.7367,-0.8143,-0.695,-0.1635,-0.8812,-0.1836
89.8438,-0.9609,-1.8129,-0.8911,-1.5478,-1.7319,-1.3455,-1.6339,-1.0188,-0.3933,-1.3021,-0.486,-1.322,-1.4194,-1.855,-1.0013,-1.417,-0.8561,0.1641,-0.6214,-1.4083,-2.0637,-0.7364,0.0539,-0.9667,-0.7643,-0.8767,-0.6799,-0.2159,-0.8969,-0.3287
93.75,-1.1052,-2.0038,-0.9386,-1.7399,-1.9152,-1.5338,-1.6599,-1.1199,-0.4023,-1.2558,-0.5985,-1.4045,-1.5372,-1.9722,-1.0882,-1.6131,-0.9914,0.1366,-0.7705,-1.6094,-2.2081,-0.9241,-0.14,-1.0408,-0.7525,-0.9273,-0.6582,-0.268,-0.9223,-0.4575
97.6562,-1.2233,-2.1421,-0.9672,-1.8779,-2.0481,-1.7031,-1.6569,-1.1855,-0.3967,-1.2285,-0.7106,-1.4626,-1.5974,-2.0249,-1.1328,-1.7501,-1.0557,0.1321,-0.8991,-1.7309,-2.2808,-1.099,-0.369,-1.0911,-0.7022,-0.9577,-0.6281,-0.3113,-0.9521,-0.5574
101.5625,-1.2966,-2.2057,-0.9691,-1.9389,-2.1075,-1.8296,-1.6193,-1.2107,-0.3771,-1.22,-0.8126,-1.4882,-1.5852,-1.995,-1.1268,-1.8045,-1.0363,0.1549,-0.9956,-1.7498,-2.2616,-1.2371,-0.6023,-1.1043,-0.62,-0.9625,-0.5868,-0.3382,-0.9795,-0.6168
105.4688,-1.3112,-2.1809,-0.938,-1.9074,-2.0765,-1.8909,-1.5419,-1.1933,-0.3429,-1.224,-0.8944,-1.4754,-1.4918,-1.8713,-1.0668,-1.7618,-0.9307,0.207,-1.0488,-1.6535,-2.1376,-1.3177,-0.8078,-1.0714,-0.5175,-0.9401,-0.5321,-0.3437,-0.9971,-0.6284
109.375,-1.2605,-2.0652,-0.8705,-1.7782,-1.9482,-1.8705,-1.4219,-1.134,-0.2923,-1.2301,-0.948,-1.4225,-1.317,-1.6531,-0.9549,-1.6191,-0.7479,0.287,-1.0507,-1.4433,-1.9062,-1.3276,-0.9595,-0.9899,-0.4105,-0.8936,-0.4636,-0.3269,-0.9982,-0.59
113.2812,-1.1472,-1.8678,-0.7667,-1.5578,-1.7271,-1.7618,-1.2609,-1.0363,-0.2227,-1.227,-0.9694,-1.332,-1.0693,-1.3509,-0.798,-1.3865,-0.5081,0.3892,-0.9973,-1.134,-1.5776,-1.2638,-1.0411,-0.8651,-0.3167,-0.8306,-0.3842,-0.2918,-0.9778,-0.5063
117.1875,-0.9823,-1.6081,-0.6306,-1.2635,-1.4295,-1.5698,-1.0658,-0.9071,-0.1329,-1.206,-0.96,-1.2114,-0.7662,-0.9863,-0.6078,-1.0859,-0.2391,0.5034,-0.8907,-0.7531,-1.1738,-1.134,-1.0486,-0.7094,-0.2537,-0.7618,-0.3014,-0.2461,-0.9339,-0.3878
121.0938,-0.7833,-1.312,-0.4703,-0.9208,-1.0803,-1.3109,-0.8493,-0.7557,-0.0243,-1.1644,-0.927,-1.0715,-0.4318,-0.5892,-0.3991,-0.7471,0.0283,0.6165,-0.7394,-0.3361,-0.7262,-0.9555,-0.9898,-0.5414,-0.2351,-0.6985,-0.2261,-0.2002,-0.8683,-0.2488
125,-0.5714,-1.0077,-0.2979,-0.5594,-0.7098,-1.0113,-0.6285,-0.5932,0.0976,-1.1071,-0.882,-0.9249,-0.0946,-0.1937,-0.1885,-0.4036,0.2658,0.7147,-0.558,0.0786,-0.2713,-0.7513,-0.8822,-0.3822,-0.2673,-0.6494,-0.1707,-0.1641,-0.7863,-0.1053
128.9062,-0.368,-0.7213,-0.1277,-0.209,-0.3487,-0.7023,-0.4226,-0.4311,0.2234,-1.0458,-0.8388,-0.7844,0.2165,0.1661,0.0077,-0.0868,0.452,0.7864,-0.3651,0.455,0.1546,-0.5467,-0.749,-0.2525,-0.3479,-0.6191,-0.1463,-0.1454,-0.6965,0.0287
132.8125,-0.1911,-0.4734,0.0253,0.1051,-0.0239,-0.4152,-0.2501,-0.2799,0.3414,-0.9965,-0.8101,-0.6609,0.4754,0.4615,0.1749,0.1782,0.5754,0.8243,-0.1805,0.7647,0.5204,-0.3637,-0.6139,-0.1686,-0.4664,-0.6083,-0.1599,-0.1485,-0.6094,0.1429
136.7188,-0.0536,-0.2776,0.1478,0.3642,0.2449,-0.1755,-0.1253,-0.148,0.4398,-0.9757,-0.8048,-0.5623,0.6622,0.672,0.3017,0.375,0.6341,0.8269,-0.0213,0.9902,0.8038,-0.2175,-0.4951,-0.1405,-0.6073,-0.6149,-0.2132,-0.1737,-0.5353,0.2319
140.625,0.0386,-0.1404,0.2305,0.5575,0.4466,0.0005,-0.0568,-0.0413,0.5092,-0.9962,-0.8256,-0.4928,0.7652,0.7874,0.3806,0.4965,0.6344,0.7981,0.1002,1.1255,0.9926,-0.1145,-0.4021,-0.1698,-0.7541,-0.637,-0.3026,-0.2182,-0.4829,0.2954
144.5312,0.085,-0.0629,0.2689,0.6813,0.578,0.107,-0.0466,0.0378,0.5444,-1.0646,-0.8688,-0.4524,0.7808,0.8067,0.409,0.5442,0.587,0.7455,0.1779,1.1743,1.0836,-0.0528,-0.3355,-0.2506,-0.8936,-0.6737,-0.4201,-0.2772,-0.4577,0.3361
148.4375,0.0896,-0.0421,0.2648,0.7374,0.642,0.1467,-0.0909,0.0894,0.5447,-1.1801,-0.9257,-0.4376,0.7131,0.7368,0.3881,0.5247,0.5037,0.6782,0.2114,1.1465,1.0805,-0.0257,-0.2906,-0.3711,-1.0173,-0.7257,-0.5557,-0.3445,-0.461,0.3584
152.3438,0.0581,-0.0735,0.2247,0.7309,0.6445,0.1276,-0.1813,0.1164,0.5134,-1.3351,-0.9845,-0.4423,0.5723,0.5899,0.3236,0.4476,0.3946,0.6043,0.204,1.0549,0.9911,-0.0249,-0.2619,-0.5161,-1.1216,-0.7938,-0.6984,-0.4142,-0.4895,0.3663
156.25,-0.0027,-0.1515,0.1591,0.6693,0.5934,0.0599,-0.3061,0.1231,0.4568,-1.517,-1.0332,-0.4588,0.3734,0.3816,0.224,0.3233,0.2671,0.5297,0.1613,0.9123,0.8261,-0.044,-0.2477,-0.6696,-1.2051,-0.8767,-0.8374,-0.4802,-0.536,0.3628
160.1562,-0.0865,-0.27,0.0794,0.562,0.4974,-0.0457,-0.4519,0.1139,0.3825,-1.7102,-1.0623,-0.48,0.1352,0.1304,0.1001,0.1622,0.1264,0.4582,0.0899,0.7307,0.5986,-0.0801,-0.2506,-0.8169,-1.2666,-0.9695,-0.9622,-0.5372,-0.5902,0.3494
164.0625,-0.1865,-0.4212,-0.0036,0.4201,0.3666,-0.1776,-0.6041,0.0924,0.2986,-1.8984,-1.0667,-0.5006,-0.1208,-0.1436,-0.0363,-0.0253,-0.0229,0.3919,-0.0036,0.5216,0.325,-0.1332,-0.2765,-0.9463,-1.303,-1.0635,-1.0629,-0.5807,-0.6412,0.3267
167.9688,-0.295,-0.596,-0.0819,0.2564,0.2131,-0.3232,-0.7481,0.0601,0.212,-2.0666,-1.047,-0.5177,-0.3718,-0.4185,-0.1734,-0.2277,-0.1757,0.3317,-0.1126,0.2969,0.0247,-0.2041,-0.33,-1.0495,-1.3106,-1.147,-1.1315,-0.6078,-0.6794,0.2947
171.875,-0.4033,-0.783,-0.1509,0.0852,0.0509,-0.4699,-0.8707,0.0174,0.1289,-2.2028,-1.0096,-0.5314,-0.5958,-0.6729,-0.3012,-0.4322,-0.3251,0.2781,-0.2305,0.0693,-0.2798,-0.2927,-0.4102,-1.1226,-1.2859,-1.208,-1.1627,-0.6175,-0.6982,0.2535
175.7812,-0.5018,-0.9692,-0.2089,-0.0792,-0.1052,-0.6059,-0.9615,-0.0356,0.054,-2.2996,-0.9653,-0.5436,-0.7743,-0.8874,-0.412,-0.6253,-0.4628,0.2317,-0.3504,-0.1477,-0.5659,-0.3958,-0.5091,-1.1654,-1.2288,-1.2375,-1.1551,-0.6117,-0.6952,0.2042
179.6875,-0.5817,-1.1413,-0.2559,-0.2246,-0.242,-0.7224,-1.0141,-0.0972,-0.0091,-2.356,-0.9269,-0.5573,-0.8955,-1.0478,-0.5016,-0.7942,-0.5809,0.193,-0.4655,-0.3412,-0.8131,-0.5074,-0.6125,-1.1813,-1.1435,-1.2317,-1.1123,-0.594,-0.6723,0.149
183.5938,-0.6368,-1.2872,-0.2925,-0.3426,-0.35,-0.8144,-1.0278,-0.1635,-0.0581,-2.3782,-0.9062,-0.5754,-0.9561,-1.1479,-0.569,-0.9284,-0.6729,0.1624,-0.569,-0.5008,-1.0068,-0.6193,-0.7039,-1.1767,-1.039,-1.1936,-1.0427,-0.57,-0.6346,0.0914
187.5,-0.6651,-1.3983,-0.3193,-0.4305,-0.4257,-0.8808,-1.0078,-0.228,-0.0924,-2.3787,-0.9116,-0.6005,-0.9628,-1.1905,-0.6167,-1.0223,-0.7366,0.1399,-0.6553,-0.6207,-1.1407,-0.7235,-0.7702,-1.1599,-0.9278,-1.1328,-0.9592,-0.5454,-0.5897,0.0353
191.4062,-0.6701,-1.4709,-0.3374,-0.4918,-0.4729,-0.9239,-0.9645,-0.2833,-0.1131,-2.375,-0.9457,-0.6348,-0.9308,-1.1874,-0.6496,-1.0757,-0.7738,0.1245,-0.7207,-0.7012,-1.2174,-0.8138,-0.8051,-1.1406,-0.824,-1.0638,-0.8774,-0.5257,-0.5452,-0.0156
195.3125,-0.6598,-1.5071,-0.3484,-0.535,-0.5015,-0.9493,-0.912,-0.3225,-0.123,-2.385,-1.0058,-0.6797,-0.8812,-1.1571,-0.6741,-1.0946,-0.7905,0.1135,-0.7639,-0.7479,-1.248,-0.887,-0.8098,-1.129,-0.7417,-1.0029,-0.8138,-0.5154,-0.5077,-0.0589
199.2188,-0.6451,-1.5141,-0.3549,-0.5715,-0.5255,-0.965,-0.8656,-0.3417,-0.1258,-2.4231,-1.084,-0.7356,-0.8363,-1.1208,-0.6973,-1.0889,-0.7945,0.1028,-0.7859,-0.7705,-1.2489,-0.9422,-0.7911,-1.1343,-0.692,-0.9651,-0.7828,-0.5183,-0.4819,-0.0932
203.125,-0.6365,-1.5026,-0.3609,-0.6129,-0.5596,-0.9803,-0.8393,-0.3409,-0.1262,-2.4964,-1.17,-0.8011,-0.8152,-1.0982,-0.7247,-1.0704,-0.7932,0.088,-0.7892,-0.7798,-1.2379,-0.9799,-0.7577,-1.1628,-0.6813,-0.9603,-0.7937,-0.5362,-0.4696,-0.1185
207.0312,-0.642,-1.4836,-0.3705,-0.667,-0.6152,-1.0035,-0.8427,-0.3247,-0.1283,-2.6023,-1.2525,-0.8727,-0.8296,-1.1028,-0.7596,-1.0499,-0.7914,0.0649,-0.7767,-0.7847,-1.2299,-1.0007,-0.7167,-1.2156,-0.7102,-0.9908,-0.8482,-0.5687,-0.471,-0.1349
210.9375,-0.6645,-1.4663,-0.3868,-0.7363,-0.6969,-1.04,-0.8793,-0.3011,-0.1355,-2.7299,-1.3223,-0.9442,-0.8814,-1.1397,-0.8015,-1.0345,-0.7907,0.032,-0.751,-0.7904,-1.2341,-1.0043,-0.6722,-1.2874,-0.773,-1.0505,-0.9384,-0.6122,-0.4846,-0.1429
214.8438,-0.7012,-1.4551,-0.4111,-0.816,-0.8008,-1.0898,-0.9456,-0.2787,-0.1489,-2.8623,-1.3728,-1.0065,-0.9626,-1.2042,-0.8457,-1.0268,-0.7891,-0.0087,-0.7138,-0.7971,-1.2523,-0.9893,-0.6251,-1.3667,-0.8579,-1.125,-1.0481,-0.6602,-0.5076,-0.1425
218.75,-0.7442,-1.4492,-0.4414,-0.8951,-0.9146,-1.1471,-1.0312,-0.2649,-0.1671,-2.9804,-1.4008,-1.0488,-1.0567,-1.283,-0.8839,-1.0242,-0.7819,-0.0508,-0.6655,-0.8004,-1.2787,-0.9537,-0.5738,-1.437,-0.9491,-1.1948,-1.1547,-0.7038,-0.5362,-0.133
222.6562,-0.7822,-1.4432,-0.4731,-0.9585,-1.0198,-1.2013,-1.1206,-0.2634,-0.1863,-3.0674,-1.4064,-1.0598,-1.1424,-1.3566,-0.9058,-1.0205,-0.7626,-0.0841,-0.6047,-0.7931,-1.3019,-0.8946,-0.5154,-1.48,-1.0286,-1.2391,-1.2337,-0.733,-0.566,-0.1133
226.5625,-0.8034,-1.4285,-0.4994,-0.9909,-1.0956,-1.2393,-1.1963,-0.2735,-0.2011,-3.1123,-1.3919,-1.0304,-1.1981,-1.4037,-0.9015,-1.0079,-0.7242,-0.0967,-0.5283,-0.7675,-1.3077,-0.8094,-0.447,-1.4788,-1.0792,-1.2399,-1.2635,-0.7387,-0.5916,-0.0815
230.4688,-0.7985,-1.3968,-0.5127,-0.9801,-1.1244,-1.2486,-1.2425,-0.2914,-0.2071,-3.1117,-1.3623,-0.9563,-1.2062,-1.4058,-0.8646,-0.9798,-0.6614,-0.0783,-0.4328,-0.7179,-1.2827,-0.6964,-0.367,-1.4215,-1.0874,-1.1862,-1.2302,-0.715,-0.608,-0.0356
234.375,-0.7636,-1.343,-0.5069,-0.9214,-1.0959,-1.2203,-1.2487,-0.3122,-0.2033,-3.0709,-1.3249,-0.8416,-1.1577,-1.3517,-0.7949,-0.9334,-0.5731,-0.024,-0.3155,-0.643,-1.218,-0.5562,-0.2756,-1.3043,-1.0468,-1.0766,-1.1312,-0.6608,-0.6115,0.0251
238.2812,-0.7013,-1.2671,-0.4793,-0.8188,-1.0101,-1.1517,-1.2125,-0.3318,-0.1932,-3.0026,-1.2896,-0.6997,-1.0539,-1.2406,-0.6999,-0.8713,-0.4634,0.0634,-0.1772,-0.5481,-1.1125,-0.393,-0.1746,-1.1333,-0.9595,-0.9191,-0.976,-0.5811,-0.6007,0.0991
242.1875,-0.6207,-1.1758,-0.4313,-0.6852,-0.8779,-1.0461,-1.1407,-0.3492,-0.185,-2.9241,-1.2681,-0.5523,-0.9069,-1.0828,-0.5945,-0.8022,-0.3427,0.1731,-0.0235,-0.4446,-0.9736,-0.2147,-0.0667,-0.9237,-0.8365,-0.7299,-0.7852,-0.4867,-0.5776,0.1811
246.0938,-0.5353,-1.0802,-0.3687,-0.5392,-0.718,-0.9127,-1.047,-0.3661,-0.1891,-2.8534,-1.2719,-0.4262,-0.7371,-0.898,-0.4979,-0.7392,-0.2256,0.2883,0.1349,-0.3487,-0.8169,-0.0336,0.0441,-0.6984,-0.6959,-0.5289,-0.5862,-0.3928,-0.5473,0.2633
250,-0.4592,-0.9938,-0.3,-0.4009,-0.5534,-0.7633,-0.9498,-0.3859,-0.2149,-2.8056,-1.3094,-0.3472,-0.5683,-0.711,-0.4298,-0.6972,-0.1278,0.3902,0.2834,-0.2777,-0.6628,0.1354,0.1536,-0.4836,-0.559,-0.3359,-0.4081,-0.3162,-0.5162,0.3359
253.9062,-0.4043,-0.929,-0.2341,-0.288,-0.4062,-0.6108,-0.8675,-0.4124,-0.2677,-2.7898,-1.3831,-0.3338,-0.4235,-0.5468,-0.4057,-0.6891,-0.0628,0.4621,0.4067,-0.2469,-0.5325,0.2771,0.2576,-0.3041,-0.4453,-0.1667,-0.2757,-0.2719,-0.4904,0.3903
257.8125,-0.3774,-0.8944,-0.1781,-0.2119,-0.2939,-0.4668,-0.8152,-0.4478,-0.3468,-2.808,-1.4879,-0.3929,-0.3204,-0.426,-0.4333,-0.7232,-0.0386,0.493,0.4916,-0.2653,-0.4442,0.378,0.3512,-0.179,-0.3685,-0.0307,-0.2056,-0.27,-0.4733,0.4205
261.7188,-0.3795,-0.8933,-0.1357,-0.1771,-0.2275,-0.3417,-0.8023,-0.4917,-0.4456,-2.8555,-1.6114,-0.5177,-0.2692,-0.3622,-0.5114,-0.8012,-0.057,0.4792,0.5298,-0.3347,-0.4096,0.4287,0.4296,-0.1186,-0.3344,0.0689,-0.2034,-0.3136,-0.4644,0.4251
265.625,-0.4063,-0.924,-0.1065,-0.1818,-0.2112,-0.2438,-0.832,-0.5409,-0.5527,-2.9229,-1.7361,-0.6893,-0.2725,-0.3606,-0.6299,-0.9188,-0.1135,0.4246,0.5189,-0.4499,-0.4333,0.425,0.4881,-0.1237,-0.3404,0.1345,-0.264,-0.3983,-0.4595,0.4063
269.5312,-0.4506,-0.9807,-0.0864,-0.2201,-0.2439,-0.1791,-0.9013,-0.589,-0.654,-2.9988,-1.8426,-0.8806,-0.3271,-0.4197,-0.7728,-1.0666,-0.1997,0.3381,0.4616,-0.6008,-0.5127,0.3677,0.5212,-0.1868,-0.3777,0.1711,-0.3743,-0.5136,-0.4519,0.3695
273.4375,-0.5049,-1.0559,-0.0699,-0.2849,-0.3206,-0.1506,-1.0028,-0.6289,-0.7359,-3.0728,-1.9144,-1.0629,-0.4266,-0.5336,-0.922,-1.2335,-0.306,0.2317,0.3641,-0.7755,-0.6409,0.2614,0.5227,-0.2951,-0.4338,0.1852,-0.5168,-0.6457,-0.4353,0.3208
277.3438,-0.5639,-1.142,-0.0517,-0.3699,-0.4346,-0.158,-1.1269,-0.6537,-0.788,-3.1386,-1.9418,-1.2118,-0.5645,-0.6944,-1.0619,-1.4092,-0.4241,0.1162,0.2333,-0.9636,-0.809,0.1129,0.4852,-0.4339,-0.4958,0.1823,-0.6734,-0.7804,-0.4055,0.2654
281.25,-0.626,-1.2335,-0.0295,-0.4715,-0.5788,-0.1983,-1.2646,-0.6599,-0.8057,-3.1953,-1.9243,-1.313,-0.7352,-0.895,-1.1821,-1.5864,-0.5485,-0.0004,0.0754,-1.1582,-1.0086,-0.0709,0.4012,-0.59,-0.553,0.1666,-0.8288,-0.9057,-0.3634,0.2066
285.1562,-0.6932,-1.3274,-0.0047,-0.5887,-0.7471,-0.2662,-1.4083,-0.6481,-0.7913,-3.2479,-1.8709,-1.3645,-0.9344,-1.1293,-1.2799,-1.7618,-0.6768,-0.1147,-0.1042,-1.3562,-1.233,-0.2826,0.2658,-0.754,-0.599,0.1405,-0.9724,-1.0138,-0.3149,0.1456
289.0625,-0.7696,-1.4233,0.0181,-0.7218,-0.9335,-0.356,-1.553,-0.6233,-0.7531,-3.3048,-1.7974,-1.3763,-1.1578,-1.3914,-1.3585,-1.9346,-0.8087,-0.2268,-0.2995,-1.5571,-1.4761,-0.5139,0.0806,-0.9199,-0.6329,0.1052,-1.0985,-1.1008,-0.2704,0.0822
292.9688,-0.8584,-1.5221,0.0318,-0.8711,-1.1323,-0.4623,-1.6952,-0.5933,-0.7033,-3.3751,-1.7224,-1.3665,-1.3987,-1.6735,-1.4251,-2.1049,-0.9438,-0.3383,-0.5025,-1.7599,-1.7307,-0.7539,-0.1432,-1.0847,-0.6584,0.0617,-1.2054,-1.1661,-0.242,0.0164
296.875,-0.9602,-1.6248,0.03,-1.0346,-1.3366,-0.5808,-1.8314,-0.5664,-0.6549,-3.4642,-1.6624,-1.3566,-1.6459,-1.9645,-1.4875,-2.2702,-1.0798,-0.4497,-0.7017,-1.9607,-1.9869,-0.9885,-0.3844,-1.2459,-0.6824,0.0112,-1.2935,-1.2114,-0.2404,-0.051
300.7812,-1.0715,-1.7313,0.008,-1.2074,-1.5377,-0.7073,-1.9574,-0.5489,-0.6189,-3.5709,-1.628,-1.365,-1.8836,-2.2485,-1.5508,-2.4247,-1.2111,-0.5583,-0.8829,-2.1517,-2.2312,-1.2015,-0.6152,-1.3999,-0.7124,-0.0448,-1.3635,-1.2391,-0.2723,-0.1179
304.6875,-1.1854,-1.8398,-0.0353,-1.3814,-1.726,-0.8369,-2.0675,-0.5444,-0.6018,-3.6863,-1.6226,-1.4029,-2.0925,-2.5064,-1.6161,-2.5588,-1.3297,-0.6575,-1.0316,-2.3212,-2.4474,-1.3762,-0.8072,-1.5405,-0.7548,-0.1043,-1.4151,-1.2516,-0.3384,-0.1811
308.5938,-1.2931,-1.9465,-0.0969,-1.5463,-1.8914,-0.9636,-2.1548,-0.5531,-0.6058,-3.7945,-1.6422,-1.4719,-2.2526,-2.7179,-1.6803,-2.6614,-1.4265,-0.7377,-1.1361,-2.4562,-2.6194,-1.4997,-0.9381,-1.6599,-0.813,-0.1646,-1.4468,-1.251,-0.4325,-0.2373
312.5,-1.3854,-2.0463,-0.17,-1.6918,-2.0249,-1.0797,-2.2129,-0.573,-0.6288,-3.8758,-1.6776,-1.5641,-2.3471,-2.8649,-1.737,-2.7227,-1.4938,-0.7891,-1.1905,-2.5449,-2.7341,-1.5649,-0.9973,-1.7492,-0.8868,-0.2229,-1.4555,-1.2387,-0.5427,-0.2845
316.4062,-1.4549,-2.1329,-0.2454,-1.8081,-2.1199,-1.176,-2.2369,-0.6003,-0.6656,-3.9114,-1.7178,-1.6653,-2.366,-2.9354,-1.7786,-2.7365,-1.5272,-0.8043,-1.1959,-2.5798,-2.7841,-1.5725,-0.9865,-1.8012,-0.9728,-0.2753,-1.4385,-1.2163,-0.6529,-0.3225
320.3125,-1.4963,-2.1998,-0.3131,-1.8879,-2.1729,-1.2426,-2.2251,-0.6295,-0.7094,-3.8877,-1.7522,-1.7582,-2.3073,-2.9249,-1.798,-2.7021,-1.5268,-0.7809,-1.16,-2.5593,-2.7692,-1.5298,-0.9183,-1.8115,-1.0645,-0.3181,-1.3938,-1.1858,-0.7452,-0.3529
324.2188,-1.5063,-2.24,-0.3645,-1.9268,-2.1835,-1.2703,-2.1794,-0.6543,-0.7524,-3.7995,-1.7736,-1.8275,-2.1782,-2.8372,-1.7899,-2.6234,-1.4961,-0.7215,-1.0944,-2.487,-2.6954,-1.4485,-0.8106,-1.7793,-1.1526,-0.3476,-1.3212,-1.1494,-0.8034,-0.3778
328.125,-1.4837,-2.2479,-0.3937,-1.9232,-2.1541,-1.2527,-2.1046,-0.6678,-0.7875,-3.6517,-1.7788,-1.8618,-1.9928,-2.6831,-1.7523,-2.5083,-1.4409,-0.6337,-1.0114,-2.3714,-2.5737,-1.3416,-0.6814,-1.7071,-1.2262,-0.3614,-1.2227,-1.11,-0.8161,-0.3991
332.0312,-1.4288,-2.2193,-0.399,-1.8787,-2.0893,-1.1887,-2.0078,-0.6637,-0.8084,-3.4586,-1.7685,-1.8566,-1.7697,-2.4782,-1.6861,-2.3665,-1.3667,-0.5271,-0.921,-2.2233,-2.417,-1.2201,-0.5442,-1.6001,-1.2739,-0.3589,-1.1017,-1.0695,-0.7791,-0.4168
335.9375,-1.344,-2.1532,-0.3823,-1.7978,-1.9954,-1.0835,-1.8968,-0.6385,-0.8111,-3.2408,-1.7465,-1.8144,-1.5288,-2.24,-1.5955,-2.2083,-1.2779,-0.412,-0.829,-2.0538,-2.2381,-1.0919,-0.4064,-1.4651,-1.286,-0.3415,-0.9635,-1.0294,-0.697,-0.4293
339.8438,-1.2344,-2.0525,-0.3492,-1.6878,-1.8799,-0.949,-1.779,-0.5923,-0.7947,-3.0218,-1.7178,-1.7446,-1.2883,-1.9858,-1.4871,-2.0433,-1.1768,-0.298,-0.7365,-1.8732,-2.0477,-0.9609,-0.2695,-1.3094,-1.2571,-0.3124,-0.8143,-0.9899,-0.5824,-0.4332
343.75,-1.1075,-1.9247,-0.3069,-1.558,-1.7507,-0.8018,-1.6605,-0.5296,-0.7613,-2.8242,-1.6872,-1.6615,-1.0626,-1.7309,-1.3696,-1.8803,-1.0647,-0.1927,-0.6416,-1.69,-1.8541,-0.8286,-0.1322,-1.1412,-1.1877,-0.276,-0.6619,-0.9509,-0.4537,-0.4252
347.6562,-0.9738,-1.7813,-0.2634,-1.4193,-1.6161,-0.6611,-1.546,-0.4589,-0.7164,-2.6658,-1.658,-1.5824,-0.8615,-1.4881,-1.2523,-1.7271,-0.9435,-0.1018,-0.542,-1.5109,-1.6637,-0.6966,0.0052,-0.9688,-1.0845,-0.2368,-0.5151,-0.9117,-0.3312,-0.4029
351.5625,-0.8456,-1.6361,-0.2258,-1.2824,-1.4836,-0.544,-1.4388,-0.3913,-0.6679,-2.5575,-1.6316,-1.5233,-0.6902,-1.2674,-1.1443,-1.5905,-0.8173,-0.0285,-0.4378,-1.3417,-1.4818,-0.5681,0.1372,-0.8012,-0.9588,-0.1983,-0.3834,-0.8718,-0.2335,-0.3669
355.4688,-0.7352,-1.5036,-0.1991,-1.1569,-1.3597,-0.4632,-1.3404,-0.338,-0.6247,-2.5016,-1.6075,-1.4962,-0.5502,-1.0764,-1.0532,-1.476,-0.6932,0.0265,-0.3333,-1.1874,-1.3138,-0.4498,0.2516,-0.6476,-0.8236,-0.1621,-0.2757,-0.8303,-0.1748,-0.3204
359.375,-0.6531,-1.3957,-0.1866,-1.0502,-1.2491,-0.4243,-1.2509,-0.3083,-0.5948,-2.4919,-1.5836,-1.5058,-0.4405,-0.9204,-0.9842,-1.3871,-0.5805,0.0649,-0.2369,-1.0528,-1.1651,-0.3514,0.3316,-0.5165,-0.6907,-0.1279,-0.1984,-0.7868,-0.1626,-0.2693
363.2812,-0.6056,-1.3201,-0.1889,-0.9663,-1.1548,-0.4261,-1.1688,-0.3072,-0.5831,-2.5139,-1.5567,-1.5489,-0.3588,-0.8025,-0.9399,-1.3252,-0.4887,0.0909,-0.1594,-0.9416,-1.0412,-0.2827,0.3613,-0.4148,-0.569,-0.094,-0.1542,-0.7412,-0.1972,-0.2202
367.1875,-0.593,-1.2792,-0.205,-0.9059,-1.0779,-0.4615,-1.0916,-0.3346,-0.5903,-2.5475,-1.5232,-1.6148,-0.3014,-0.7224,-0.9204,-1.2891,-0.4259,0.1102,-0.1102,-0.8565,-0.9458,-0.2511,0.3323,-0.3467,-0.4644,-0.0584,-0.1405,-0.6939,-0.2716,-0.1785
371.0938,-0.6094,-1.2699,-0.2318,-0.8666,-1.0184,-0.5197,-1.0167,-0.3844,-0.6127,-2.5705,-1.4798,-1.688,-0.264,-0.6772,-0.9236,-1.2752,-0.3957,0.1295,-0.0949,-0.798,-0.88,-0.2582,0.2482,-0.3123,-0.3795,-0.0198,-0.1495,-0.6468,-0.373,-0.1473
375,-0.6444,-1.2848,-0.2649,-0.8445,-0.9761,-0.5882,-0.9419,-0.4468,-0.6428,-2.5631,-1.4246,-1.7519,-0.2419,-0.6613,-0.9458,-1.2783,-0.3973,0.1552,-0.1136,-0.7647,-0.8417,-0.2995,0.1249,-0.3082,-0.3155,0.0209,-0.1694,-0.6027,-0.485,-0.1271
378.9062,-0.6853,-1.3136,-0.2985,-0.8348,-0.9503,-0.6542,-0.8664,-0.5095,-0.6713,-2.5119,-1.3571,-1.7916,-0.2298,-0.667,-0.9821,-1.2927,-0.4253,0.1919,-0.1601,-0.7533,-0.8259,-0.3642,-0.0129,-0.3275,-0.2717,0.0616,-0.1863,-0.5649,-0.5905,-0.1158
382.8125,-0.7195,-1.3455,-0.3266,-0.8327,-0.9406,-0.7063,-0.7912,-0.5607,-0.6892,-2.413,-1.2792,-1.7976,-0.223,-0.6862,-1.0267,-1.3124,-0.4712,0.2416,-0.224,-0.7593,-0.8253,-0.4382,-0.1371,-0.3609,-0.2463,0.0994,-0.1874,-0.5362,-0.6746,-0.1097
386.7188,-0.7372,-1.3707,-0.3436,-0.8341,-0.9454,-0.7356,-0.7186,-0.5913,-0.6897,-2.2727,-1.1944,-1.7668,-0.2167,-0.7109,-1.0735,-1.3324,-0.5256,0.3038,-0.2922,-0.7775,-0.8321,-0.5063,-0.2231,-0.3982,-0.2361,0.1319,-0.1633,-0.518,-0.727,-0.1054
390.625,-0.7331,-1.3817,-0.3455,-0.8357,-0.9622,-0.7369,-0.6509,-0.5961,-0.6693,-2.106,-1.1076,-1.7032,-0.207,-0.7336,-1.1166,-1.3488,-0.5797,0.3753,-0.3517,-0.8029,-0.8386,-0.5554,-0.2545,-0.4294,-0.2376,0.1575,-0.1104,-0.5099,-0.7434,-0.0996
394.5312,-0.7065,-1.3738,-0.3297,-0.834,-0.986,-0.7099,-0.5896,-0.5742,-0.6282,-1.9329,-1.0239,-1.6164,-0.1901,-0.7481,-1.1509,-1.3591,-0.6271,0.4511,-0.3921,-0.8308,-0.8385,-0.5763,-0.2271,-0.4464,-0.2475,0.1764,-0.0317,-0.51,-0.7253,-0.0909
398.4375,-0.6612,-1.3457,-0.295,-0.8258,-1.0094,-0.6586,-0.5343,-0.5282,-0.5692,-1.7736,-0.9482,-1.5189,-0.1624,-0.7492,-1.1722,-1.3621,-0.6642,0.5256,-0.4072,-0.8567,-0.8271,-0.5654,-0.1487,-0.4439,-0.263,0.1894,0.0639,-0.5153,-0.6791,-0.0793
402.3438,-0.6034,-1.2981,-0.2408,-0.8073,-1.023,-0.5896,-0.4819,-0.4631,-0.4969,-1.6447,-0.8839,-1.4226,-0.1205,-0.7324,-1.1774,-1.3577,-0.6902,0.594,-0.3958,-0.8768,-0.8013,-0.5242,-0.0376,-0.42,-0.2829,0.1978,0.1633,-0.5224,-0.6136,-0.0657
406.25,-0.5406,-1.2341,-0.1667,-0.7753,-1.0172,-0.5102,-0.4284,-0.3849,-0.4158,-1.5561,-0.8327,-1.3354,-0.0619,-0.6954,-1.164,-1.3461,-0.7055,0.6528,-0.3609,-0.8877,-0.7604,-0.4589,0.0825,-0.3761,-0.3069,0.203,0.2521,-0.5273,-0.5385,-0.0513
410.1562,-0.4797,-1.1583,-0.0726,-0.7276,-0.9848,-0.4268,-0.3699,-0.2996,-0.3293,-1.5104,-0.7938,-1.2605,0.0137,-0.6388,-1.1308,-1.3284,-0.7108,0.7005,-0.3093,-0.8874,-0.7064,-0.3788,0.1876,-0.3165,-0.3355,0.2059,0.3175,-0.5266,-0.4621,-0.0368
414.0625,-0.426,-1.0773,0.0394,-0.6653,-0.9237,-0.3446,-0.3055,-0.2127,-0.2402,-1.5039,-0.7647,-1.1959,0.1025,-0.5674,-1.0784,-1.3068,-0.707,0.7374,-0.2505,-0.8761,-0.6444,-0.2948,0.259,-0.2482,-0.37,0.2073,0.35,-0.5173,-0.3908,-0.0224
417.9688,-0.3835,-0.999,0.1635,-0.5935,-0.8393,-0.269,-0.2386,-0.13,-0.1511,-1.5292,-0.7432,-1.1379,0.1958,-0.4905,-1.0105,-1.2852,-0.6947,0.7643,-0.195,-0.8574,-0.5835,-0.2185,0.2865,-0.1803,-0.4121,0.2074,0.3447,-0.4983,-0.3291,-0.0082
421.875,-0.3556,-0.9332,0.2895,-0.5218,-0.7448,-0.2062,-0.1775,-0.0573,-0.0661,-1.5772,-0.7285,-1.0835,0.2801,-0.4221,-0.9345,-1.2693,-0.6757,0.7816,-0.1541,-0.8384,-0.5354,-0.1614,0.2685,-0.123,-0.4627,0.2059,0.3019,-0.4711,-0.2804,0.0058
425.7812,-0.3452,-0.89,0.4037,-0.463,-0.6594,-0.1639,-0.1342,-0.0012,0.0088,-1.6399,-0.7228,-1.0332,0.3396,-0.3779,-0.8616,-1.266,-0.6533,0.7885,-0.1382,-0.8288,-0.5127,-0.1342,0.2101,-0.0865,-0.5215,0.2022,0.2269,-0.4395,-0.2471,0.0183
429.6875,-0.355,-0.8788,0.4909,-0.4313,-0.604,-0.1505,-0.1211,0.0325,0.0661,-1.7105,-0.73,-0.9912,0.3592,-0.3727,-0.8042,-1.2821,-0.6326,0.7829,-0.1561,-0.8395,-0.5271,-0.1468,0.1192,-0.0793,-0.5858,0.1957,0.1296,-0.409,-0.2313,0.0267
433.5938,-0.387,-0.9062,0.5386,-0.4386,-0.5967,-0.1731,-0.148,0.0391,0.0982,-1.7841,-0.7539,-0.9642,0.3286,-0.4171,-0.7736,-1.3222,-0.6202,0.7616,-0.2131,-0.8797,-0.5859,-0.2064,0.004,-0.1064,-0.6501,0.1857,0.0231,-0.3853,-0.2343,0.0274
437.5,-0.4412,-0.9744,0.5393,-0.4918,-0.6477,-0.2346,-0.2184,0.0173,0.0997,-1.8564,-0.7958,-0.9591,0.245,-0.5143,-0.7765,-1.388,-0.6223,0.7217,-0.3097,-0.9543,-0.6905,-0.3162,-0.1286,-0.1685,-0.7071,0.172,-0.0786,-0.3729,-0.2571,0.0161
441.4062,-0.5153,-1.0802,0.4929,-0.5905,-0.7568,-0.3324,-0.3283,-0.0304,0.07,-1.9233,-0.8525,-0.9805,0.1139,-0.6594,-0.8139,-1.4764,-0.643,0.6616,-0.4415,-1.0631,-0.8353,-0.4735,-0.2726,-0.2622,-0.7499,0.154,-0.1631,-0.3744,-0.2992,-0.0107
445.3125,-0.6045,-1.2151,0.4064,-0.7267,-0.9123,-0.4566,-0.4659,-0.0968,0.0141,-1.9801,-0.9163,-1.029,-0.0524,-0.8402,-0.8803,-1.5806,-0.6827,0.5816,-0.5988,-1.1993,-1.0089,-0.6694,-0.4226,-0.3809,-0.774,0.1314,-0.2227,-0.3904,-0.3591,-0.0543
449.2188,-0.7019,-1.3663,0.2925,-0.8856,-1.094,-0.5916,-0.6149,-0.1717,-0.0575,-2.0225,-0.976,-1.1007,-0.2373,-1.0397,-0.9662,-1.691,-0.737,0.4839,-0.7685,-1.3514,-1.1963,-0.8888,-0.5725,-0.5167,-0.78,0.1037,-0.2557,-0.42,-0.4331,-0.1124
453.125,-0.8002,-1.5191,0.1667,-1.0492,-1.2775,-0.7188,-0.7572,-0.2434,-0.1308,-2.0464,-1.0191,-1.1885,-0.4242,-1.2395,-1.0596,-1.7965,-0.7979,0.372,-0.9363,-1.5047,-1.3813,-1.1123,-0.716,-0.6609,-0.7742,0.0696,-0.2671,-0.4613,-0.5158,-0.1793
457.0312,-0.8925,-1.6591,0.045,-1.1993,-1.439,-0.8202,-0.8777,-0.3015,-0.1914,-2.0492,-1.0345,-1.2834,-0.5986,-1.4228,-1.1494,-1.8872,-0.8546,0.2502,-1.088,-1.6444,-1.5498,-1.3193,-0.8465,-0.8054,-0.7676,0.0277,-0.2666,-0.5115,-0.5997,-0.2462
460.9375,-0.9733,-1.7744,-0.059,-1.3212,-1.5607,-0.8827,-0.9661,-0.3384,-0.2276,-2.0304,-1.015,-1.3762,-0.75,-1.5771,-1.2267,-1.9551,-0.8968,0.1226,-1.2124,-1.7581,-1.6914,-1.4918,-0.9586,-0.9432,-0.773,-0.0236,-0.2661,-0.567,-0.6767,-0.3031
464.8438,-1.0395,-1.857,-0.1353,-1.406,-1.6338,-0.9003,-1.0184,-0.351,-0.2329,-1.9922,-0.9581,-1.4587,-0.8723,-1.6955,-1.2862,-1.9957,-0.9165,-0.0063,-1.3024,-1.8377,-1.8003,-1.6173,-1.0491,-1.0681,-0.8009,-0.0852,-0.2764,-0.6234,-0.739,-0.341
468.75,-1.0897,-1.9035,-0.1787,-1.4518,-1.6588,-0.8762,-1.0366,-0.3412,-0.207,-1.9392,-0.8675,-1.5248,-0.9629,-1.7766,-1.326,-2.0084,-0.9105,-0.1322,-1.3556,-1.8809,-1.8761,-1.6918,-1.1187,-1.1758,-0.856,-0.156,-0.3044,-0.6753,-0.7809,-0.3542
472.6562,-1.1243,-1.9149,-0.1887,-1.463,-1.6447,-0.8208,-1.0268,-0.3151,-0.1558,-1.8784,-0.7515,-1.5701,-1.0219,-1.8236,-1.3471,-1.9955,-0.8813,-0.2506,-1.3744,-1.8909,-1.9221,-1.7193,-1.1708,-1.2627,-0.9352,-0.2319,-0.3511,-0.7166,-0.7999,-0.3415
476.5625,-1.1442,-1.8963,-0.1693,-1.4485,-1.6058,-0.7504,-0.9975,-0.2817,-0.0901,-1.8178,-0.6225,-1.5927,-1.0512,-1.8427,-1.3519,-1.9623,-0.8362,-0.3567,-1.3644,-1.875,-1.9444,-1.7101,-1.2094,-1.3261,-1.0278,-0.3056,-0.4112,-0.7417,-0.797,-0.3066
480.4688,-1.1503,-1.8553,-0.1276,-1.4191,-1.5576,-0.6831,-0.9578,-0.2505,-0.0225,-1.765,-0.4949,-1.5925,-1.0533,-1.8408,-1.3435,-1.9148,-0.785,-0.4453,-1.3323,-1.8422,-1.9497,-1.6765,-1.2355,-1.3635,-1.1178,-0.367,-0.4741,-0.7457,-0.7764,-0.2574
484.375,-1.1428,-1.8011,-0.0725,-1.3852,-1.5138,-0.635,-0.9162,-0.2297,0.0344,-1.7254,-0.3833,-1.5714,-1.0314,-1.8237,-1.3238,-1.859,-0.737,-0.511,-1.2832,-1.8012,-1.9437,-1.6285,-1.2447,-1.3723,-1.188,-0.405,-0.5265,-0.7263,-0.7445,-0.2034
488.2812,-1.1217,-1.7431,-0.0135,-1.3551,-1.4833,-0.6167,-0.88,-0.2242,0.0709,-1.7011,-0.3007,-1.5333,-0.9894,-1.7954,-1.2943,-1.7999,-0.6989,-0.5492,-1.2197,-1.7581,-1.9298,-1.5708,-1.2274,-1.3505,-1.2236,-0.4106,-0.5557,-0.6841,-0.7088,-0.1538
492.1875,-1.0875,-1.6902,0.0406,-1.3337,-1.47,-0.6311,-0.8549,-0.2353,0.0809,-1.6909,-0.2573,-1.484,-0.9321,-1.7574,-1.2558,-1.7408,-0.6725,-0.5567,-1.1412,-1.7157,-1.9094,-1.5026,-1.1713,-1.2971,-1.216,-0.3789,-0.5529,-0.6232,-0.6765,-0.1158
496.0938,-1.0426,-1.6491,0.082,-1.323,-1.4732,-0.6731,-0.8451,-0.2614,0.0623,-1.6909,-0.2586,-1.4305,-0.8652,-1.7103,-1.2093,-1.6838,-0.6557,-0.5335,-1.0462,-1.6746,-1.8824,-1.4193,-1.0677,-1.2136,-1.1637,-0.3116,-0.5151,-0.5506,-0.6531,-0.0927
500,-0.9921,-1.6248,0.1043,-1.3226,-1.4887,-0.7319,-0.8529,-0.2988,0.0167,-1.6962,-0.3045,-1.3799,-0.7956,-1.6543,-1.1568,-1.6299,-0.6429,-0.4832,-0.9334,-1.6338,-1.8487,-1.3161,-0.9166,-1.1044,-1.0726,-0.2168,-0.4455,-0.4748,-0.6424,-0.0846
503.9062,-0.9432,-1.6194,0.102,-1.3304,-1.5112,-0.7937,-0.878,-0.3434,-0.0516,-1.7023,-0.3897,-1.3387,-0.7302,-1.5902,-1.1011,-1.5801,-0.6278,-0.4136,-0.8047,-1.5928,-1.8086,-1.1913,-0.7293,-0.9771,-0.9542,-0.108,-0.3526,-0.404,-0.6464,-0.089
507.8125,-0.9048,-1.6318,0.0709,-1.3435,-1.5352,-0.8451,-0.9179,-0.3917,-0.1369,-1.7062,-0.5036,-1.3122,-0.6752,-1.52,-1.0459,-1.535,-0.6049,-0.3354,-0.6654,-1.5514,-1.7632,-1.0483,-0.5279,-0.8423,-0.8236,-0.0017,-0.2485,-0.3448,-0.666,-0.1019
511.7188,-0.885,-1.6579,0.0093,-1.3582,-1.556,-0.8757,-0.9673,-0.4403,-0.2323,-1.7069,-0.6316,-1.3035,-0.6348,-1.4465,-0.9953,-1.4949,-0.5705,-0.2598,-0.5239,-1.5104,-1.7135,-0.8955,-0.3404,-0.712,-0.6973,0.0865,-0.146,-0.3008,-0.7008,-0.1185
515.625,-0.8888,-1.6906,-0.0812,-1.3708,-1.57,-0.8792,-1.0189,-0.4851,-0.3309,-1.7035,-0.7576,-1.3132,-0.6103,-1.3724,-0.9527,-1.4591,-0.5237,-0.1963,-0.3899,-1.4704,-1.6603,-0.745,-0.1943,-0.5987,-0.5906,0.1451,-0.0564,-0.2725,-0.7488,-0.1338
519.5312,-0.9162,-1.721,-0.1948,-1.3774,-1.5747,-0.8545,-1.0643,-0.5211,-0.4255,-1.6946,-0.8651,-1.3387,-0.5999,-1.3003,-0.9204,-1.4262,-0.4652,-0.1496,-0.2728,-1.4317,-1.6036,-0.6103,-0.1092,-0.5127,-0.5159,0.1698,0.0122,-0.2569,-0.8067,-0.1431
523.4375,-0.9621,-1.7398,-0.3217,-1.3752,-1.5692,-0.8052,-1.0954,-0.5414,-0.5091,-1.6773,-0.9399,-1.3741,-0.5991,-1.2329,-0.8989,-1.3941,-0.3981,-0.1192,-0.1796,-1.3945,-1.5435,-0.5034,-0.0929,-0.4609,-0.4803,0.1634,0.0566,-0.2491,-0.869,-0.1424
527.3438,-1.017,-1.7403,-0.4497,-1.3627,-1.5538,-0.7397,-1.1058,-0.5393,-0.5756,-1.6472,-0.9722,-1.4117,-0.6029,-1.1728,-0.8875,-1.3619,-0.3271,-0.0998,-0.1145,-1.3593,-1.4812,-0.4332,-0.1396,-0.4458,-0.4846,0.1352,0.0782,-0.2437,-0.929,-0.1294
531.25,-1.07,-1.7194,-0.5666,-1.3409,-1.5304,-0.6695,-1.0926,-0.5099,-0.6207,-1.6007,-0.9582,-1.4438,-0.6065,-1.123,-0.8853,-1.3304,-0.2584,-0.0835,-0.0787,-1.3277,-1.4203,-0.4038,-0.2327,-0.4656,-0.5232,0.0972,0.0819,-0.2367,-0.9803,-0.1043
535.1562,-1.1113,-1.679,-0.6625,-1.3128,-1.5021,-0.6075,-1.0571,-0.4519,-0.6423,-1.5359,-0.9014,-1.4655,-0.6075,-1.0866,-0.8911,-1.303,-0.1991,-0.0622,-0.0704,-1.3028,-1.3656,-0.4137,-0.3487,-0.5143,-0.5844,0.0606,0.0748,-0.2268,-1.0185,-0.0704
539.0625,-1.1342,-1.6243,-0.7311,-1.2825,-1.4723,-0.5651,-1.004,-0.369,-0.641,-1.4549,-0.8112,-1.4761,-0.6055,-1.0655,-0.9035,-1.284,-0.1566,-0.0306,-0.0858,-1.287,-1.3222,-0.4564,-0.4631,-0.5834,-0.6531,0.0333,0.0638,-0.2157,-1.0421,-0.0342
542.9688,-1.1362,-1.5629,-0.7699,-1.2532,-1.4431,-0.5489,-0.9399,-0.2695,-0.6192,-1.363,-0.7012,-1.4791,-0.6015,-1.0589,-0.9205,-1.2769,-0.1367,0.0127,-0.1189,-1.2815,-1.2927,-0.5208,-0.5546,-0.663,-0.7134,0.0179,0.0543,-0.2077,-1.0527,-0.0037
546.875,-1.1177,-1.5013,-0.7789,-1.2258,-1.4144,-0.558,-0.8719,-0.1646,-0.5804,-1.2681,-0.5856,-1.4805,-0.5963,-1.0625,-0.9385,-1.2826,-0.142,0.0647,-0.1624,-1.2833,-1.2751,-0.5926,-0.608,-0.7428,-0.7528,0.0124,0.0484,-0.2082,-1.0534,0.0129
550.7812,-1.0813,-1.4438,-0.7596,-1.1984,-1.3834,-0.5833,-0.8056,-0.0663,-0.5283,-1.1791,-0.4769,-1.4867,-0.589,-1.0684,-0.9525,-1.2978,-0.1713,0.119,-0.2082,-1.2859,-1.2625,-0.6565,-0.6146,-0.8134,-0.7657,0.0109,0.0453,-0.2212,-1.0467,0.0101
554.6875,-1.03,-1.392,-0.7142,-1.1661,-1.3456,-0.6098,-0.7445,0.0159,-0.4674,-1.1044,-0.3838,-1.5012,-0.577,-1.0661,-0.9564,-1.3156,-0.2183,0.1682,-0.2483,-1.2798,-1.2444,-0.6984,-0.5722,-0.8661,-0.7543,0.0063,0.0418,-0.2475,-1.0335,-0.0134
558.5938,-0.9668,-1.3446,-0.6451,-1.1236,-1.2961,-0.6206,-0.6905,0.0763,-0.403,-1.051,-0.311,-1.5237,-0.5565,-1.0451,-0.9447,-1.3271,-0.273,0.2065,-0.2759,-1.2549,-1.2095,-0.7074,-0.4837,-0.8941,-0.7277,-0.0077,0.0338,-0.2838,-1.0112,-0.0538
562.5,-0.8942,-1.2994,-0.5554,-1.0672,-1.2321,-0.603,-0.6448,0.1143,-0.3418,-1.0236,-0.26,-1.5502,-0.5237,-0.9973,-0.9135,-1.3232,-0.323,0.2313,-0.2867,-1.2039,-1.1495,-0.6782,-0.3575,-0.8928,-0.6984,-0.034,0.0191,-0.3223,-0.9752,-0.1026
566.4062,-0.8158,-1.254,-0.45,-0.9964,-1.1543,-0.5517,-0.609,0.134,-0.2913,-1.0255,-0.2297,-1.5744,-0.4772,-0.9198,-0.862,-1.2981,-0.3561,0.2444,-0.2794,-1.1248,-1.0616,-0.6127,-0.2077,-0.8605,-0.6781,-0.0707,-0.0019,-0.3529,-0.9199,-0.1493
570.3125,-0.7364,-1.2077,-0.3355,-0.9152,-1.0676,-0.4705,-0.5856,0.1422,-0.2588,-1.0578,-0.218,-1.591,-0.4191,-0.8163,-0.7929,-1.2506,-0.3641,0.2507,-0.257,-1.0223,-0.9507,-0.5199,-0.0538,-0.7997,-0.6735,-0.1114,-0.0255,-0.3656,-0.8424,-0.1843
574.2188,-0.6634,-1.1618,-0.2207,-0.8318,-0.9802,-0.3704,-0.5783,0.1464,-0.2502,-1.1202,-0.2215,-1.5981,-0.356,-0.6977,-0.7124,-1.1854,-0.3443,0.2563,-0.2254,-0.9071,-0.8286,-0.4148,0.0812,-0.7175,-0.6855,-0.1468,-0.0458,-0.3541,-0.7451,-0.2014
578.125,-0.6055,-1.1196,-0.1154,-0.7562,-0.9017,-0.2661,-0.5911,0.1518,-0.2682,-1.2109,-0.2355,-1.5978,-0.2975,-0.5798,-0.6292,-1.1119,-0.3005,0.2656,-0.1924,-0.7942,-0.7117,-0.3154,0.1742,-0.6255,-0.7101,-0.1677,-0.0566,-0.3169,-0.6366,-0.1995
582.0312,-0.5711,-1.085,-0.0296,-0.6985,-0.8415,-0.1715,-0.6268,0.1604,-0.312,-1.3261,-0.2545,-1.5967,-0.2544,-0.481,-0.553,-1.0426,-0.2421,0.2798,-0.1658,-0.6992,-0.6173,-0.2388,0.2075,-0.5382,-0.741,-0.1678,-0.0539,-0.2585,-0.5315,-0.1822
585.9375,-0.5664,-1.0619,0.0287,-0.6661,-0.8059,-0.0974,-0.6858,0.1704,-0.3771,-1.4608,-0.2716,-1.6039,-0.2356,-0.4174,-0.4927,-0.9895,-0.1814,0.2956,-0.1516,-0.6348,-0.5598,-0.1967,0.1738,-0.4707,-0.772,-0.1463,-0.0371,-0.1877,-0.4465,-0.1568
589.8438,-0.5928,-1.0523,0.0548,-0.6622,-0.7973,-0.0497,-0.765,0.1773,-0.4558,-1.6081,-0.2802,-1.6284,-0.2454,-0.3994,-0.455,-0.9609,-0.1302,0.3068,-0.1519,-0.6075,-0.5467,-0.1932,0.0793,-0.4355,-0.7994,-0.1076,-0.0097,-0.116,-0.3973,-0.1314
593.75,-0.6466,-1.0565,0.0477,-0.6848,-0.8138,-0.0293,-0.8577,0.1759,-0.5391,-1.7595,-0.2748,-1.6767,-0.2823,-0.4286,-0.4432,-0.9594,-0.0962,0.3059,-0.1646,-0.6168,-0.5768,-0.2228,-0.0561,-0.4397,-0.8225,-0.0603,0.0219,-0.0544,-0.394,-0.1126
597.6562,-0.719,-1.0725,0.011,-0.7273,-0.8494,-0.0322,-0.9543,0.1622,-0.6178,-1.9043,-0.2521,-1.7511,-0.3386,-0.4969,-0.456,-0.9806,-0.0817,0.2877,-0.1833,-0.6545,-0.6402,-0.2722,-0.2027,-0.4827,-0.8432,-0.014,0.0506,-0.0111,-0.4396,-0.1042
601.5625,-0.7981,-1.0965,-0.0476,-0.7796,-0.8954,-0.0512,-1.0435,0.1347,-0.6839,-2.0293,-0.2123,-1.8478,-0.4014,-0.5883,-0.4879,-1.014,-0.0827,0.2512,-0.1997,-0.7065,-0.7202,-0.3229,-0.328,-0.556,-0.8637,0.024,0.0706,0.01,-0.5294,-0.1064
605.4688,-0.8707,-1.1232,-0.117,-0.8304,-0.942,-0.0765,-1.1146,0.0951,-0.7314,-2.1197,-0.158,-1.958,-0.4558,-0.682,-0.5297,-1.0454,-0.0908,0.2008,-0.2049,-0.7561,-0.7974,-0.3568,-0.4044,-0.6447,-0.8853,0.0515,0.0793,0.0101,-0.6522,-0.1165
609.375,-0.9259,-1.1466,-0.1838,-0.8696,-0.9805,-0.099,-1.1594,0.0481,-0.7559,-2.1606,-0.0936,-2.0692,-0.4884,-0.7583,-0.57,-1.0602,-0.0963,0.1445,-0.1933,-0.7873,-0.8543,-0.3609,-0.4172,-0.7307,-0.9064,0.0716,0.0776,-0.0051,-0.7928,-0.1302
613.2812,-0.9563,-1.1608,-0.2348,-0.8904,-1.0052,-0.1128,-1.1736,0.0001,-0.7551,-2.1407,-0.0242,-2.1678,-0.4906,-0.8033,-0.5981,-1.0471,-0.0914,0.092,-0.1642,-0.789,-0.88,-0.3319,-0.3683,-0.7977,-0.9236,0.0917,0.0694,-0.0271,-0.9353,-0.1432
617.1875,-0.9605,-1.1613,-0.2589,-0.8915,-1.015,-0.1174,-1.1584,-0.042,-0.7286,-2.0553,0.0454,-2.242,-0.4616,-0.813,-0.607,-1.0015,-0.0726,0.0509,-0.1229,-0.7576,-0.8728,-0.277,-0.2757,-0.8345,-0.9324,0.1205,0.0595,-0.0469,-1.0654,-0.1521
621.0938,-0.9417,-1.1457,-0.2498,-0.8771,-1.0135,-0.1178,-1.119,-0.0728,-0.6791,-1.9092,0.111,-2.2836,-0.4087,-0.7938,-0.5949,-0.9263,-0.0414,0.0248,-0.08,-0.6979,-0.8409,-0.2123,-0.1678,-0.8383,-0.9297,0.1641,0.0518,-0.0567,-1.1728,-0.1548
625,-0.9072,-1.114,-0.2075,-0.8557,-1.0077,-0.1216,-1.0642,-0.0892,-0.6116,-1.7165,0.1695,-2.2892,-0.3456,-0.7604,-0.5661,-0.8314,-0.0035,0.0127,-0.0481,-0.6213,-0.7995,-0.1584,-0.0754,-0.8142,-0.9141,0.2237,0.0479,-0.0516,-1.2523,-0.1503
628.9062,-0.8653,-1.0685,-0.1376,-0.8371,-1.0057,-0.1366,-1.0039,-0.0915,-0.5332,-1.4988,0.2184,-2.2603,-0.2883,-0.7311,-0.5294,-0.7311,0.0333,0.0104,-0.0384,-0.5428,-0.7657,-0.1342,-0.0236,-0.7731,-0.8859,0.2945,0.0467,-0.0304,-1.3035,-0.1386
632.8125,-0.8239,-1.0138,-0.0508,-0.8298,-1.0139,-0.1679,-0.9474,-0.0831,-0.4525,-1.2811,0.2555,-2.2025,-0.2511,-0.7222,-0.4955,-0.6401,0.0617,0.012,-0.0582,-0.4771,-0.7544,-0.1522,-0.0262,-0.7282,-0.8465,0.3668,0.0451,0.0047,-1.3306,-0.1204
636.7188,-0.7892,-0.9555,0.0394,-0.8389,-1.0356,-0.217,-0.9018,-0.0694,-0.3783,-1.088,0.2778,-2.1249,-0.2429,-0.7434,-0.4744,-0.5708,0.0765,0.0125,-0.1088,-0.435,-0.7733,-0.2163,-0.0852,-0.6916,-0.7977,0.4285,0.0391,0.0478,-1.3411,-0.0975
640.625,-0.7657,-0.8999,0.1191,-0.8646,-1.0702,-0.2827,-0.8711,-0.0563,-0.3189,-0.9393,0.2808,-2.0389,-0.2648,-0.7955,-0.4725,-0.5305,0.0754,0.0084,-0.1861,-0.4217,-0.8215,-0.3208,-0.1929,-0.6711,-0.7413,0.4676,0.0255,0.0908,-1.3442,-0.0733
644.5312,-0.7558,-0.853,0.1765,-0.9028,-1.1128,-0.3614,-0.8556,-0.0488,-0.2803,-0.8465,0.2596,-1.9555,-0.3096,-0.8694,-0.4914,-0.5204,0.0597,-0.0004,-0.2813,-0.4358,-0.8891,-0.4527,-0.3355,-0.6688,-0.6791,0.4763,0.0032,0.1247,-1.3494,-0.0521
648.4375,-0.7596,-0.8187,0.2046,-0.9456,-1.1558,-0.448,-0.8521,-0.0487,-0.2659,-0.8109,0.2108,-1.884,-0.3634,-0.9484,-0.5269,-0.5358,0.0345,-0.0109,-0.3818,-0.4695,-0.9601,-0.5937,-0.4956,-0.6803,-0.6134,0.4523,-0.0262,0.1418,-1.364,-0.0381
652.3438,-0.7744,-0.7983,0.2023,-0.9829,-1.1901,-0.5358,-0.8546,-0.0552,-0.2749,-0.8238,0.1347,-1.8295,-0.4081,-1.0121,-0.5701,-0.5671,0.0079,-0.0173,-0.4726,-0.5104,-1.0149,-0.7233,-0.6536,-0.6962,-0.5472,0.3999,-0.0581,0.1378,-1.3918,-0.034
656.25,-0.7944,-0.7902,0.175,-1.0047,-1.2069,-0.617,-0.8564,-0.0646,-0.3031,-0.8683,0.0365,-1.7924,-0.4257,-1.0405,-0.6098,-0.6023,-0.0103,-0.0117,-0.5382,-0.5443,-1.0358,-0.8215,-0.7884,-0.7048,-0.4845,0.3287,-0.0863,0.113,-1.4329,-0.0398
660.1562,-0.8122,-0.7899,0.1327,-1.0035,-1.1998,-0.6844,-0.8516,-0.0722,-0.3436,-0.9238,-0.0741,-1.7696,-0.4029,-1.0195,-0.6346,-0.6292,-0.0101,0.0137,-0.5652,-0.5576,-1.0099,-0.8723,-0.8791,-0.6954,-0.4303,0.2511,-0.1047,0.0725,-1.4837,-0.0521
664.0625,-0.8194,-0.7912,0.0881,-0.9752,-1.1664,-0.7321,-0.8374,-0.0732,-0.3882,-0.9706,-0.1849,-1.7559,-0.3341,-0.9438,-0.636,-0.6382,0.0159,0.0644,-0.545,-0.5402,-0.9327,-0.8659,-0.9083,-0.6623,-0.3903,0.1788,-0.1091,0.0249,-1.5382,-0.065
667.9688,-0.8091,-0.7871,0.0535,-0.9195,-1.1084,-0.7572,-0.8144,-0.064,-0.4294,-0.9946,-0.2838,-1.7464,-0.2229,-0.8178,-0.6098,-0.6238,0.0709,0.1419,-0.4761,-0.4867,-0.8077,-0.8011,-0.8652,-0.6061,-0.3703,0.1204,-0.0988,-0.0193,-1.5893,-0.0713
671.875,-0.7768,-0.7708,0.0386,-0.8398,-1.0302,-0.7588,-0.7856,-0.0424,-0.4611,-0.9895,-0.3613,-1.7371,-0.0806,-0.6543,-0.5565,-0.585,0.1524,0.2433,-0.3643,-0.3973,-0.6457,-0.6854,-0.7497,-0.5337,-0.3754,0.0791,-0.0769,-0.0498,-1.63,-0.0646
675.7812,-0.7215,-0.737,0.0496,-0.7409,-0.9378,-0.7375,-0.7551,-0.0085,-0.4793,-0.9575,-0.4117,-1.7259,0.0766,-0.4705,-0.4807,-0.5246,0.2522,0.3614,-0.2227,-0.2769,-0.4614,-0.5339,-0.5737,-0.4566,-0.4084,0.0534,-0.0494,-0.0589,-1.6541,-0.0409
679.6875,-0.6462,-0.6824,0.0885,-0.6282,-0.8365,-0.6943,-0.7262,0.0359,-0.4824,-0.9075,-0.4337,-1.7118,0.2317,-0.2845,-0.3893,-0.4485,0.3578,0.4861,-0.0687,-0.1341,-0.2703,-0.3664,-0.3609,-0.3871,-0.469,0.0379,-0.0233,-0.0424,-1.657,0.0002
683.5938,-0.5573,-0.6067,0.1531,-0.5067,-0.7302,-0.6299,-0.7003,0.0866,-0.4711,-0.8527,-0.43,-1.6949,0.3706,-0.1111,-0.2901,-0.363,0.4552,0.6069,0.0791,0.0207,-0.0862,-0.2044,-0.1438,-0.335,-0.5522,0.0258,-0.0052,-0.0003,-1.6364,0.0559
687.5,-0.4638,-0.5126,0.2376,-0.3803,-0.6212,-0.5451,-0.6769,0.1379,-0.4481,-0.8065,-0.4066,-1.6759,0.4843,0.04,-0.1908,-0.2746,0.532,0.7139,0.2039,0.1767,0.0812,-0.0668,0.0419,-0.3056,-0.6489,0.0112,0.0007,0.063,-1.5926,0.1204
691.4062,-0.3757,-0.4056,0.3332,-0.2527,-0.5106,-0.4413,-0.6545,0.1829,-0.418,-0.7795,-0.3718,-1.6568,0.5693,0.1652,-0.0978,-0.1878,0.58,0.799,0.2941,0.3247,0.2268,0.0327,0.1648,-0.2987,-0.7473,-0.0097,-0.0068,0.1397,-1.529,0.1865
695.3125,-0.3024,-0.2936,0.4296,-0.1273,-0.3994,-0.3221,-0.6311,0.2148,-0.3858,-0.7761,-0.3351,-1.6403,0.6272,0.2663,-0.0162,-0.1053,0.5974,0.8571,0.3448,0.4585,0.3502,0.0886,0.2051,-0.3097,-0.835,-0.0379,-0.0262,0.2196,-1.4518,0.247
699.2188,-0.25,-0.185,0.517,-0.0077,-0.2889,-0.1929,-0.6054,0.2285,-0.3566,-0.7931,-0.3058,-1.6297,0.6628,0.3487,0.0511,-0.0276,0.5887,0.8856,0.3591,0.5756,0.4547,0.1043,0.1604,-0.3312,-0.9016,-0.0719,-0.0545,0.2913,-1.3689,0.2961
703.125,-0.2199,-0.0871,0.5877,0.1028,-0.1807,-0.0617,-0.5768,0.2222,-0.3334,-0.8199,-0.2908,-1.6283,0.6831,0.4199,0.1032,0.0468,0.5638,0.8856,0.347,0.6773,0.5466,0.091,0.0469,-0.3551,-0.9402,-0.1085,-0.088,0.3448,-1.2886,0.3309
707.0312,-0.2088,-0.0047,0.6373,0.2022,-0.0764,0.0627,-0.5447,0.1982,-0.3162,-0.8409,-0.2931,-1.6379,0.6959,0.4878,0.1416,0.1206,0.5358,0.8614,0.3236,0.7682,0.6333,0.0652,-0.1043,-0.3743,-0.9482,-0.1436,-0.1237,0.3732,-1.2179,0.3521
710.9375,-0.2088,0.0608,0.6662,0.2903,0.0233,0.1713,-0.5081,0.1628,-0.3013,-0.8397,-0.3114,-1.6581,0.7083,0.5587,0.1703,0.1967,0.5183,0.8205,0.3061,0.8544,0.7218,0.0447,-0.2553,-0.3831,-0.926,-0.1722,-0.1595,0.3747,-1.1614,0.364
714.8438,-0.2094,0.1123,0.6784,0.369,0.1188,0.2564,-0.4655,0.1255,-0.2828,-0.8039,-0.34,-1.6862,0.7264,0.6371,0.1945,0.2776,0.5223,0.7727,0.3101,0.9418,0.8171,0.0444,-0.3707,-0.3783,-0.8765,-0.19,-0.1943,0.3528,-1.1205,0.3738
718.75,-0.2006,0.1558,0.6809,0.4424,0.2113,0.3131,-0.4155,0.0965,-0.2541,-0.7288,-0.3716,-1.7169,0.7545,0.7252,0.2203,0.3646,0.5544,0.7279,0.3464,1.0349,0.9222,0.0728,-0.4259,-0.3582,-0.8048,-0.1938,-0.2273,0.3162,-1.0942,0.3898
722.6562,-0.1742,0.1991,0.682,0.5153,0.3027,0.3401,-0.3573,0.0841,-0.2109,-0.619,-0.3997,-1.7436,0.7953,0.823,0.2524,0.4575,0.6159,0.6941,0.42,1.136,1.0378,0.1318,-0.4109,-0.3227,-0.7176,-0.1835,-0.2577,0.2757,-1.0797,0.4198
726.5625,-0.1261,0.2502,0.6897,0.5927,0.3949,0.3404,-0.2918,0.0929,-0.1525,-0.4868,-0.4204,-1.7591,0.8495,0.9289,0.294,0.5556,0.7025,0.6756,0.529,1.2451,1.1629,0.2165,-0.3307,-0.2725,-0.6237,-0.1622,-0.284,0.2422,-1.0731,0.4693
730.4688,-0.0561,0.3151,0.7094,0.6782,0.489,0.3211,-0.2221,0.1226,-0.0828,-0.3497,-0.4334,-1.7568,0.9158,1.0395,0.345,0.6571,0.8061,0.6726,0.6659,1.3609,1.2953,0.3177,-0.2013,-0.2097,-0.5336,-0.1358,-0.3047,0.223,-1.0708,0.5404
734.375,0.0313,0.3968,0.7434,0.7726,0.5845,0.2908,-0.1533,0.1693,-0.0085,-0.226,-0.4414,-1.7321,0.9905,1.15,0.4028,0.7599,0.9161,0.6823,0.8189,1.4805,1.4306,0.4242,-0.0454,-0.1384,-0.458,-0.1116,-0.3179,0.2206,-1.0697,0.6307
738.2812,0.1282,0.4931,0.7901,0.8733,0.6784,0.2567,-0.0922,0.2267,0.062,-0.1311,-0.4484,-1.6828,1.0677,1.2541,0.463,0.8608,1.0213,0.7003,0.974,1.5996,1.5626,0.5245,0.113,-0.0645,-0.4058,-0.0958,-0.3227,0.2317,-1.0686,0.7332
742.1875,0.224,0.5971,0.8444,0.9733,0.7648,0.2222,-0.0454,0.2879,0.1211,-0.0748,-0.4585,-1.6105,1.1402,1.3441,0.5199,0.9549,1.1107,0.7226,1.117,1.7125,1.6829,0.6091,0.2521,0.0043,-0.382,-0.0924,-0.3192,0.2488,-1.0677,0.837
746.0938,0.3072,0.6982,0.899,1.0627,0.8359,0.1861,-0.0182,0.3466,0.1631,-0.0594,-0.475,-1.5204,1.2007,1.4121,0.5683,1.0364,1.1753,0.7462,1.2349,1.8118,1.7815,0.671,0.3552,0.0598,-0.386,-0.1018,-0.309,0.2627,-1.0689,0.9286
750,0.3672,0.7839,0.9466,1.1301,0.8836,0.1447,-0.0134,0.3973,0.1846,-0.0802,-0.4996,-1.4205,1.2436,1.4522,0.6044,1.0986,1.2087,0.7691,1.3179,1.8897,1.8486,0.7067,0.4115,0.0952,-0.4114,-0.1219,-0.2947,0.2647,-1.0745,0.994
753.9062,0.3969,0.8437,0.9813,1.1662,0.9022,0.0946,-0.0301,0.4358,0.185,-0.1267,-0.5324,-1.3203,1.2663,1.4611,0.6259,1.1356,1.2086,0.7897,1.3603,1.9389,1.8773,0.7159,0.4174,0.1069,-0.4474,-0.1487,-0.2791,0.2498,-1.0867,1.0226
757.8125,0.3939,0.8709,1.0011,1.1664,0.8905,0.0357,-0.0638,0.4593,0.1664,-0.1857,-0.5719,-1.2284,1.2701,1.4402,0.6329,1.144,1.1778,0.8058,1.3617,1.9546,1.8649,0.702,0.3765,0.0957,-0.481,-0.1778,-0.2637,0.218,-1.1059,1.0101
761.7188,0.3628,0.8649,1.0079,1.1326,0.853,-0.0268,-0.1077,0.4669,0.1332,-0.2449,-0.6149,-1.1506,1.2595,1.3946,0.6276,1.1236,1.1245,0.815,1.3278,1.9358,1.8143,0.6717,0.3006,0.067,-0.5001,-0.2045,-0.2476,0.175,-1.1307,0.9605
765.625,0.3142,0.8315,1.0074,1.0741,0.7996,-0.0822,-0.1531,0.4596,0.092,-0.2953,-0.6575,-1.0883,1.241,1.3331,0.6135,1.0786,1.0609,0.8141,1.2695,1.8861,1.7342,0.6352,0.2095,0.0305,-0.496,-0.2249,-0.2275,0.1314,-1.157,0.8875
769.5312,0.2642,0.7819,1.0082,1.006,0.7447,-0.1166,-0.1916,0.4408,0.0509,-0.3331,-0.6955,-1.0388,1.2222,1.2661,0.5954,1.0173,1.0023,0.7999,1.2024,1.8138,1.6377,0.6054,0.1293,-0.0013,-0.465,-0.2346,-0.1972,0.1007,-1.1785,0.8119
773.4375,0.2318,0.7303,1.0199,0.9474,0.7041,-0.1157,-0.2162,0.4157,0.0187,-0.3595,-0.7247,-0.9953,1.2101,1.2046,0.579,0.9517,0.9644,0.7693,1.1451,1.7311,1.541,0.5971,0.0904,-0.0159,-0.4087,-0.2295,-0.149,0.0974,-1.1872,0.7591
777.3438,0.2358,0.692,1.0516,0.9174,0.6928,-0.0689,-0.2218,0.3915,0.0042,-0.379,-0.7416,-0.949,1.2107,1.1583,0.5706,0.8955,0.9607,0.7206,1.1166,1.6527,1.4601,0.6252,0.1229,-0.0019,-0.3334,-0.2052,-0.0748,0.1341,-1.1746,0.7536
781.25,0.2911,0.6801,1.1105,0.9312,0.7217,0.0286,-0.206,0.3756,0.0146,-0.3972,-0.7433,-0.8907,1.2282,1.1347,0.5763,0.8619,1,0.6532,1.1328,1.5923,1.4084,0.7021,0.2508,0.0484,-0.2473,-0.1579,0.0323,0.2198,-1.1335,0.8139
785.1562,0.4053,0.7028,1.1999,0.9971,0.7958,0.1742,-0.1692,0.374,0.0534,-0.4192,-0.7288,-0.8137,1.2643,1.1373,0.6006,0.86,1.0851,0.5685,1.2033,1.5601,1.3937,0.8345,0.4862,0.1378,-0.1586,-0.0857,0.1762,0.3573,-1.0601,0.9487
789.0625,0.5764,0.7614,1.3184,1.1141,0.9126,0.3593,-0.1143,0.3897,0.12,-0.4481,-0.6992,-0.7147,1.3178,1.1651,0.6447,0.8923,1.2116,0.4696,1.328,1.5595,1.4164,1.0207,0.8243,0.2632,-0.0731,0.0103,0.3554,0.5425,-0.9555,1.1542
792.9688,0.7924,0.8499,1.46,1.2717,1.0624,0.5713,-0.0468,0.4212,0.2084,-0.4851,-0.6585,-0.5958,1.3845,1.2124,0.7058,0.9537,1.369,0.3609,1.4966,1.5865,1.4692,1.2495,1.2427,0.4161,0.0066,0.125,0.5629,0.7639,-0.8264,1.4148
796.875,1.0332,0.9561,1.6145,1.4523,1.2301,0.796,0.0265,0.4625,0.3084,-0.5289,-0.6122,-0.4635,1.4583,1.27,0.7766,1.0323,1.5423,0.2476,1.6899,1.6302,1.5389,1.5014,1.7046,0.5837,0.0803,0.2493,0.7863,1.0044,-0.6838,1.7057
