time	FP1	F3	F7	FC3	C3	C5	P3	P7	PO7	PO3	O1	Oz	Pz	CPz	FP2	Fz	F4	F8	FC4	FCz	Cz	C4	C6	P4	P8	PO8	PO4	O2	HEOG_left	HEOG_right
-199.2188	-0.7799	-1.283	-0.0561	-0.8947	-0.4937	-0.1558	0.2018	0.3017	0.2494	-0.0033	0.28	0.1181	-0.1348	-0.5025	-0.9453	-1.1811	-0.6611	-0.5714	-0.3298	-0.9884	-0.6507	-0.1294	-0.1258	-0.2121	-0.3027	-0.1784	-0.082	-0.2083	-0.2144	-0.5688
-195.3125	-1.0092	-1.2627	-0.4195	-0.8848	-0.5036	-0.2829	0.1546	0.2476	0.171	-0.0084	0.2444	0.1435	-0.1001	-0.4706	-0.8609	-1.2643	-0.7719	-0.5792	-0.4751	-1.0555	-0.6814	-0.2701	-0.2842	-0.1829	-0.2877	-0.1178	-0.0391	-0.1253	-0.3852	-0.6625
-191.4062	-1.2011	-1.2574	-0.7533	-0.8864	-0.5191	-0.4138	0.1127	0.1898	0.0952	-0.0142	0.2103	0.168	-0.0582	-0.4336	-0.7787	-1.3353	-0.8676	-0.5795	-0.5997	-1.1113	-0.7035	-0.3837	-0.4164	-0.1461	-0.2661	-0.0563	0.0053	-0.0425	-0.548	-0.7327
-187.5	-1.3318	-1.2729	-1.0341	-0.9045	-0.5424	-0.5498	0.0807	0.1249	0.0248	-0.019	0.1789	0.1904	-0.0035	-0.3867	-0.6994	-1.3811	-0.9322	-0.5641	-0.6851	-1.1444	-0.7085	-0.4492	-0.5011	-0.0947	-0.2307	0.0085	0.0541	0.04	-0.6941	-0.7636
-183.5938	-1.3897	-1.3078	-1.2433	-0.9385	-0.5724	-0.6874	0.0624	0.0519	-0.0379	-0.02	0.1517	0.2103	0.0681	-0.3256	-0.6265	-1.3899	-0.9509	-0.526	-0.7166	-1.1445	-0.6885	-0.4518	-0.5232	-0.0232	-0.1754	0.0794	0.1109	0.1218	-0.817	-0.7466
-179.6875	-1.3767	-1.3526	-1.3692	-0.9812	-0.6037	-0.817	0.0598	-0.0275	-0.0917	-0.0132	0.1301	0.2274	0.1576	-0.2473	-0.5649	-1.3523	-0.9121	-0.4611	-0.6855	-1.1031	-0.6374	-0.3864	-0.4764	0.0715	-0.0968	0.1584	0.1788	0.2019	-0.9116	-0.6817
-175.7812	-1.3067	-1.3912	-1.408	-1.0196	-0.6281	-0.9243	0.0736	-0.1082	-0.1357	0.005	0.1148	0.2413	0.2622	-0.1511	-0.5179	-1.2631	-0.8107	-0.3691	-0.5917	-1.0159	-0.5525	-0.259	-0.3652	0.1876	0.0038	0.2448	0.2583	0.2777	-0.9738	-0.5769
-171.875	-1.201	-1.4041	-1.3652	-1.0374	-0.6354	-0.9923	0.1025	-0.1828	-0.1694	0.0366	0.106	0.2504	0.3746	-0.0398	-0.4838	-1.1228	-0.6505	-0.2536	-0.4448	-0.8838	-0.436	-0.0871	-0.2056	0.3174	0.1197	0.3345	0.3462	0.3445	-1.0004	-0.4468
-167.9688	-1.0825	-1.3735	-1.2546	-1.0194	-0.6169	-1.0059	0.1432	-0.2429	-0.1923	0.0809	0.1027	0.2522	0.4833	0.08	-0.4563	-0.9386	-0.4445	-0.1227	-0.2632	-0.7138	-0.2953	0.1033	-0.0229	0.4473	0.2384	0.4195	0.4346	0.3962	-0.9896	-0.3091
-164.0625	-0.9708	-1.2878	-1.0965	-0.9551	-0.5676	-0.9557	0.1904	-0.281	-0.2037	0.1337	0.1028	0.2434	0.5742	0.1982	-0.4249	-0.7242	-0.2135	0.0125	-0.071	-0.519	-0.1432	0.282	0.1528	0.5594	0.344	0.4888	0.5113	0.4257	-0.9418	-0.1819
-160.1562	-0.8774	-1.1451	-0.9133	-0.8424	-0.4885	-0.8418	0.2363	-0.2933	-0.2032	0.1871	0.1026	0.2205	0.6329	0.3025	-0.3789	-0.4976	0.0177	0.1389	0.1067	-0.3164	0.0045	0.4215	0.2925	0.6351	0.42	0.5304	0.5619	0.4263	-0.8602	-0.0799
-156.25	-0.8037	-0.9549	-0.7253	-0.6889	-0.3873	-0.6748	0.2715	-0.2805	-0.192	0.231	0.0975	0.1808	0.6469	0.3803	-0.3103	-0.2789	0.2249	0.244	0.2483	-0.1246	0.131	0.5018	0.3749	0.6585	0.4532	0.5332	0.5723	0.3932	-0.7514	-0.0122
-152.3438	-0.7424	-0.7369	-0.5473	-0.5111	-0.2776	-0.4746	0.286	-0.2483	-0.173	0.254	0.0823	0.123	0.6077	0.4209	-0.2168	-0.0866	0.388	0.3171	0.3395	0.0388	0.2217	0.5143	0.3898	0.6197	0.4359	0.4901	0.5321	0.3249	-0.6248	0.0193
-148.4375	-0.6811	-0.5167	-0.3877	-0.331	-0.1766	-0.2667	0.2702	-0.2065	-0.1515	0.2457	0.0529	0.0484	0.5126	0.417	-0.1031	0.0642	0.494	0.3515	0.3745	0.1604	0.266	0.4619	0.3393	0.5167	0.3679	0.3992	0.4366	0.2242	-0.4914	0.0199
-144.5312	-0.6079	-0.3206	-0.2497	-0.1714	-0.1012	-0.0772	0.2176	-0.1666	-0.1342	0.1984	0.0067	-0.0388	0.3649	0.3657	0.0193	0.1644	0.5394	0.3446	0.3563	0.2327	0.2591	0.3569	0.2362	0.3563	0.2563	0.2656	0.2887	0.0989	-0.3624	0.0003
-140.625	-0.5169	-0.1698	-0.1345	-0.0512	-0.0645	0.0718	0.1258	-0.1391	-0.1281	0.1099	-0.0555	-0.132	0.1738	0.269	0.1337	0.2119	0.5291	0.2989	0.2943	0.2547	0.2027	0.2175	0.0994	0.1526	0.1149	0.1011	0.0994	-0.0386	-0.2474	-0.0262
-136.7188	-0.411	-0.0761	-0.0429	0.0188	-0.0729	0.1665	-0.0022	-0.1308	-0.138	-0.0162	-0.1296	-0.2223	-0.0463	0.1336	0.2213	0.211	0.4755	0.2205	0.2021	0.2318	0.1043	0.0628	-0.05	-0.0747	-0.0384	-0.0771	-0.1138	-0.1731	-0.1526	-0.0461
-132.8125	-0.3013	-0.0395	0.0225	0.0372	-0.1244	0.2027	-0.157	-0.1436	-0.1651	-0.1689	-0.2082	-0.3008	-0.2776	-0.0296	0.2662	0.1711	0.3947	0.1193	0.0942	0.1745	-0.0241	-0.0902	-0.1931	-0.3034	-0.1847	-0.249	-0.3295	-0.2894	-0.08	-0.0484
-128.9062	-0.2037	-0.0501	0.0586	0.0115	-0.2087	0.1864	-0.3242	-0.1736	-0.2065	-0.3319	-0.2822	-0.3593	-0.5008	-0.2065	0.2597	0.1047	0.3021	0.0065	-0.0168	0.0956	-0.1675	-0.229	-0.3158	-0.5119	-0.3068	-0.3956	-0.5255	-0.3749	-0.0268	-0.0265
-125	-0.1339	-0.0912	0.0634	-0.0449	-0.31	0.1312	-0.4858	-0.2126	-0.2551	-0.4857	-0.342	-0.392	-0.697	-0.381	0.203	0.0248	0.2084	-0.1062	-0.1214	0.0081	-0.3102	-0.3461	-0.4094	-0.6818	-0.3921	-0.5017	-0.682	-0.4221	0.0133	0.021
-121.0938	-0.1016	-0.144	0.0393	-0.116	-0.4092	0.0555	-0.6227	-0.2504	-0.3015	-0.6108	-0.38	-0.3962	-0.8496	-0.5368	0.1075	-0.0574	0.1184	-0.2086	-0.2144	-0.077	-0.4379	-0.438	-0.4701	-0.7998	-0.4338	-0.558	-0.7846	-0.4289	0.0485	0.0903
-117.1875	-0.1071	-0.1919	-0.0055	-0.1864	-0.4878	-0.0209	-0.7182	-0.2778	-0.3361	-0.6914	-0.3919	-0.3729	-0.9462	-0.6586	-0.0084	-0.1331	0.0323	-0.2925	-0.2933	-0.1514	-0.5382	-0.5033	-0.4977	-0.8593	-0.4308	-0.5619	-0.8255	-0.3984	0.0867	0.1728
-113.2812	-0.1398	-0.2233	-0.0573	-0.2437	-0.5304	-0.08	-0.7604	-0.2883	-0.3512	-0.718	-0.3774	-0.3261	-0.9797	-0.7344	-0.1239	-0.1959	-0.0519	-0.3526	-0.3573	-0.21	-0.6023	-0.5419	-0.494	-0.8596	-0.3871	-0.5168	-0.8041	-0.3376	0.1337	0.2565
-109.375	-0.1804	-0.2329	-0.1002	-0.2791	-0.5273	-0.1081	-0.744	-0.2796	-0.3424	-0.6886	-0.3407	-0.2629	-0.9488	-0.7564	-0.2199	-0.2416	-0.1348	-0.3863	-0.4057	-0.2499	-0.6244	-0.5531	-0.4618	-0.806	-0.3107	-0.431	-0.726	-0.2562	0.1906	0.3279
-105.4688	-0.2057	-0.2202	-0.1204	-0.2879	-0.4753	-0.0972	-0.6713	-0.2531	-0.3096	-0.6091	-0.2886	-0.1923	-0.8586	-0.7227	-0.2828	-0.2673	-0.2143	-0.3935	-0.4376	-0.2699	-0.6029	-0.537	-0.4052	-0.7083	-0.212	-0.3167	-0.6025	-0.1649	0.2538	0.3738
-101.5625	-0.1948	-0.1884	-0.11	-0.2684	-0.3778	-0.0459	-0.5515	-0.2125	-0.2562	-0.4912	-0.2299	-0.124	-0.7193	-0.6375	-0.3071	-0.271	-0.286	-0.3765	-0.4517	-0.2698	-0.5395	-0.4945	-0.3294	-0.5787	-0.1027	-0.1875	-0.4483	-0.0747	0.3147	0.3833
-97.6562	-0.1362	-0.1421	-0.0693	-0.2217	-0.2438	0.0406	-0.3987	-0.1625	-0.1878	-0.3498	-0.1724	-0.0669	-0.5453	-0.5105	-0.2958	-0.2514	-0.3441	-0.3402	-0.4474	-0.2497	-0.4396	-0.4285	-0.2411	-0.4307	0.006	-0.0577	-0.2794	0.0045	0.3622	0.3502
-93.75	-0.0313	-0.0853	-0.0062	-0.151	-0.0867	0.1519	-0.2295	-0.1069	-0.1106	-0.2001	-0.1212	-0.0271	-0.3526	-0.3555	-0.2596	-0.2086	-0.3832	-0.2909	-0.4251	-0.2104	-0.3113	-0.3442	-0.1482	-0.2765	0.1043	0.0599	-0.1114	0.065	0.3856	0.2737
-89.8438	0.1052	-0.0203	0.0667	-0.061	0.0785	0.2741	-0.0602	-0.0481	-0.0306	-0.0554	-0.0785	-0.0074	-0.157	-0.188	-0.2145	-0.1441	-0.3995	-0.236	-0.3861	-0.1532	-0.1644	-0.2484	-0.0594	-0.1266	0.1847	0.1551	0.0425	0.1019	0.378	0.1599
-85.9375	0.2495	0.0521	0.1359	0.042	0.237	0.3925	0.0957	0.0127	0.0475	0.075	-0.0431	-0.0065	0.0276	-0.0229	-0.1769	-0.061	-0.3916	-0.1826	-0.3329	-0.0802	-0.0098	-0.1489	0.0172	0.011	0.2421	0.2203	0.1716	0.1132	0.3391	0.0208
-82.0312	0.3762	0.1325	0.1925	0.1514	0.3762	0.4941	0.2287	0.0749	0.1199	0.1857	-0.0124	-0.0202	0.1903	0.1277	-0.1573	0.036	-0.3609	-0.1359	-0.2691	0.0056	0.142	-0.0538	0.075	0.1303	0.2736	0.2515	0.2688	0.0994	0.2757	-0.1267
-78.125	0.4656	0.2217	0.2337	0.2604	0.4872	0.5698	0.3331	0.1372	0.1833	0.2744	0.0162	-0.0424	0.3233	0.2551	-0.1564	0.1413	-0.312	-0.0982	-0.1988	0.1001	0.2813	0.0301	0.11	0.2271	0.2785	0.2481	0.3298	0.0641	0.2007	-0.2639
-74.2188	0.5098	0.3196	0.2638	0.3629	0.5657	0.6151	0.4068	0.1969	0.2355	0.341	0.0442	-0.0661	0.4219	0.355	-0.1624	0.2491	-0.2524	-0.0685	-0.1267	0.1986	0.3998	0.0973	0.1216	0.298	0.2585	0.2135	0.3537	0.0127	0.1302	-0.3726
-70.3125	0.5147	0.4254	0.291	0.4547	0.6112	0.6303	0.4501	0.2499	0.2744	0.3861	0.0711	-0.0848	0.4839	0.4261	-0.1548	0.3544	-0.1902	-0.0427	-0.0568	0.2963	0.4922	0.1447	0.1134	0.3407	0.2176	0.1545	0.3428	-0.0475	0.0799	-0.4386
-66.4062	0.4979	0.5371	0.3249	0.5338	0.6271	0.6189	0.4643	0.2909	0.2988	0.4102	0.0953	-0.0934	0.509	0.47	-0.1111	0.454	-0.1323	-0.0148	0.0078	0.3893	0.5558	0.1719	0.0921	0.3546	0.1627	0.0812	0.3024	-0.1077	0.0614	-0.4529
-62.5	0.4831	0.6523	0.3733	0.6005	0.6193	0.5867	0.4509	0.3148	0.3075	0.4131	0.1137	-0.0892	0.4991	0.4896	-0.015	0.5472	-0.0816	0.0211	0.0668	0.4754	0.5914	0.1818	0.0674	0.3417	0.102	0.0055	0.2405	-0.1596	0.0805	-0.4132
-58.5938	0.4935	0.7681	0.4407	0.657	0.595	0.5401	0.412	0.3177	0.2998	0.3945	0.1229	-0.0723	0.4581	0.4891	0.137	0.6357	-0.0348	0.0698	0.1232	0.5544	0.6032	0.1801	0.0505	0.3065	0.045	-0.0609	0.1675	-0.1954	0.1361	-0.3229
-54.6875	0.546	0.8821	0.5284	0.7065	0.562	0.4852	0.3505	0.2986	0.2752	0.3544	0.1203	-0.0456	0.3922	0.4731	0.3328	0.7222	0.0168	0.1336	0.1827	0.628	0.5981	0.1753	0.0518	0.2569	-0.0001	-0.1082	0.0942	-0.2094	0.2216	-0.1904
-50.7812	0.6469	0.9914	0.6336	0.7523	0.5277	0.4278	0.2711	0.2597	0.2352	0.295	0.105	-0.0137	0.3102	0.447	0.5471	0.8096	0.085	0.2115	0.2526	0.6986	0.5845	0.1765	0.0792	0.2028	-0.0272	-0.1303	0.0313	-0.1988	0.3262	-0.0282
-46.875	0.7907	1.0935	0.7498	0.7963	0.4989	0.3724	0.1809	0.2065	0.1832	0.2213	0.0788	0.0185	0.2222	0.4163	0.7476	0.898	0.1802	0.2996	0.3386	0.7676	0.5704	0.1918	0.1359	0.1542	-0.0343	-0.1261	-0.0135	-0.1638	0.437	0.1484
-42.9688	0.961	1.1846	0.8666	0.8383	0.48	0.3227	0.0886	0.1477	0.1257	0.141	0.0463	0.0467	0.1381	0.3853	0.9035	0.9839	0.306	0.3907	0.4417	0.8335	0.5613	0.2251	0.2187	0.1189	-0.0237	-0.0999	-0.0361	-0.1085	0.5406	0.3227
-39.0625	1.1339	1.26	0.9703	0.8755	0.473	0.281	0.0036	0.0926	0.0711	0.0636	0.0136	0.0683	0.0659	0.3564	0.9939	1.0585	0.4555	0.4758	0.5552	0.8897	0.558	0.2744	0.3176	0.1001	-0.0021	-0.0604	-0.0377	-0.0399	0.6253	0.478
-35.1562	1.2833	1.3134	1.0458	0.9028	0.4764	0.2479	-0.0659	0.0499	0.0285	-0.0016	-0.0125	0.0822	0.0094	0.3282	1.0122	1.1089	0.6102	0.5444	0.6647	0.9254	0.5559	0.3308	0.417	0.0955	0.0212	-0.0195	-0.0246	0.0319	0.6828	0.6004
-31.25	1.3865	1.3383	1.0798	0.9139	0.4857	0.2228	-0.1141	0.0258	0.0064	-0.047	-0.0266	0.0888	-0.0319	0.2963	0.9671	1.1209	0.7442	0.5871	0.7506	0.9272	0.5461	0.3809	0.4985	0.0977	0.0365	0.0107	-0.0065	0.096	0.7096	0.6809
-27.3438	1.4289	1.3293	1.0641	0.9035	0.4951	0.2041	-0.1386	0.0225	0.0108	-0.068	-0.0252	0.09	-0.0622	0.2544	0.8781	1.0832	0.8302	0.5967	0.793	0.8833	0.5184	0.4095	0.5455	0.0966	0.036	0.0205	0.0063	0.1422	0.7077	0.7173
-23.4375	1.4066	1.2837	0.9986	0.8686	0.4986	0.1902	-0.1402	0.0388	0.0442	-0.0636	-0.0077	0.0883	-0.0874	0.1963	0.7693	0.9914	0.8475	0.5703	0.778	0.7874	0.4647	0.4045	0.5468	0.083	0.0165	0.0048	0.0054	0.1632	0.6838	0.714
-19.5312	1.3267	1.2031	0.8929	0.81	0.4923	0.1791	-0.1227	0.0697	0.1053	-0.0366	0.0244	0.0866	-0.1128	0.1188	0.6628	0.8505	0.7885	0.5102	0.7021	0.6424	0.3822	0.3605	0.5003	0.0516	-0.0197	-0.0352	-0.013	0.1561	0.6478	0.6818
-15.625	1.205	1.0934	0.7654	0.7326	0.4751	0.1694	-0.0914	0.1079	0.1886	0.0075	0.0673	0.0871	-0.1411	0.0234	0.5736	0.6755	0.661	0.4241	0.5744	0.4612	0.275	0.2815	0.4134	0.0031	-0.0654	-0.0925	-0.0473	0.1225	0.6097	0.6351
-11.7188	1.0624	0.9642	0.6409	0.6441	0.4491	0.16	-0.0524	0.1455	0.2851	0.061	0.1157	0.0908	-0.1715	-0.083	0.5083	0.4884	0.4871	0.3237	0.4152	0.265	0.1543	0.1797	0.3021	-0.0562	-0.1102	-0.1562	-0.0917	0.0679	0.578	0.5896
-7.8125	0.9203	0.8266	0.5446	0.5535	0.4187	0.1496	-0.0116	0.1748	0.3831	0.1157	0.1637	0.0966	-0.1995	-0.1888	0.4666	0.3142	0.2972	0.2232	0.2514	0.0791	0.0358	0.0736	0.1876	-0.1155	-0.1435	-0.2137	-0.1371	0.0007	0.5579	0.5595
-3.9062	0.7978	0.6911	0.4966	0.4688	0.389	0.1374	0.0264	0.1897	0.4702	0.1636	0.2047	0.1022	-0.2186	-0.2795	0.4452	0.1748	0.1231	0.1367	0.1108	-0.0727	-0.0633	-0.0169	0.0915	-0.1626	-0.1572	-0.2539	-0.1746	-0.0706	0.5511	0.5553
0	0.71	0.5658	0.5061	0.3957	0.3643	0.1219	0.0585	0.186	0.5343	0.1981	0.2329	0.1037	-0.2218	-0.341	0.4414	0.0848	-0.0092	0.0766	0.0156	-0.1728	-0.1283	-0.0747	0.0317	-0.1869	-0.148	-0.2696	-0.1971	-0.1379	0.5569	0.5824
3.9062	0.667	0.4558	0.5696	0.3371	0.3469	0.1017	0.0825	0.1616	0.566	0.2148	0.2433	0.0973	-0.2038	-0.3625	0.4564	0.0493	-0.0841	0.0513	-0.0207	-0.2125	-0.1495	-0.0884	0.0187	-0.182	-0.1176	-0.2577	-0.2011	-0.1955	0.5736	0.6414
7.8125	0.6749	0.3651	0.6739	0.2943	0.3377	0.0761	0.0969	0.1157	0.5594	0.2115	0.2326	0.0801	-0.163	-0.3387	0.4961	0.0652	-0.0976	0.0655	0.005	-0.1926	-0.1238	-0.0544	0.055	-0.1466	-0.0714	-0.2198	-0.1867	-0.2396	0.6001	0.7292
11.7188	0.7369	0.2982	0.8009	0.2692	0.3358	0.0461	0.1004	0.0493	0.5133	0.1884	0.2	0.0513	-0.102	-0.2714	0.5703	0.1243	-0.0556	0.1198	0.0874	-0.1207	-0.0545	0.0242	0.136	-0.0848	-0.0166	-0.1603	-0.1573	-0.2679	0.6372	0.8411
15.625	0.8531	0.2618	0.934	0.2655	0.3403	0.0148	0.0915	-0.0352	0.4314	0.1477	0.1475	0.0125	-0.0279	-0.1689	0.6895	0.218	0.0302	0.2118	0.2155	-0.0079	0.0503	0.1397	0.2524	-0.004	0.0411	-0.0849	-0.1177	-0.2791	0.6879	0.9724
19.5312	1.0208	0.2657	1.062	0.2891	0.3505	-0.0131	0.0685	-0.1336	0.3218	0.093	0.0797	-0.0322	0.0494	-0.0451	0.8615	0.34	0.1482	0.3374	0.3773	0.1342	0.1789	0.2821	0.3934	0.0863	0.0988	0.001	-0.0728	-0.2723	0.7571	1.1196
23.4375	1.2329	0.3209	1.1803	0.3468	0.3656	-0.0331	0.0294	-0.2411	0.1951	0.0282	0.0032	-0.077	0.1182	0.0833	1.0872	0.4882	0.2903	0.4917	0.5618	0.2955	0.3186	0.4417	0.5494	0.177	0.1568	0.0925	-0.0268	-0.2476	0.8491	1.28
27.3438	1.4769	0.4358	1.2881	0.4433	0.384	-0.0433	-0.0278	-0.3531	0.0626	-0.0433	-0.0753	-0.1162	0.1677	0.1994	1.3584	0.6629	0.4543	0.6693	0.761	0.4679	0.4564	0.6096	0.7125	0.2606	0.2184	0.1857	0.0175	-0.2059	0.9662	1.4515
31.25	1.7344	0.6123	1.3859	0.5774	0.4023	-0.0464	-0.1047	-0.4656	-0.0653	-0.1193	-0.1501	-0.145	0.1894	0.2889	1.6569	0.8638	0.6423	0.8636	0.9689	0.6439	0.5804	0.7784	0.8767	0.3324	0.2873	0.2771	0.0583	-0.1502	1.1061	1.6304
35.1562	1.9826	0.8421	1.4731	0.74	0.415	-0.05	-0.2015	-0.5762	-0.1806	-0.1982	-0.2171	-0.1605	0.1786	0.3421	1.957	1.0862	0.857	1.0657	1.1799	0.8154	0.6805	0.9406	1.0356	0.39	0.3656	0.3629	0.0947	-0.0847	1.2616	1.8101
39.0625	2.1983	1.1054	1.5475	0.9134	0.4145	-0.0654	-0.3167	-0.6836	-0.2775	-0.2789	-0.2744	-0.1625	0.1351	0.3545	2.23	1.3187	1.0957	1.2636	1.3857	0.9732	0.7494	1.0882	1.1811	0.4326	0.4519	0.4384	0.1251	-0.0154	1.42	1.9813
42.9688	2.3623	1.3722	1.6068	1.0734	0.3932	-0.1044	-0.4463	-0.7867	-0.352	-0.3594	-0.3214	-0.1532	0.0625	0.3273	2.45	1.5424	1.3463	1.4423	1.5745	1.1061	0.7825	1.2122	1.3029	0.4595	0.5394	0.4976	0.1469	0.0503	1.5652	2.1326
46.875	2.4633	1.6061	1.6482	1.1931	0.3448	-0.1758	-0.5829	-0.8827	-0.4012	-0.4365	-0.3584	-0.137	-0.0324	0.2659	2.5988	1.7328	1.5859	1.5844	1.7309	1.2026	0.7784	1.303	1.3887	0.4701	0.6168	0.5329	0.1561	0.1045	1.6791	2.2522
50.7812	2.4972	1.7706	1.6679	1.248	0.2663	-0.2822	-0.7162	-0.9661	-0.4223	-0.5047	-0.3856	-0.1197	-0.1408	0.1786	2.6671	1.863	1.7823	1.6728	1.8368	1.2508	0.7382	1.3518	1.4261	0.4629	0.671	0.5374	0.1478	0.14	1.7443	2.3297
54.6875	2.4646	1.8359	1.6579	1.2209	0.1586	-0.4193	-0.8336	-1.0277	-0.4127	-0.5572	-0.4027	-0.1072	-0.2533	0.0748	2.6519	1.908	1.9012	1.6926	1.8746	1.2399	0.6647	1.3521	1.4058	0.4368	0.69	0.5067	0.1178	0.1517	1.7459	2.3568
58.5938	2.3666	1.7851	1.6051	1.105	0.0263	-0.5766	-0.9227	-1.056	-0.3704	-0.5861	-0.409	-0.1038	-0.3613	-0.0376	2.5526	1.849	1.9139	1.6341	1.8308	1.1612	0.5605	1.3	1.3232	0.3913	0.6673	0.4416	0.0644	0.138	1.6744	2.3278
62.5	2.2026	1.6184	1.4939	0.906	-0.1236	-0.7399	-0.9728	-1.0392	-0.2949	-0.5847	-0.4034	-0.112	-0.4584	-0.1531	2.3689	1.678	1.8056	1.4951	1.6993	1.0097	0.4282	1.1954	1.1803	0.3271	0.603	0.3482	-0.0116	0.1012	1.5277	2.2404
66.4062	1.9721	1.3527	1.312	0.6402	-0.2835	-0.894	-0.9784	-0.9691	-0.1884	-0.5497	-0.385	-0.1315	-0.5414	-0.2697	2.1022	1.4005	1.5803	1.2818	1.4838	0.7861	0.2698	1.042	0.9862	0.2448	0.5039	0.2368	-0.1072	0.0464	1.3134	2.0962
70.3125	1.6778	1.0175	1.0581	0.332	-0.4463	-1.026	-0.9408	-0.8439	-0.0565	-0.4828	-0.3538	-0.1609	-0.6113	-0.3888	1.7595	1.035	1.259	1.0091	1.1982	0.4981	0.0875	0.8467	0.7562	0.1448	0.3809	0.1188	-0.2183	-0.0204	1.0483	1.9019
74.2188	1.3299	0.6476	0.7457	0.0081	-0.607	-1.1271	-0.8683	-0.6708	0.0912	-0.3913	-0.3113	-0.1977	-0.6726	-0.5142	1.3574	0.6101	0.8751	0.6979	0.8646	0.1602	-0.1154	0.6191	0.509	0.0271	0.2464	0.0041	-0.3409	-0.094	0.7568	1.6692
78.125	0.9474	0.276	0.4025	-0.3064	-0.7626	-1.1934	-0.7755	-0.4658	0.2421	-0.2877	-0.2608	-0.2393	-0.7321	-0.6505	0.924	0.1602	0.4654	0.3725	0.5091	-0.2073	-0.334	0.3706	0.2637	-0.1082	0.1122	-0.1005	-0.4713	-0.1705	0.4677	1.4141
82.0312	0.5565	-0.0714	0.0653	-0.5919	-0.912	-1.2265	-0.6807	-0.2518	0.3812	-0.1878	-0.2069	-0.2836	-0.7968	-0.8002	0.4962	-0.2803	0.0634	0.0564	0.1577	-0.5804	-0.5611	0.1137	0.0357	-0.2596	-0.0121	-0.1918	-0.6051	-0.2477	0.2085	1.155
85.9375	0.1861	-0.3784	-0.2288	-0.8357	-1.0543	-1.2325	-0.6017	-0.0558	0.4937	-0.1073	-0.1553	-0.3283	-0.8706	-0.9616	0.114	-0.6815	-0.3063	-0.2302	-0.1672	-0.9335	-0.7861	-0.1387	-0.1652	-0.4217	-0.1197	-0.2685	-0.7365	-0.3238	0.0019	0.9107
89.8438	-0.1369	-0.6367	-0.4501	-1.0308	-1.1869	-1.2199	-0.5527	0.0966	0.5667	-0.0591	-0.1116	-0.3707	-0.9525	-1.127	-0.1871	-1.0196	-0.6282	-0.4723	-0.4484	-1.2418	-0.9947	-0.3735	-0.3361	-0.5852	-0.2066	-0.3308	-0.8572	-0.3962	-0.1385	0.6971
93.75	-0.3922	-0.8428	-0.5826	-1.1736	-1.3034	-1.1982	-0.5408	0.1851	0.5917	-0.0501	-0.0804	-0.4071	-1.0349	-1.2817	-0.3824	-1.2779	-0.8933	-0.6604	-0.6733	-1.4824	-1.1692	-0.5772	-0.4793	-0.7362	-0.2711	-0.3785	-0.9565	-0.4607	-0.2092	0.5263
97.6562	-0.5678	-0.9934	-0.6253	-1.2612	-1.3936	-1.1756	-0.5645	0.1989	0.5664	-0.0797	-0.064	-0.4327	-1.1044	-1.4051	-0.4619	-1.4447	-1.0948	-0.7889	-0.833	-1.6356	-1.2891	-0.7363	-0.6003	-0.8586	-0.3135	-0.4103	-1.0231	-0.5112	-0.2156	0.4055
101.5625	-0.6588	-1.0825	-0.5907	-1.2896	-1.4438	-1.1573	-0.6135	0.1391	0.4953	-0.1396	-0.0624	-0.4419	-1.1433	-1.4737	-0.4314	-1.5119	-1.2254	-0.8553	-0.9201	-1.6855	-1.3338	-0.8384	-0.7049	-0.9362	-0.3356	-0.4238	-1.0461	-0.5399	-0.1697	0.3375
105.4688	-0.6651	-1.1011	-0.4996	-1.2535	-1.4389	-1.1442	-0.6705	0.0186	0.3905	-0.2147	-0.0721	-0.4291	-1.1337	-1.4657	-0.3092	-1.4747	-1.2772	-0.8602	-0.9298	-1.6225	-1.2864	-0.8744	-0.7971	-0.9565	-0.3403	-0.4163	-1.0182	-0.5391	-0.0867	0.321
109.375	-0.5892	-1.0404	-0.3757	-1.1482	-1.3661	-1.1329	-0.7146	-0.1391	0.2699	-0.2858	-0.0866	-0.3902	-1.0611	-1.3658	-0.1229	-1.3334	-1.2459	-0.8081	-0.8619	-1.4455	-1.1375	-0.8407	-0.8794	-0.9133	-0.3317	-0.3858	-0.9371	-0.5031	0.0176	0.351
113.2812	-0.4364	-0.8963	-0.2413	-0.9737	-1.2191	-1.1164	-0.7249	-0.3044	0.1554	-0.3329	-0.097	-0.3234	-0.9184	-1.1702	0.0955	-1.096	-1.1353	-0.7088	-0.7237	-1.1645	-0.8901	-0.7419	-0.9529	-0.8089	-0.3149	-0.3327	-0.8069	-0.4305	0.1283	0.4193
117.1875	-0.217	-0.6753	-0.1147	-0.7377	-1.0011	-1.0868	-0.6862	-0.4461	0.0695	-0.3392	-0.0939	-0.2301	-0.7091	-0.89	0.3121	-0.7824	-0.9617	-0.5786	-0.5324	-0.803	-0.5613	-0.5924	-1.0189	-0.6545	-0.2964	-0.2611	-0.6383	-0.3252	0.2324	0.514
121.0938	0.0494	-0.3977	-0.0114	-0.4591	-0.7277	-1.038	-0.5919	-0.5374	0.0311	-0.2952	-0.0695	-0.116	-0.4482	-0.5509	0.4945	-0.4256	-0.7541	-0.4398	-0.3161	-0.3978	-0.1829	-0.4155	-1.08	-0.4691	-0.2836	-0.179	-0.4475	-0.1975	0.3184	0.6192
125	0.3309	-0.0976	0.0551	-0.1675	-0.426	-0.9686	-0.4473	-0.5601	0.052	-0.2011	-0.0196	0.01	-0.1613	-0.1913	0.6145	-0.07	-0.5514	-0.3184	-0.1111	0.0039	0.2021	-0.2418	-1.1414	-0.2777	-0.2844	-0.0978	-0.255	-0.0623	0.3755	0.7162
128.9062	0.5839	0.1809	0.071	0.0995	-0.1313	-0.8829	-0.2688	-0.5079	0.1349	-0.0673	0.0553	0.1365	0.1189	0.1437	0.6513	0.2328	-0.3961	-0.2406	0.0432	0.35	0.5451	-0.1047	-1.2098	-0.1071	-0.3059	-0.0302	-0.0823	0.063	0.3941	0.7848
132.8125	0.7583	0.3909	0.0229	0.3021	0.1181	-0.7904	-0.0812	-0.3873	0.2727	0.0869	0.1493	0.2511	0.3576	0.4093	0.5943	0.4327	-0.3271	-0.2279	0.1104	0.5907	0.8	-0.0354	-1.2936	0.017	-0.3534	0.0116	0.0505	0.162	0.3653	0.8065
136.7188	0.8082	0.4918	-0.0998	0.4059	0.2882	-0.7037	0.0873	-0.2155	0.4495	0.2375	0.2525	0.3422	0.5239	0.5685	0.4447	0.4898	-0.372	-0.2935	0.0647	0.6875	0.9304	-0.0573	-1.4002	0.0749	-0.4285	0.0189	0.1281	0.2221	0.2823	0.7674
140.625	0.7032	0.4572	-0.2999	0.3883	0.3558	-0.6347	0.2112	-0.0168	0.6437	0.3603	0.3525	0.4008	0.5962	0.5988	0.215	0.3828	-0.5424	-0.4397	-0.1035	0.6198	0.9164	-0.1811	-1.5336	0.0559	-0.5282	-0.0115	0.142	0.2362	0.1421	0.6617
144.5312	0.4388	0.2812	-0.5686	0.2449	0.3138	-0.5912	0.2734	0.1826	0.8318	0.4365	0.4365	0.4211	0.5664	0.4963	-0.0736	0.1144	-0.8307	-0.6574	-0.3848	0.3901	0.7586	-0.4018	-1.6921	-0.04	-0.644	-0.0762	0.0924	0.2039	-0.0521	0.4931
148.4375	0.0409	-0.0201	-0.8839	-0.0093	0.1727	-0.5735	0.2682	0.3596	0.9925	0.4557	0.4938	0.4015	0.4411	0.2765	-0.3951	-0.2878	-1.2115	-0.9274	-0.7511	0.0238	0.4779	-0.6985	-1.8663	-0.2012	-0.763	-0.166	-0.0117	0.1303	-0.2897	0.2747
152.3438	-0.437	-0.411	-1.2119	-0.3412	-0.0408	-0.5742	0.2027	0.4985	1.11	0.418	0.517	0.3439	0.2403	-0.0283	-0.7228	-0.7757	-1.6457	-1.2234	-1.1603	-0.4338	0.1123	-1.0371	-2.0395	-0.4065	-0.8694	-0.268	-0.1548	0.0242	-0.5526	0.0277
156.25	-0.9243	-0.8432	-1.5129	-0.7059	-0.2893	-0.5796	0.0937	0.593	1.1762	0.3328	0.503	0.2533	-0.007	-0.3755	-1.0333	-1.2893	-2.0863	-1.5162	-1.5636	-0.9262	-0.2904	-1.3759	-2.1897	-0.6292	-0.9483	-0.368	-0.3177	-0.1038	-0.8168	-0.2229
160.1562	-1.3499	-1.265	-1.7494	-1.0557	-0.5329	-0.5737	-0.0358	0.6455	1.1917	0.2155	0.4533	0.1368	-0.2683	-0.7198	-1.309	-1.7686	-2.4868	-1.778	-1.9143	-1.3961	-0.6811	-1.6737	-2.2944	-0.8423	-0.9884	-0.455	-0.4819	-0.2438	-1.0576	-0.4517
164.0625	-1.6586	-1.6312	-1.8942	-1.3492	-0.7369	-0.5429	-0.163	0.6654	1.1643	0.0845	0.3735	0.0022	-0.514	-1.0222	-1.5395	-2.1644	-2.8085	-1.9872	-2.1765	-1.7956	-1.0187	-1.8976	-2.3355	-1.024	-0.9855	-0.5229	-0.6333	-0.3878	-1.2542	-0.6382
167.9688	-1.8239	-1.9103	-1.9365	-1.5593	-0.8791	-0.4804	-0.2699	0.665	1.1069	-0.0432	0.2724	-0.1424	-0.7229	-1.2564	-1.7199	-2.4475	-3.0271	-2.1308	-2.3314	-2.0945	-1.2768	-2.0295	-2.3047	-1.162	-0.9434	-0.5719	-0.7646	-0.5303	-1.3935	-0.7693
171.875	-1.8519	-2.0891	-1.8837	-1.6776	-0.9531	-0.3891	-0.3467	0.6555	1.0341	-0.1545	0.161	-0.2891	-0.8846	-1.4129	-1.8487	-2.612	-3.1368	-2.2062	-2.3806	-2.2841	-1.4473	-2.0694	-2.2058	-1.2548	-0.8734	-0.6078	-0.8758	-0.6672	-1.4724	-0.8405
175.7812	-1.7761	-2.1725	-1.7591	-1.7137	-0.9683	-0.2818	-0.3936	0.6445	0.9589	-0.2419	0.0506	-0.4299	-1.0002	-1.4985	-1.9249	-2.674	-3.1514	-2.2204	-2.3446	-2.3767	-1.5395	-2.0352	-2.056	-1.3116	-0.7914	-0.6397	-0.9717	-0.7954	-1.4958	-0.8554
179.6875	-1.6454	-2.1802	-1.5955	-1.6921	-0.9466	-0.1788	-0.4185	0.6342	0.8906	-0.3038	-0.0479	-0.5566	-1.0794	-1.533	-1.9465	-2.6653	-3.1007	-2.1884	-2.2577	-2.3996	-1.5754	-1.9575	-1.8823	-1.3472	-0.7145	-0.676	-1.0591	-0.9108	-1.4745	-0.8223
183.5938	-1.5088	-2.1408	-1.4282	-1.6446	-0.916	-0.1039	-0.4343	0.6223	0.8333	-0.3427	-0.1254	-0.6606	-1.1355	-1.5424	-1.9128	-2.6243	-3.0231	-2.1297	-2.1589	-2.3868	-1.5831	-1.872	-1.7165	-1.3774	-0.6571	-0.7214	-1.1422	-1.0073	-1.4216	-0.7526
187.5	-1.4031	-2.0848	-1.2879	-1.6032	-0.9037	-0.0785	-0.4544	0.6032	0.7863	-0.3633	-0.1751	-0.7329	-1.1807	-1.5518	-1.8262	-2.5852	-2.9557	-2.0643	-2.0828	-2.3702	-1.5888	-1.8108	-1.5889	-1.4132	-0.6273	-0.7749	-1.22	-1.0768	-1.3493	-0.6588
191.4062	-1.3464	-2.0382	-1.1964	-1.5924	-0.9299	-0.117	-0.4882	0.5711	0.7455	-0.3708	-0.1935	-0.7657	-1.2217	-1.5783	-1.6961	-2.5705	-2.9247	-2.0083	-2.0509	-2.3711	-1.6102	-1.7946	-1.5207	-1.457	-0.626	-0.8298	-1.2854	-1.1106	-1.2685	-0.5532
195.3125	-1.3381	-2.0179	-1.1639	-1.6248	-1.0036	-0.2239	-0.5388	0.5216	0.7051	-0.3689	-0.181	-0.7542	-1.2578	-1.6268	-1.5393	-2.5864	-2.939	-1.9713	-2.0677	-2.3965	-1.6525	-1.8282	-1.5205	-1.5022	-0.6472	-0.8755	-1.327	-1.1015	-1.1875	-0.4485
199.2188	-1.3634	-2.0296	-1.1885	-1.6996	-1.1208	-0.3922	-0.602	0.4535	0.6597	-0.3594	-0.141	-0.6979	-1.2813	-1.6899	-1.3787	-2.6231	-2.9886	-1.9548	-2.1203	-2.4384	-1.7083	-1.9006	-1.5822	-1.5351	-0.6804	-0.9009	-1.3327	-1.0467	-1.113	-0.3564
203.125	-1.4012	-2.0684	-1.2585	-1.8037	-1.2665	-0.6054	-0.6677	0.369	0.6052	-0.3428	-0.0804	-0.602	-1.2811	-1.75	-1.2383	-2.6597	-3.048	-1.9527	-2.184	-2.4778	-1.7606	-1.9885	-1.6872	-1.5396	-0.7135	-0.8973	-1.2936	-0.9488	-1.0499	-0.2869
207.0312	-1.4294	-2.121	-1.3547	-1.9163	-1.4187	-0.8408	-0.7234	0.2731	0.5408	-0.3187	-0.0075	-0.4771	-1.2461	-1.7854	-1.1365	-2.6707	-3.0846	-1.9531	-2.2294	-2.491	-1.7884	-2.0634	-1.809	-1.5019	-0.7357	-0.8612	-1.2074	-0.8168	-1.0016	-0.2462
210.9375	-1.4303	-2.1698	-1.4546	-2.0135	-1.5536	-1.0737	-0.7574	0.1731	0.4683	-0.2871	0.0686	-0.3374	-1.1697	-1.7764	-1.0808	-2.6333	-3.0677	-1.942	-2.2305	-2.4566	-1.7724	-2.0984	-1.9193	-1.4152	-0.7399	-0.7945	-1.0797	-0.6638	-0.9688	-0.2346
214.8438	-1.3922	-2.1965	-1.5364	-2.0737	-1.65	-1.2814	-0.7619	0.0772	0.3927	-0.2487	0.1402	-0.1984	-1.0521	-1.7102	-1.0634	-2.5338	-2.9775	-1.9056	-2.1712	-2.3616	-1.7008	-2.0746	-1.9932	-1.2812	-0.7235	-0.7042	-0.9227	-0.5051	-0.9495	-0.2457
218.75	-1.3104	-2.1863	-1.5827	-2.0816	-1.6938	-1.446	-0.7346	-0.0061	0.3214	-0.2052	0.2018	-0.0741	-0.9008	-1.5848	-1.0639	-2.37	-2.8092	-1.8343	-2.0481	-2.2042	-1.5718	-1.9845	-2.0147	-1.1098	-0.6882	-0.5999	-0.753	-0.3554	-0.9376	-0.2662
222.6562	-1.187	-2.13	-1.5831	-2.0298	-1.6795	-1.5556	-0.6789	-0.0696	0.2627	-0.1592	0.2508	0.0248	-0.7296	-1.4087	-1.0537	-2.1513	-2.574	-1.7239	-1.8699	-1.9945	-1.3938	-1.8331	-1.9778	-0.9171	-0.6388	-0.4924	-0.5879	-0.2259	-0.9242	-0.279
226.5625	-1.0303	-2.0254	-1.5351	-1.9203	-1.6101	-1.6049	-0.6036	-0.108	0.2236	-0.1145	0.2864	0.0919	-0.5562	-1.1998	-1.0048	-1.8964	-2.2946	-1.5767	-1.6548	-1.7517	-1.184	-1.6353	-1.8878	-0.7219	-0.5818	-0.3913	-0.4426	-0.1239	-0.8985	-0.2669
230.4688	-0.8539	-1.8779	-1.4434	-1.7633	-1.4968	-1.5952	-0.5209	-0.1191	0.208	-0.0759	0.3085	0.1248	-0.3992	-0.9813	-0.8985	-1.6292	-2.0006	-1.402	-1.4253	-1.5006	-0.9647	-1.4129	-1.7584	-0.5425	-0.5243	-0.3044	-0.3282	-0.0526	-0.8505	-0.217
234.375	-0.6741	-1.6989	-1.3173	-1.5754	-1.3557	-1.534	-0.4451	-0.1047	0.2145	-0.0499	0.3166	0.1237	-0.2754	-0.7781	-0.7321	-1.3754	-1.7216	-1.2149	-1.2043	-1.2674	-0.7594	-1.1895	-1.6088	-0.3936	-0.4725	-0.2373	-0.2513	-0.0122	-0.7742	-0.1248
238.2812	-0.5082	-1.5045	-1.1684	-1.3772	-1.2058	-1.434	-0.3899	-0.0704	0.2363	-0.0435	0.3086	0.0909	-0.197	-0.6117	-0.5215	-1.1586	-1.4821	-1.0342	-1.0113	-1.0753	-0.589	-0.9864	-1.4592	-0.2848	-0.432	-0.1937	-0.214	-0.0009	-0.6702	0.0038
242.1875	-0.3715	-1.3133	-1.008	-1.1899	-1.065	-1.3111	-0.366	-0.0243	0.2629	-0.0632	0.2814	0.0301	-0.1704	-0.4973	-0.2983	-0.9977	-1.2979	-0.8796	-0.8595	-0.9414	-0.4682	-0.8195	-1.3271	-0.22	-0.4066	-0.1749	-0.2147	-0.0155	-0.5464	0.1535
246.0938	-0.2752	-1.1435	-0.8468	-1.0329	-0.9479	-1.1823	-0.3785	0.0248	0.2828	-0.1129	0.2326	-0.0534	-0.1945	-0.4413	-0.1027	-0.9056	-1.1752	-0.768	-0.7557	-0.8752	-0.4042	-0.6976	-1.225	-0.1977	-0.3989	-0.1812	-0.2488	-0.0525	-0.4178	0.3019
250	-0.2258	-1.0114	-0.6942	-0.9208	-0.863	-1.0623	-0.4257	0.0704	0.2871	-0.1917	0.1621	-0.1525	-0.2615	-0.4411	0.0268	-0.8874	-1.1115	-0.7111	-0.7006	-0.8778	-0.3964	-0.6226	-1.1588	-0.2124	-0.4104	-0.2109	-0.3096	-0.1073	-0.3026	0.424
253.9062	-0.2244	-0.9287	-0.5595	-0.8613	-0.8122	-0.9612	-0.4986	0.1098	0.2728	-0.2932	0.0741	-0.2582	-0.3579	-0.4867	0.0635	-0.9406	-1.0985	-0.7126	-0.6904	-0.9427	-0.4368	-0.5911	-1.1287	-0.2567	-0.4417	-0.2616	-0.3894	-0.175	-0.2189	0.4972
257.8125	-0.2678	-0.901	-0.4519	-0.8547	-0.791	-0.8821	-0.5826	0.1447	0.2436	-0.4059	-0.0225	-0.3596	-0.4677	-0.5632	-0.001	-1.0554	-1.1254	-0.768	-0.7187	-1.0573	-0.513	-0.5963	-1.1303	-0.3229	-0.4928	-0.3295	-0.4796	-0.2499	-0.1799	0.5056
261.7188	-0.3494	-0.9266	-0.3802	-0.8935	-0.7905	-0.8218	-0.661	0.1803	0.2087	-0.5154	-0.115	-0.4456	-0.5747	-0.6546	-0.1543	-1.2157	-1.182	-0.8658	-0.7778	-1.2054	-0.6107	-0.6299	-1.1564	-0.4038	-0.5625	-0.4097	-0.5723	-0.3257	-0.1918	0.4435
265.625	-0.4599	-0.9967	-0.3512	-0.9645	-0.7996	-0.7719	-0.7181	0.2224	0.1801	-0.6075	-0.1889	-0.5062	-0.6656	-0.7465	-0.3674	-1.4015	-1.2606	-0.9893	-0.8598	-1.3691	-0.7156	-0.6834	-1.1982	-0.4934	-0.6478	-0.4961	-0.66	-0.3964	-0.2518	0.3167
269.5312	-0.5886	-1.0961	-0.3667	-1.0507	-0.8074	-0.7219	-0.7426	0.2756	0.1691	-0.6708	-0.2311	-0.5343	-0.7314	-0.8281	-0.6023	-1.5911	-1.3559	-1.1206	-0.9566	-1.531	-0.8158	-0.7482	-1.2465	-0.5859	-0.7429	-0.5814	-0.7363	-0.4559	-0.349	0.1411
273.4375	-0.7231	-1.2052	-0.4214	-1.1338	-0.8053	-0.6613	-0.7292	0.3412	0.1832	-0.6988	-0.2324	-0.527	-0.7679	-0.8929	-0.8219	-1.7636	-1.4631	-1.2428	-1.0595	-1.6754	-0.9021	-0.8158	-1.292	-0.6749	-0.8388	-0.6575	-0.7956	-0.4992	-0.4666	-0.0604
277.3438	-0.8498	-1.3037	-0.501	-1.1974	-0.787	-0.582	-0.6788	0.4177	0.2248	-0.6897	-0.1895	-0.4859	-0.7744	-0.9371	-0.998	-1.9012	-1.576	-1.3424	-1.1584	-1.7892	-0.967	-0.8774	-1.3248	-0.7528	-0.9234	-0.7159	-0.8336	-0.5227	-0.5847	-0.2616
281.25	-0.9545	-1.3737	-0.5833	-1.2287	-0.7488	-0.4794	-0.5965	0.5011	0.2905	-0.6457	-0.1056	-0.4165	-0.7526	-0.9588	-1.116	-1.9909	-1.6857	-1.4101	-1.2416	-1.8623	-1.0048	-0.9236	-1.3354	-0.8103	-0.9835	-0.7486	-0.8465	-0.5243	-0.6839	-0.4384
285.1562	-1.0242	-1.4032	-0.6426	-1.2206	-0.6891	-0.3532	-0.4902	0.5866	0.3728	-0.5722	0.0102	-0.3271	-0.7047	-0.9566	-1.1744	-2.026	-1.78	-1.441	-1.2974	-1.8882	-1.0105	-0.9453	-1.3151	-0.838	-1.0065	-0.7498	-0.8319	-0.504	-0.7492	-0.572
289.0625	-1.0497	-1.3889	-0.6569	-1.1723	-0.6085	-0.2067	-0.3686	0.6689	0.4613	-0.4761	0.1447	-0.2279	-0.6331	-0.9296	-1.1822	-2.0066	-1.8464	-1.4339	-1.3156	-1.8646	-0.9808	-0.9357	-1.2574	-0.8275	-0.9835	-0.7166	-0.789	-0.4637	-0.7731	-0.6512
292.9688	-1.0283	-1.3363	-0.615	-1.0899	-0.5098	-0.047	-0.2406	0.743	0.5446	-0.366	0.2822	-0.1289	-0.541	-0.8783	-1.1527	-1.9395	-1.8745	-1.391	-1.2905	-1.7947	-0.9151	-0.8914	-1.1603	-0.7746	-0.9117	-0.6498	-0.7194	-0.4074	-0.7568	-0.6734
296.875	-0.9653	-1.2593	-0.5216	-0.985	-0.3992	0.1156	-0.1149	0.8046	0.612	-0.2517	0.4073	-0.0399	-0.4337	-0.8056	-1.0998	-1.8376	-1.8598	-1.317	-1.2229	-1.6872	-0.8172	-0.8144	-1.027	-0.6808	-0.7954	-0.5551	-0.6282	-0.3409	-0.7106	-0.6439
300.7812	-0.8746	-1.1768	-0.3967	-0.8732	-0.2861	0.269	-0.0005	0.8498	0.6551	-0.1437	0.5065	0.0315	-0.3193	-0.7183	-1.0345	-1.7177	-1.806	-1.2198	-1.121	-1.556	-0.6965	-0.7128	-0.8665	-0.555	-0.6459	-0.442	-0.5237	-0.271	-0.6512	-0.5737
304.6875	-0.776	-1.1081	-0.2702	-0.7709	-0.1826	0.4005	0.0943	0.8761	0.6692	-0.0529	0.5706	0.08	-0.2092	-0.627	-0.9649	-1.5986	-1.7246	-1.1095	-0.9999	-1.4191	-0.5676	-0.5994	-0.6929	-0.4126	-0.4803	-0.3232	-0.4171	-0.2055	-0.598	-0.4778
308.5938	-0.6919	-1.068	-0.1726	-0.692	-0.1008	0.4992	0.1627	0.8827	0.6544	0.0117	0.5956	0.1036	-0.1163	-0.5448	-0.897	-1.4975	-1.6333	-0.9985	-0.8787	-1.2953	-0.4479	-0.4903	-0.5232	-0.2734	-0.3182	-0.2127	-0.321	-0.1512	-0.568	-0.3723
312.5	-0.642	-1.063	-0.1261	-0.6446	-0.05	0.5589	0.2011	0.8716	0.6156	0.0447	0.5834	0.1039	-0.0524	-0.4841	-0.8372	-1.4274	-1.5513	-0.8999	-0.7767	-1.201	-0.3546	-0.4014	-0.374	-0.1576	-0.1781	-0.1234	-0.2467	-0.1135	-0.5719	-0.2723
316.4062	-0.6387	-1.0897	-0.137	-0.6295	-0.0339	0.5795	0.2099	0.8475	0.5614	0.0451	0.5415	0.0856	-0.0251	-0.4539	-0.7925	-1.3948	-1.4943	-0.8249	-0.709	-1.1468	-0.2998	-0.3447	-0.2581	-0.0815	-0.074	-0.065	-0.202	-0.0947	-0.611	-0.1902
320.3125	-0.684	-1.1361	-0.1952	-0.6399	-0.0491	0.5677	0.1943	0.8165	0.5026	0.0173	0.4806	0.056	-0.0355	-0.457	-0.7705	-1.3987	-1.4708	-0.7812	-0.6833	-1.1353	-0.2879	-0.3256	-0.1819	-0.054	-0.0131	-0.0418	-0.189	-0.094	-0.6773	-0.1337
324.2188	-0.7686	-1.1858	-0.2775	-0.6641	-0.0854	0.5358	0.1627	0.7853	0.4493	-0.0303	0.4129	0.0227	-0.0772	-0.489	-0.7773	-1.4315	-1.48	-0.7709	-0.6983	-1.1608	-0.314	-0.3412	-0.144	-0.0744	0.0057	-0.0515	-0.2035	-0.1071	-0.7549	-0.1057
328.125	-0.8744	-1.2223	-0.3559	-0.6883	-0.1286	0.4985	0.1254	0.759	0.4087	-0.0874	0.3492	-0.007	-0.1371	-0.5392	-0.8156	-1.4811	-1.5129	-0.79	-0.7443	-1.2107	-0.3646	-0.3809	-0.1363	-0.1324	-0.0098	-0.0862	-0.2354	-0.1274	-0.8245	-0.1038
332.0312	-0.9789	-1.2338	-0.4068	-0.7007	-0.1642	0.4701	0.092	0.7399	0.3835	-0.1437	0.2969	-0.0282	-0.1987	-0.5929	-0.8822	-1.5334	-1.5556	-0.8292	-0.8065	-1.2686	-0.4215	-0.4289	-0.1465	-0.2104	-0.0471	-0.1331	-0.2711	-0.1474	-0.8684	-0.1207
335.9375	-1.0604	-1.2159	-0.418	-0.694	-0.1811	0.4605	0.0693	0.727	0.3718	-0.1916	0.2598	-0.0389	-0.2458	-0.6356	-0.9673	-1.5759	-1.5944	-0.8763	-0.8685	-1.3183	-0.4657	-0.4677	-0.1612	-0.288	-0.0922	-0.1781	-0.2964	-0.1603	-0.8747	-0.1465
339.8438	-1.1036	-1.1731	-0.3912	-0.6674	-0.1747	0.4733	0.0599	0.7169	0.3684	-0.2269	0.2377	-0.04	-0.2662	-0.6562	-1.0558	-1.6006	-1.6196	-0.9192	-0.9168	-1.3478	-0.4829	-0.4829	-0.1703	-0.346	-0.133	-0.2087	-0.3002	-0.1619	-0.8407	-0.1711
343.75	-1.103	-1.1172	-0.3407	-0.6269	-0.148	0.5044	0.0623	0.7048	0.3664	-0.2493	0.228	-0.0349	-0.2546	-0.6498	-1.1306	-1.6058	-1.6291	-0.9489	-0.9444	-1.3527	-0.4676	-0.4664	-0.1689	-0.3717	-0.1623	-0.2173	-0.2772	-0.1517	-0.7738	-0.1872
347.6562	-1.0639	-1.0645	-0.2869	-0.5838	-0.1108	0.5435	0.0719	0.6868	0.3602	-0.2616	0.2269	-0.0284	-0.2141	-0.619	-1.177	-1.5968	-1.6285	-0.9621	-0.9518	-1.3367	-0.424	-0.4186	-0.1589	-0.3609	-0.1783	-0.2031	-0.2298	-0.1334	-0.6892	-0.1921
351.5625	-1.0002	-1.0318	-0.25	-0.5518	-0.077	0.5766	0.0825	0.6611	0.347	-0.268	0.2315	-0.0254	-0.1546	-0.5726	-1.1871	-1.5841	-1.6285	-0.9614	-0.9466	-1.3111	-0.3652	-0.3487	-0.1479	-0.3191	-0.1843	-0.1716	-0.1675	-0.1138	-0.6057	-0.1884
355.4688	-0.9302	-1.0311	-0.2431	-0.5427	-0.0598	0.5903	0.0888	0.6289	0.3281	-0.272	0.2398	-0.0298	-0.0898	-0.5224	-1.1616	-1.5803	-1.6408	-0.9544	-0.9403	-1.2908	-0.3086	-0.2716	-0.1459	-0.2591	-0.1871	-0.1334	-0.1046	-0.1013	-0.5408	-0.1816
359.375	-0.8713	-1.0669	-0.2695	-0.5634	-0.0681	0.5756	0.0883	0.5947	0.3081	-0.2753	0.252	-0.0438	-0.0336	-0.4801	-1.1096	-1.596	-1.6734	-0.9504	-0.9445	-1.2899	-0.2712	-0.2047	-0.1626	-0.1975	-0.1935	-0.1002	-0.0567	-0.1034	-0.5059	-0.1773
363.2812	-0.8362	-1.1339	-0.3231	-0.6133	-0.1031	0.5315	0.0821	0.5652	0.2932	-0.2771	0.2686	-0.0671	0.0036	-0.4536	-1.0464	-1.6367	-1.7274	-0.9575	-0.967	-1.3178	-0.2642	-0.1635	-0.2037	-0.1501	-0.2082	-0.0818	-0.0359	-0.1244	-0.5038	-0.1785
367.1875	-0.8311	-1.2193	-0.3917	-0.6849	-0.1589	0.4641	0.0746	0.5476	0.2896	-0.2751	0.2903	-0.0979	0.0171	-0.4463	-0.9899	-1.7018	-1.7958	-0.9799	-1.0104	-1.3769	-0.291	-0.1579	-0.2692	-0.128	-0.2318	-0.0834	-0.0487	-0.164	-0.5285	-0.1841
371.0938	-0.8563	-1.3056	-0.4627	-0.7663	-0.2248	0.3849	0.0705	0.547	0.3002	-0.2667	0.3159	-0.1329	0.0074	-0.457	-0.9565	-1.7847	-1.8661	-1.0172	-1.0714	-1.4628	-0.3474	-0.1909	-0.3529	-0.1358	-0.2611	-0.1044	-0.0936	-0.2175	-0.5679	-0.1892
375	-0.9076	-1.3764	-0.5266	-0.845	-0.2893	0.3057	0.0736	0.5643	0.324	-0.2511	0.3422	-0.1692	-0.0208	-0.4824	-0.9566	-1.876	-1.925	-1.0649	-1.1431	-1.5666	-0.4239	-0.2588	-0.4445	-0.1712	-0.2904	-0.1393	-0.163	-0.2772	-0.6078	-0.1873
378.9062	-0.9783	-1.4211	-0.5791	-0.9122	-0.3443	0.2357	0.0834	0.5947	0.3548	-0.2308	0.3638	-0.2047	-0.0613	-0.519	-0.9912	-1.9657	-1.9629	-1.116	-1.2178	-1.6779	-0.5099	-0.3529	-0.5319	-0.2271	-0.3132	-0.1795	-0.2444	-0.3343	-0.6362	-0.1722
382.8125	-1.0602	-1.4375	-0.6207	-0.9643	-0.3874	0.178	0.0959	0.628	0.3829	-0.2109	0.3739	-0.2387	-0.1083	-0.5647	-1.0495	-2.0459	-1.9779	-1.1623	-1.2886	-1.7866	-0.5959	-0.4619	-0.604	-0.2935	-0.3248	-0.2157	-0.3246	-0.3816	-0.6458	-0.1396
386.7188	-1.1439	-1.4318	-0.6536	-1.0034	-0.4211	0.1298	0.1039	0.6511	0.3968	-0.1988	0.3664	-0.2714	-0.1575	-0.6188	-1.1113	-2.1114	-1.9751	-1.1965	-1.3505	-1.8849	-0.6758	-0.5737	-0.6533	-0.3603	-0.3229	-0.2399	-0.3918	-0.4143	-0.6352	-0.0878
390.625	-1.2193	-1.4161	-0.6791	-1.0346	-0.4514	0.0843	0.0996	0.6506	0.386	-0.2012	0.3379	-0.3031	-0.2059	-0.6809	-1.1519	-2.1595	-1.9636	-1.2127	-1.3997	-1.9663	-0.7463	-0.6776	-0.6772	-0.4192	-0.3075	-0.2465	-0.4373	-0.4297	-0.6075	-0.0168
394.5312	-1.2773	-1.4033	-0.6962	-1.0634	-0.4833	0.0336	0.0779	0.6169	0.3443	-0.2222	0.2888	-0.3326	-0.2512	-0.7492	-1.1491	-2.1883	-1.9523	-1.2078	-1.4333	-2.0255	-0.8053	-0.7648	-0.677	-0.464	-0.2807	-0.2322	-0.457	-0.4264	-0.5683	0.0717
398.4375	-1.3108	-1.4024	-0.7028	-1.0923	-0.5188	-0.0276	0.0383	0.5471	0.2713	-0.2614	0.2243	-0.3565	-0.2909	-0.8193	-1.0908	-2.1963	-1.9458	-1.181	-1.448	-2.0575	-0.8509	-0.8292	-0.6581	-0.4915	-0.2453	-0.1963	-0.4506	-0.4036	-0.5247	0.1747
402.3438	-1.3168	-1.4161	-0.6981	-1.1195	-0.555	-0.1003	-0.0143	0.4459	0.174	-0.3132	0.1536	-0.3696	-0.3216	-0.8839	-0.9793	-2.1816	-1.942	-1.134	-1.4407	-2.0576	-0.8799	-0.8675	-0.627	-0.5008	-0.205	-0.1403	-0.4214	-0.3608	-0.4835	0.2878
406.25	-1.2968	-1.4399	-0.6843	-1.1392	-0.5851	-0.1799	-0.0699	0.3254	0.0652	-0.368	0.0885	-0.3657	-0.3394	-0.9342	-0.8313	-2.1421	-1.933	-1.0709	-1.4096	-2.0224	-0.8888	-0.8787	-0.5903	-0.4932	-0.1632	-0.0686	-0.3755	-0.2987	-0.4511	0.4046
410.1562	-1.2563	-1.4641	-0.6663	-1.144	-0.6008	-0.2585	-0.1163	0.2029	-0.0378	-0.4136	0.0409	-0.3399	-0.3405	-0.9618	-0.6731	-2.0771	-1.9086	-0.9975	-1.3542	-1.9514	-0.8746	-0.8643	-0.5527	-0.4714	-0.1236	0.0126	-0.3208	-0.22	-0.4327	0.5173
414.0625	-1.2033	-1.4775	-0.6495	-1.1278	-0.5955	-0.3265	-0.1419	0.0972	-0.1174	-0.4381	0.0206	-0.2898	-0.3228	-0.9617	-0.5332	-1.9879	-1.8599	-0.9196	-1.277	-1.8475	-0.8368	-0.8273	-0.5161	-0.4388	-0.0893	0.0954	-0.2652	-0.1301	-0.4323	0.6171
417.9688	-1.1457	-1.4709	-0.6362	-1.0881	-0.5673	-0.376	-0.1389	0.0247	-0.1588	-0.433	0.0331	-0.2175	-0.2872	-0.9333	-0.4325	-1.8779	-1.7824	-0.8427	-1.1824	-1.7182	-0.7782	-0.7715	-0.4794	-0.3989	-0.0624	0.1713	-0.2155	-0.0372	-0.4514	0.6964
421.875	-1.0908	-1.4405	-0.6245	-1.0277	-0.5201	-0.4034	-0.1055	-0.0039	-0.1538	-0.395	0.0783	-0.1298	-0.2378	-0.8814	-0.378	-1.753	-1.6784	-0.7697	-1.077	-1.5741	-0.7051	-0.7015	-0.4394	-0.3553	-0.0437	0.2331	-0.1765	0.0495	-0.4891	0.7493
425.7812	-1.0437	-1.3882	-0.609	-0.9539	-0.4634	-0.4097	-0.0465	0.0136	-0.1025	-0.3268	0.1505	-0.0368	-0.1814	-0.8148	-0.3623	-1.6201	-1.5557	-0.7016	-0.9681	-1.4271	-0.6263	-0.6221	-0.3923	-0.3109	-0.032	0.2758	-0.1496	0.1208	-0.5418	0.7736
429.6875	-1.0078	-1.3212	-0.5845	-0.8768	-0.409	-0.4	0.0281	0.0707	-0.0134	-0.237	0.2402	0.0495	-0.1265	-0.7441	-0.3674	-1.4865	-1.4259	-0.6373	-0.8629	-1.2884	-0.551	-0.5382	-0.3355	-0.2679	-0.0246	0.2984	-0.1332	0.17	-0.6037	0.7703
433.5938	-0.9839	-1.2498	-0.5497	-0.8069	-0.3681	-0.3815	0.1054	0.1542	0.099	-0.1373	0.3357	0.1189	-0.0805	-0.6787	-0.3731	-1.359	-1.3012	-0.5752	-0.7673	-1.1657	-0.4866	-0.4545	-0.2687	-0.2274	-0.0178	0.3036	-0.1232	0.1946	-0.6679	0.7436
437.5	-0.9706	-1.1844	-0.5092	-0.7522	-0.3478	-0.3612	0.1734	0.2475	0.2168	-0.0405	0.4261	0.1646	-0.0487	-0.6249	-0.3648	-1.2428	-1.1916	-0.5148	-0.6857	-1.0632	-0.4373	-0.375	-0.1946	-0.1896	-0.0081	0.2973	-0.1135	0.1968	-0.7279	0.6999
441.4062	-0.9639	-1.133	-0.4724	-0.7171	-0.3495	-0.344	0.2227	0.3339	0.3232	0.0427	0.5024	0.1849	-0.0327	-0.5845	-0.3383	-1.1415	-1.1033	-0.4571	-0.6204	-0.9811	-0.4033	-0.3033	-0.1182	-0.1538	0.0074	0.2872	-0.0989	0.1827	-0.7782	0.6469
445.3125	-0.9583	-1.0989	-0.4505	-0.7014	-0.3692	-0.3323	0.2489	0.3997	0.4047	0.1049	0.5594	0.1829	-0.0309	-0.5557	-0.3011	-1.0569	-1.0377	-0.4054	-0.5713	-0.9167	-0.3821	-0.2417	-0.0461	-0.1191	0.0292	0.2803	-0.0756	0.1609	-0.8149	0.5926
449.2188	-0.9484	-1.0804	-0.4519	-0.7013	-0.3987	-0.3263	0.2521	0.4357	0.4535	0.1429	0.5951	0.1652	-0.0384	-0.5334	-0.2693	-0.9892	-0.9918	-0.3637	-0.5362	-0.8664	-0.3686	-0.1911	0.0157	-0.0847	0.0563	0.2818	-0.0429	0.1404	-0.8358	0.5446
453.125	-0.9299	-1.0709	-0.4791	-0.7102	-0.4285	-0.3245	0.2371	0.4384	0.4683	0.1584	0.6112	0.1408	-0.0489	-0.5115	-0.2614	-0.9368	-0.9586	-0.3353	-0.5107	-0.8262	-0.3575	-0.1505	0.0639	-0.0499	0.0871	0.2944	-0.0025	0.1286	-0.8403	0.5083
457.0312	-0.9014	-1.0613	-0.5274	-0.7202	-0.4498	-0.3242	0.2117	0.4097	0.4539	0.1566	0.612	0.1187	-0.0551	-0.4836	-0.2918	-0.8971	-0.9297	-0.3209	-0.4886	-0.7929	-0.3436	-0.1175	0.0984	-0.014	0.1198	0.318	0.0419	0.1302	-0.8294	0.487
460.9375	-0.8645	-1.0423	-0.586	-0.7241	-0.4563	-0.322	0.185	0.356	0.4193	0.1451	0.6032	0.1058	-0.0509	-0.4453	-0.3638	-0.8668	-0.8969	-0.318	-0.4638	-0.7643	-0.3232	-0.0886	0.1226	0.0231	0.1535	0.3504	0.0857	0.1461	-0.8058	0.4815
464.8438	-0.8231	-1.0081	-0.6408	-0.7171	-0.446	-0.3148	0.1653	0.287	0.3752	0.1318	0.59	0.1052	-0.0325	-0.395	-0.4668	-0.8434	-0.8553	-0.3209	-0.4315	-0.7401	-0.2951	-0.0612	0.1415	0.061	0.1877	0.3871	0.1238	0.1726	-0.7734	0.4909
468.75	-0.7823	-0.9583	-0.6787	-0.6979	-0.4207	-0.3008	0.1578	0.2129	0.3318	0.1224	0.5755	0.1148	0	-0.3344	-0.5785	-0.8261	-0.8048	-0.3227	-0.3905	-0.7216	-0.2608	-0.0348	0.1591	0.0975	0.2208	0.4213	0.1502	0.2017	-0.7372	0.513
472.6562	-0.7469	-0.899	-0.6907	-0.6694	-0.386	-0.2796	0.1638	0.1438	0.2964	0.1197	0.5596	0.1277	0.0422	-0.2693	-0.6707	-0.8164	-0.7505	-0.3182	-0.3446	-0.7123	-0.2251	-0.0121	0.1765	0.1284	0.2495	0.4447	0.1586	0.222	-0.702	0.5455
476.5625	-0.7206	-0.8408	-0.6741	-0.6377	-0.3493	-0.2531	0.1806	0.0869	0.2727	0.1223	0.5399	0.1342	0.0862	-0.2081	-0.7192	-0.818	-0.7017	-0.306	-0.3019	-0.7175	-0.1953	0.0009	0.1906	0.1475	0.268	0.4487	0.1426	0.222	-0.6714	0.5854
480.4688	-0.7054	-0.796	-0.6309	-0.6109	-0.3183	-0.2248	0.202	0.0469	0.2603	0.126	0.5125	0.1245	0.1216	-0.1608	-0.7121	-0.8358	-0.6694	-0.2899	-0.2737	-0.743	-0.1799	-0.0037	0.1952	0.1476	0.2693	0.426	0.0972	0.1925	-0.6472	0.629
484.375	-0.7019	-0.7755	-0.5659	-0.5973	-0.299	-0.1992	0.22	0.0244	0.2563	0.1244	0.474	0.0922	0.1382	-0.1368	-0.6537	-0.8749	-0.6642	-0.2787	-0.272	-0.7939	-0.1868	-0.0338	0.1827	0.1222	0.2466	0.3728	0.0203	0.1297	-0.6294	0.672
488.2812	-0.7101	-0.7859	-0.4838	-0.603	-0.2949	-0.1809	0.227	0.0172	0.256	0.1114	0.4233	0.0359	0.1279	-0.1431	-0.5627	-0.9388	-0.6937	-0.2836	-0.3062	-0.8735	-0.2219	-0.0943	0.1471	0.0673	0.1955	0.2902	-0.0859	0.0369	-0.6166	0.7093
492.1875	-0.7295	-0.8283	-0.3888	-0.6311	-0.3071	-0.1739	0.2172	0.0212	0.2548	0.0824	0.362	-0.0398	0.0871	-0.1826	-0.4653	-1.0283	-0.7614	-0.3144	-0.3811	-0.9813	-0.287	-0.1858	0.086	-0.0167	0.1163	0.1849	-0.2137	-0.076	-0.6065	0.7367
496.0938	-0.7593	-0.8973	-0.2852	-0.6803	-0.3336	-0.1812	0.1885	0.0318	0.2494	0.0364	0.295	-0.1251	0.0178	-0.253	-0.3867	-1.1405	-0.8651	-0.3756	-0.4944	-1.1123	-0.3791	-0.3026	0.003	-0.124	0.015	0.0681	-0.3507	-0.1942	-0.5965	0.752
500	-0.7974	-0.9819	-0.1793	-0.7445	-0.3709	-0.2037	0.1424	0.0457	0.2387	-0.0236	0.2289	-0.2073	-0.0721	-0.3464	-0.3439	-1.2683	-0.9961	-0.4639	-0.6361	-1.2571	-0.4899	-0.4329	-0.0925	-0.2436	-0.0971	-0.0456	-0.4806	-0.301	-0.5839	0.7568
503.9062	-0.8398	-1.0674	-0.0794	-0.814	-0.4134	-0.2402	0.0848	0.061	0.2234	-0.0904	0.1715	-0.2734	-0.1698	-0.4502	-0.3427	-1.4005	-1.1392	-0.5681	-0.7887	-1.4022	-0.6073	-0.56	-0.1861	-0.36	-0.2045	-0.1414	-0.5865	-0.3804	-0.5656	0.7563
507.8125	-0.8799	-1.1377	0.0053	-0.8766	-0.4552	-0.2867	0.024	0.0776	0.2058	-0.1543	0.1291	-0.3126	-0.2605	-0.5494	-0.3779	-1.5235	-1.2737	-0.671	-0.9305	-1.5324	-0.7169	-0.6652	-0.2613	-0.4567	-0.2912	-0.2068	-0.6539	-0.4208	-0.5387	0.7585
511.7188	-0.9085	-1.1782	0.0681	-0.9201	-0.4897	-0.3367	-0.0302	0.0955	0.1885	-0.2052	0.1057	-0.3183	-0.3297	-0.6293	-0.4374	-1.623	-1.3775	-0.754	-1.039	-1.6337	-0.8051	-0.7312	-0.3031	-0.5187	-0.3438	-0.234	-0.6736	-0.4164	-0.5001	0.7711
515.625	-0.9147	-1.1784	0.1069	-0.9342	-0.5108	-0.3817	-0.0683	0.1144	0.1737	-0.2344	0.102	-0.2893	-0.3665	-0.6784	-0.5072	-1.6869	-1.4309	-0.8019	-1.0968	-1.6954	-0.861	-0.747	-0.3026	-0.5369	-0.356	-0.2215	-0.6442	-0.368	-0.4477	0.7993
519.5312	-0.8882	-1.1332	0.1259	-0.9118	-0.5124	-0.4115	-0.0827	0.1336	0.163	-0.2361	0.116	-0.2301	-0.3653	-0.6899	-0.5748	-1.7065	-1.422	-0.8068	-1.0949	-1.7118	-0.8784	-0.7098	-0.2588	-0.5099	-0.3299	-0.1748	-0.5726	-0.2834	-0.3812	0.8431
523.4375	-0.8217	-1.0422	0.1341	-0.8492	-0.4888	-0.4154	-0.0681	0.1518	0.158	-0.209	0.1434	-0.149	-0.3262	-0.6626	-0.631	-1.6774	-1.349	-0.7695	-1.0343	-1.6821	-0.8556	-0.6262	-0.1803	-0.4448	-0.2761	-0.1053	-0.4729	-0.1756	-0.3024	0.8977
527.3438	-0.7134	-0.9091	0.1439	-0.7461	-0.4348	-0.3836	-0.0223	0.1686	0.1605	-0.1555	0.1791	-0.0577	-0.2548	-0.5997	-0.6695	-1.5993	-1.2205	-0.6982	-0.9254	-1.6096	-0.7949	-0.51	-0.0825	-0.3553	-0.2112	-0.0277	-0.3632	-0.0607	-0.2154	0.9544
531.25	-0.5693	-0.7396	0.1675	-0.6051	-0.3475	-0.3093	0.0536	0.1844	0.1724	-0.0817	0.2182	0.0317	-0.16	-0.5075	-0.6839	-1.476	-1.0535	-0.6049	-0.7843	-1.5002	-0.7011	-0.3788	0.016	-0.2591	-0.1534	0.0424	-0.2622	0.0443	-0.126	1.0033
535.1562	-0.4023	-0.5416	0.2145	-0.4318	-0.227	-0.1911	0.1549	0.1998	0.1954	0.0033	0.2563	0.1071	-0.0532	-0.3944	-0.6671	-1.3145	-0.8689	-0.502	-0.629	-1.3619	-0.5814	-0.2493	0.0979	-0.1731	-0.1179	0.0917	-0.1857	0.1241	-0.0406	1.0364
539.0625	-0.2306	-0.3248	0.2899	-0.2355	-0.079	-0.0345	0.2729	0.215	0.2297	0.0889	0.2891	0.1584	0.0534	-0.2695	-0.6118	-1.125	-0.688	-0.3997	-0.476	-1.204	-0.4452	-0.1349	0.1512	-0.1106	-0.1135	0.1114	-0.1441	0.1668	0.0347	1.0498
542.9688	-0.0735	-0.101	0.3926	-0.0292	0.0851	0.1478	0.3958	0.2286	0.2729	0.1639	0.3126	0.1786	0.1483	-0.143	-0.5135	-0.9212	-0.5286	-0.3047	-0.3378	-1.0376	-0.3033	-0.0433	0.1719	-0.0789	-0.1404	0.0988	-0.1416	0.1655	0.0953	1.044
546.875	0.0531	0.1161	0.516	0.1715	0.2494	0.3373	0.51	0.238	0.3206	0.2185	0.3224	0.1643	0.2215	-0.0247	-0.3736	-0.7184	-0.4019	-0.2202	-0.2219	-0.8748	-0.1682	0.0232	0.1637	-0.0785	-0.1905	0.0571	-0.1759	0.1195	0.1386	1.0239
550.7812	0.1404	0.3121	0.6498	0.3505	0.3964	0.5135	0.6029	0.2403	0.3669	0.2463	0.3149	0.1172	0.2664	0.0767	-0.2014	-0.5321	-0.3121	-0.1473	-0.1306	-0.7272	-0.0512	0.0672	0.1369	-0.1035	-0.2493	-0.0045	-0.239	0.0344	0.165	0.9971
554.6875	0.1895	0.4743	0.7821	0.4943	0.5112	0.6591	0.6654	0.2337	0.4067	0.2461	0.2888	0.0435	0.2804	0.1557	-0.0141	-0.3748	-0.2563	-0.0856	-0.0624	-0.6042	0.0393	0.0941	0.1053	-0.1442	-0.2998	-0.0735	-0.3189	-0.0779	0.1777	0.9714
558.5938	0.2102	0.594	0.9024	0.5954	0.5852	0.7638	0.6941	0.2188	0.4367	0.2224	0.2454	-0.0459	0.2663	0.211	0.1663	-0.2539	-0.2258	-0.0342	-0.0125	-0.5103	0.1	0.1105	0.0825	-0.1887	-0.3265	-0.1362	-0.4018	-0.2016	0.1835	0.9532
562.5	0.2183	0.6692	1.0032	0.654	0.6184	0.8264	0.6917	0.1992	0.4566	0.1838	0.1893	-0.138	0.2311	0.2459	0.3167	-0.1697	-0.2086	0.0079	0.0255	-0.444	0.1338	0.123	0.0794	-0.226	-0.3192	-0.1809	-0.4745	-0.3194	0.1912	0.9461
566.4062	0.2305	0.705	1.0809	0.6783	0.6192	0.8548	0.6658	0.1812	0.4688	0.1418	0.1277	-0.2193	0.1847	0.2675	0.4194	-0.1149	-0.1903	0.0427	0.0589	-0.3974	0.1493	0.1372	0.1021	-0.2478	-0.2755	-0.2001	-0.5264	-0.416	0.2109	0.9506
570.3125	0.2602	0.7134	1.1358	0.6827	0.6025	0.863	0.6272	0.1716	0.4776	0.107	0.0688	-0.2785	0.1382	0.285	0.4674	-0.0766	-0.1567	0.0739	0.0962	-0.3575	0.1585	0.1577	0.1516	-0.2499	-0.2007	-0.1925	-0.5516	-0.4801	0.2506	0.9646
574.2188	0.3141	0.7102	1.1717	0.6843	0.5859	0.8663	0.5865	0.1762	0.4871	0.0875	0.0204	-0.3082	0.1015	0.3073	0.4679	-0.0384	-0.0958	0.1079	0.1454	-0.309	0.1738	0.1886	0.2255	-0.2321	-0.1064	-0.162	-0.5489	-0.5067	0.3137	0.9848
578.125	0.3912	0.7116	1.1953	0.6984	0.5849	0.8771	0.5526	0.1977	0.5007	0.0869	-0.0118	-0.306	0.0819	0.3411	0.442	0.0158	-0.0006	0.1526	0.2139	-0.2381	0.2054	0.2335	0.3187	-0.1972	-0.0069	-0.1167	-0.5214	-0.497	0.3974	1.008
582.0312	0.4844	0.7308	1.2157	0.7357	0.6104	0.9019	0.5312	0.2344	0.5199	0.1045	-0.0248	-0.2744	0.0838	0.3902	0.4182	0.098	0.1297	0.2159	0.3063	-0.1358	0.2589	0.296	0.4259	-0.1497	0.0845	-0.0661	-0.4752	-0.4572	0.4933	1.0325
585.9375	0.5839	0.7758	1.2432	0.8002	0.6663	0.9408	0.5248	0.2808	0.5438	0.1363	-0.0182	-0.2196	0.1081	0.4545	0.4239	0.2145	0.2884	0.3025	0.4233	0.0004	0.335	0.3784	0.5419	-0.0944	0.158	-0.0192	-0.4177	-0.3967	0.5896	1.0588
589.8438	0.6807	0.8481	1.2875	0.8894	0.7497	0.9888	0.5331	0.3283	0.5696	0.1767	0.0064	-0.1498	0.1535	0.5315	0.4766	0.3639	0.4632	0.4119	0.5614	0.1657	0.4296	0.481	0.6619	-0.0355	0.2092	0.0177	-0.3558	-0.3259	0.6749	1.0893
593.75	0.7694	0.9434	1.3544	0.9952	0.8518	1.0377	0.5544	0.3684	0.5934	0.2199	0.0458	-0.0729	0.2161	0.6161	0.5791	0.5378	0.6378	0.5376	0.7124	0.3481	0.535	0.6009	0.7807	0.0236	0.2389	0.0415	-0.2951	-0.2543	0.7418	1.1275
597.6562	0.8486	1.0521	1.4442	1.1056	0.9598	1.0788	0.5854	0.3936	0.6117	0.261	0.0964	0.0042	0.2903	0.7018	0.7198	0.7219	0.7953	0.6679	0.8643	0.5308	0.6409	0.7303	0.892	0.0796	0.2516	0.0524	-0.2397	-0.1893	0.7895	1.1759
601.5625	0.9198	1.1611	1.5504	1.2064	1.0587	1.1049	0.6216	0.4002	0.6216	0.2962	0.1537	0.0764	0.3679	0.7809	0.8773	0.8974	0.9207	0.7881	1.0025	0.6938	0.7358	0.8574	0.9879	0.1287	0.2536	0.0529	-0.1927	-0.136	0.823	1.2351
605.4688	0.9855	1.2558	1.6607	1.2835	1.1339	1.111	0.6574	0.3877	0.6224	0.3227	0.2127	0.14	0.4393	0.8446	1.0276	1.0439	1.0029	0.8841	1.1123	0.817	0.8079	0.9671	1.0603	0.1664	0.2501	0.0469	-0.1564	-0.0973	0.8514	1.3025
609.375	1.0471	1.3225	1.76	1.3247	1.1727	1.0953	0.6863	0.3596	0.615	0.3383	0.2676	0.1918	0.4937	0.8839	1.1502	1.1424	1.0363	0.9446	1.1812	0.883	0.847	1.0444	1.1019	0.188	0.2449	0.0384	-0.1331	-0.0745	0.8842	1.3728
613.2812	1.1039	1.3503	1.8338	1.3215	1.1665	1.0582	0.7012	0.3208	0.6013	0.341	0.3116	0.2291	0.521	0.891	1.2326	1.1786	1.0206	0.9639	1.2008	0.8806	0.8455	1.0773	1.1088	0.1894	0.239	0.0305	-0.1248	-0.068	0.9273	1.4395
617.1875	1.1528	1.3334	1.8711	1.2707	1.1115	1.0017	0.695	0.2766	0.5828	0.3287	0.338	0.2482	0.5134	0.8603	1.2715	1.1459	0.9606	0.9422	1.1694	0.8066	0.8002	1.0603	1.0818	0.1686	0.2323	0.0246	-0.1334	-0.0778	0.9813	1.4963
621.0938	1.1882	1.2717	1.8668	1.1739	1.0091	0.9275	0.6615	0.2299	0.5592	0.2991	0.34	0.2449	0.4664	0.7898	1.2708	1.0474	0.8655	0.8853	1.0918	0.6677	0.7126	0.9958	1.0267	0.1261	0.2235	0.0201	-0.16	-0.1041	1.0415	1.5391
625	1.2032	1.1711	1.8215	1.0383	0.8654	0.8358	0.5962	0.1804	0.528	0.2489	0.3117	0.2143	0.3799	0.6819	1.238	0.8958	0.7476	0.8026	0.9796	0.4794	0.5893	0.8939	0.9535	0.0649	0.212	0.0146	-0.2048	-0.1469	1.099	1.5657
628.9062	1.1918	1.0423	1.7404	0.8748	0.6899	0.7251	0.4965	0.1245	0.4845	0.1752	0.2495	0.1526	0.2576	0.5435	1.1805	0.7126	0.6214	0.7055	0.8489	0.2646	0.4414	0.7707	0.8743	-0.0098	0.1985	0.005	-0.2665	-0.2061	1.1443	1.5766
632.8125	1.1504	0.8998	1.6318	0.6973	0.4942	0.5934	0.3636	0.0573	0.4231	0.0762	0.153	0.058	0.1071	0.3851	1.1037	0.5238	0.5018	0.605	0.7184	0.0493	0.2825	0.6444	0.8002	-0.0919	0.185	-0.0118	-0.3424	-0.28	1.1702	1.574
636.7188	1.0801	0.759	1.505	0.5206	0.2909	0.4394	0.2024	-0.025	0.3403	-0.0475	0.0261	-0.0667	-0.0616	0.2196	1.0107	0.3551	0.4019	0.5102	0.605	-0.1414	0.1269	0.5314	0.7395	-0.1753	0.1742	-0.0375	-0.4277	-0.3652	1.1732	1.5612
640.625	0.9871	0.6337	1.3695	0.3578	0.0921	0.2646	0.0223	-0.1231	0.2366	-0.1908	-0.1216	-0.2134	-0.2368	0.0601	0.9028	0.2262	0.3299	0.4266	0.5203	-0.289	-0.0132	0.4424	0.6949	-0.2551	0.1689	-0.0715	-0.5164	-0.4555	1.1547	1.5414
644.5312	0.882	0.5334	1.2333	0.2186	-0.0921	0.0743	-0.1634	-0.2324	0.1181	-0.3441	-0.2752	-0.3679	-0.4063	-0.0822	0.7814	0.1467	0.2871	0.3552	0.4677	-0.3846	-0.1298	0.3798	0.6633	-0.3274	0.1706	-0.1103	-0.6007	-0.5418	1.1192	1.5175
648.4375	0.7775	0.461	1.1027	0.1071	-0.2542	-0.1228	-0.3388	-0.3437	-0.0029	-0.4936	-0.416	-0.511	-0.558	-0.1997	0.6498	0.1133	0.2668	0.2933	0.4411	-0.4308	-0.2209	0.3372	0.6365	-0.39	0.1791	-0.1476	-0.6722	-0.6124	1.0725	1.4906
652.3438	0.6854	0.412	0.982	0.021	-0.3905	-0.3164	-0.4878	-0.4446	-0.1105	-0.6232	-0.5241	-0.6217	-0.6817	-0.2894	0.5142	0.1116	0.2557	0.2356	0.4264	-0.4404	-0.2899	0.3021	0.603	-0.4416	0.1926	-0.1753	-0.7224	-0.6549	1.0193	1.4602
656.25	0.6137	0.3759	0.8722	-0.0472	-0.5009	-0.496	-0.5966	-0.5225	-0.1882	-0.7171	-0.582	-0.6807	-0.7695	-0.3531	0.3839	0.1194	0.2368	0.1761	0.4053	-0.4327	-0.3446	0.2595	0.5514	-0.481	0.2084	-0.1851	-0.7439	-0.6579	0.9617	1.4256
660.1562	0.5648	0.3389	0.7717	-0.1086	-0.5881	-0.6536	-0.6557	-0.5671	-0.2229	-0.7627	-0.5785	-0.6748	-0.8169	-0.3957	0.2699	0.1134	0.194	0.1105	0.3604	-0.4283	-0.3942	0.1966	0.4737	-0.507	0.2237	-0.1703	-0.7318	-0.614	0.8993	1.3861
664.0625	0.5345	0.2884	0.6767	-0.1738	-0.6565	-0.7838	-0.6613	-0.5732	-0.208	-0.7532	-0.511	-0.5999	-0.8227	-0.4237	0.1825	0.0758	0.1179	0.0381	0.281	-0.4429	-0.4463	0.1075	0.3678	-0.5177	0.2363	-0.128	-0.6846	-0.5217	0.8304	1.3431
667.9688	0.5143	0.2175	0.5824	-0.2493	-0.7098	-0.8849	-0.6158	-0.5414	-0.1453	-0.6889	-0.3856	-0.4624	-0.7891	-0.4425	0.1298	-0.0002	0.0089	-0.037	0.1668	-0.4832	-0.5039	-0.0048	0.2386	-0.5111	0.2454	-0.0595	-0.6044	-0.3866	0.7544	1.3003
671.875	0.4939	0.1277	0.4857	-0.335	-0.7496	-0.9569	-0.5265	-0.4777	-0.0443	-0.5773	-0.2168	-0.2778	-0.7213	-0.455	0.1156	-0.1083	-0.1213	-0.1068	0.029	-0.5449	-0.5638	-0.1284	0.0973	-0.4853	0.2512	0.0297	-0.4969	-0.221	0.6738	1.2636
675.7812	0.4658	0.0291	0.387	-0.4238	-0.7747	-1.0011	-0.4043	-0.3917	0.0802	-0.4317	-0.0244	-0.0689	-0.6262	-0.461	0.1404	-0.2308	-0.2525	-0.1607	-0.1133	-0.6142	-0.6179	-0.2459	-0.0412	-0.4406	0.2547	0.1301	-0.3716	-0.0419	0.5957	1.2403
679.6875	0.4288	-0.0627	0.2913	-0.5029	-0.7815	-1.019	-0.2625	-0.2947	0.2113	-0.2692	0.1695	0.1388	-0.5131	-0.458	0.2004	-0.3432	-0.3615	-0.1891	-0.2376	-0.6727	-0.6553	-0.3392	-0.1616	-0.3797	0.2566	0.2301	-0.2401	0.1308	0.5309	1.237
683.5938	0.3885	-0.1309	0.2078	-0.558	-0.7656	-1.012	-0.1148	-0.1978	0.3335	-0.108	0.3438	0.3205	-0.3922	-0.4435	0.2882	-0.4217	-0.4282	-0.1864	-0.3244	-0.7023	-0.6659	-0.3939	-0.2521	-0.3089	0.2569	0.3174	-0.1157	0.2772	0.491	1.2575
687.5	0.3559	-0.1625	0.1476	-0.5771	-0.7236	-0.9817	0.0253	-0.11	0.4355	0.035	0.4811	0.4556	-0.2741	-0.4165	0.3923	-0.4486	-0.44	-0.1529	-0.3615	-0.6906	-0.6436	-0.4032	-0.3064	-0.237	0.2544	0.3804	-0.0118	0.3805	0.4844	1.3008
691.4062	0.3428	-0.1522	0.12	-0.5542	-0.6545	-0.9311	0.1458	-0.0376	0.5108	0.1464	0.5691	0.53	-0.1694	-0.3784	0.4984	-0.4168	-0.3947	-0.095	-0.3461	-0.6335	-0.5882	-0.3681	-0.3244	-0.174	0.2475	0.4108	0.0607	0.4285	0.5123	1.3604
695.3125	0.3575	-0.104	0.1293	-0.4907	-0.5612	-0.8646	0.237	0.0159	0.5576	0.2176	0.6021	0.5378	-0.0866	-0.3332	0.5914	-0.3306	-0.2998	-0.0232	-0.2836	-0.5354	-0.5053	-0.2965	-0.3113	-0.129	0.2341	0.404	0.0943	0.4161	0.5668	1.4248
699.2188	0.4007	-0.0296	0.1716	-0.3953	-0.4493	-0.7878	0.2926	0.0497	0.5783	0.2455	0.5807	0.4814	-0.0319	-0.286	0.6585	-0.2036	-0.17	0.0504	-0.1853	-0.4072	-0.4046	-0.2003	-0.2755	-0.1082	0.2123	0.3606	0.0865	0.3456	0.6313	1.4793
703.125	0.4646	0.0541	0.2348	-0.2818	-0.3272	-0.7072	0.3096	0.0651	0.5772	0.2319	0.5117	0.3713	-0.008	-0.2418	0.6922	-0.055	-0.0241	0.1158	-0.0647	-0.2627	-0.2975	-0.092	-0.2263	-0.1137	0.181	0.2861	0.0402	0.2266	0.6845	1.5096
707.0312	0.5343	0.1297	0.3006	-0.1657	-0.2046	-0.6294	0.2892	0.0645	0.5598	0.1826	0.407	0.2248	-0.014	-0.2038	0.6926	0.0951	0.1192	0.1669	0.0656	-0.1157	-0.1942	0.0175	-0.1717	-0.1432	0.14	0.1903	-0.0363	0.0752	0.7056	1.5054
710.9375	0.5917	0.1833	0.3487	-0.0612	-0.091	-0.56	0.2355	0.0504	0.5311	0.1061	0.2821	0.063	-0.0458	-0.1727	0.6669	0.2297	0.2449	0.2029	0.1962	0.0231	-0.1016	0.1213	-0.1173	-0.1905	0.0911	0.0862	-0.131	-0.0883	0.6805	1.464
714.8438	0.6209	0.2072	0.3621	0.0217	0.0047	-0.503	0.1553	0.0252	0.4949	0.012	0.1538	-0.0912	-0.0967	-0.1466	0.6275	0.3376	0.3443	0.228	0.3221	0.1469	-0.0224	0.2166	-0.0648	-0.246	0.0384	-0.0116	-0.2292	-0.242	0.6064	1.3921
718.75	0.6133	0.2014	0.3319	0.0785	0.076	-0.461	0.0571	-0.0095	0.4539	-0.0895	0.0381	-0.2169	-0.1576	-0.1215	0.5887	0.4148	0.4164	0.2499	0.4422	0.2533	0.045	0.3052	-0.012	-0.2986	-0.0116	-0.0879	-0.3152	-0.3654	0.4933	1.3061
722.6562	0.5704	0.1724	0.2594	0.1105	0.1197	-0.4339	-0.0495	-0.0522	0.409	-0.1891	-0.0519	-0.298	-0.2186	-0.0919	0.5623	0.4644	0.4674	0.2776	0.5585	0.3431	0.1057	0.3913	0.046	-0.3366	-0.0501	-0.1296	-0.3747	-0.4424	0.3613	1.228
726.5625	0.5038	0.132	0.156	0.1242	0.1367	-0.419	-0.1543	-0.1011	0.3609	-0.2789	-0.1082	-0.3254	-0.2694	-0.0521	0.5551	0.4941	0.5084	0.3185	0.6735	0.4195	0.1662	0.48	0.116	-0.3499	-0.068	-0.1277	-0.3968	-0.4637	0.2355	1.1806
730.4688	0.4317	0.0937	0.0401	0.129	0.1327	-0.4109	-0.2468	-0.1533	0.3102	-0.3525	-0.1284	-0.2985	-0.301	0.0025	0.5673	0.5145	0.5523	0.3772	0.789	0.4865	0.2332	0.575	0.2033	-0.3318	-0.0578	-0.0791	-0.3765	-0.4286	0.139	1.1812
734.375	0.3733	0.07	-0.0668	0.1358	0.1179	-0.401	-0.3171	-0.2048	0.2584	-0.4052	-0.1155	-0.2245	-0.3067	0.0745	0.5936	0.5358	0.6101	0.4541	0.9047	0.5482	0.3115	0.6769	0.3105	-0.2804	-0.0159	0.0117	-0.3153	-0.3451	0.0876	1.2369
738.2812	0.343	0.0701	-0.1463	0.1543	0.105	-0.3798	-0.3573	-0.251	0.2078	-0.4346	-0.0771	-0.1174	-0.2833	0.1635	0.6259	0.5653	0.6883	0.5454	1.0177	0.6076	0.4026	0.7828	0.4359	-0.1993	0.0563	0.133	-0.2222	-0.2284	0.0867	1.3422
742.1875	0.346	0.0973	-0.1868	0.1905	0.1065	-0.3384	-0.3628	-0.2872	0.1619	-0.4408	-0.0238	0.0048	-0.232	0.2648	0.6569	0.6061	0.7869	0.6447	1.1229	0.6658	0.5038	0.8859	0.5727	-0.0979	0.1517	0.2679	-0.1118	-0.0984	0.1308	1.4809
746.0938	0.3777	0.148	-0.1852	0.2449	0.1309	-0.2716	-0.3341	-0.3104	0.1235	-0.4267	0.0327	0.1228	-0.1593	0.3702	0.6835	0.6554	0.8983	0.7437	1.2134	0.7211	0.6081	0.9769	0.7103	0.0102	0.259	0.3966	-0.0025	0.0235	0.206	1.6292
750	0.4248	0.211	-0.1465	0.3114	0.1799	-0.1802	-0.2777	-0.32	0.0946	-0.3987	0.0803	0.218	-0.0766	0.4674	0.708	0.705	1.008	0.8334	1.2807	0.7682	0.7045	1.0449	0.8359	0.1087	0.3648	0.5002	0.0865	0.1173	0.2938	1.7618
753.9062	0.4696	0.2692	-0.0816	0.3778	0.2472	-0.0719	-0.2053	-0.318	0.0751	-0.3653	0.1083	0.275	0.0013	0.5421	0.7375	0.7425	1.0961	0.9049	1.316	0.7989	0.7796	1.0802	0.937	0.1814	0.4556	0.5636	0.1384	0.1675	0.3751	1.8575
757.8125	0.4949	0.3037	-0.004	0.4289	0.3198	0.0403	-0.1321	-0.3085	0.0629	-0.3366	0.1086	0.2835	0.0585	0.5807	0.7792	0.754	1.1418	0.9507	1.312	0.8038	0.8204	1.0756	1.0039	0.2149	0.5208	0.578	0.1415	0.165	0.434	1.9037
761.7188	0.4883	0.2976	0.072	0.4495	0.3812	0.1407	-0.0733	-0.2965	0.0547	-0.3226	0.0768	0.2389	0.081	0.5727	0.8364	0.7278	1.1277	0.9646	1.2639	0.7743	0.8166	1.0289	1.0317	0.2018	0.5541	0.5416	0.0914	0.108	0.4608	1.8985
765.625	0.4446	0.2412	0.1337	0.4295	0.4159	0.2157	-0.0412	-0.2869	0.0465	-0.3311	0.0123	0.1435	0.0592	0.5131	0.9048	0.6574	1.0448	0.9425	1.1716	0.7053	0.7632	0.9428	1.0206	0.1411	0.5547	0.4598	-0.0089	0.0016	0.4523	1.8503
769.5312	0.367	0.1347	0.1717	0.3656	0.4128	0.2566	-0.0437	-0.2833	0.0338	-0.3676	-0.0821	0.0044	-0.0106	0.4036	0.9709	0.5433	0.8943	0.8827	1.0387	0.5964	0.6608	0.8236	0.9749	0.0384	0.5259	0.3423	-0.1501	-0.1441	0.412	1.7749
773.4375	0.2657	-0.0123	0.1805	0.2624	0.3678	0.2619	-0.0831	-0.2889	0.0123	-0.4354	-0.2017	-0.1682	-0.1267	0.2513	1.0137	0.3925	0.6875	0.785	0.8724	0.4521	0.5152	0.6801	0.9009	-0.0967	0.4738	0.2001	-0.3197	-0.317	0.3472	1.6909
777.3438	0.1551	-0.1828	0.1592	0.1309	0.2832	0.2365	-0.1573	-0.3057	-0.0225	-0.5351	-0.3411	-0.3637	-0.2832	0.0668	1.0089	0.2174	0.4432	0.6504	0.6811	0.2802	0.3353	0.5202	0.8054	-0.2534	0.4046	0.0423	-0.5053	-0.5068	0.2678	1.6161
781.25	0.0497	-0.3574	0.1108	-0.0146	0.167	0.19	-0.261	-0.3347	-0.0742	-0.666	-0.496	-0.5735	-0.4722	-0.1383	0.9348	0.0315	0.1823	0.4813	0.4731	0.09	0.1311	0.35	0.6937	-0.4222	0.3233	-0.1261	-0.697	-0.7064	0.1832	1.5637
785.1562	-0.0398	-0.5193	0.0408	-0.1608	0.0294	0.1336	-0.3873	-0.3762	-0.1447	-0.8253	-0.6628	-0.792	-0.6852	-0.3541	0.7786	-0.1531	-0.0763	0.2813	0.255	-0.11	-0.0882	0.1733	0.5701	-0.5965	0.2329	-0.3036	-0.8889	-0.9126	0.1012	1.5406
789.0625	-0.1081	-0.6587	-0.0436	-0.2984	-0.1194	0.0768	-0.5286	-0.4286	-0.2333	-1.008	-0.8388	-1.0157	-0.9139	-0.5732	0.5411	-0.3284	-0.3203	0.0559	0.0316	-0.3131	-0.3156	-0.0079	0.4379	-0.7725	0.1358	-0.4902	-1.0786	-1.1247	0.0263	1.5469
792.9688	-0.1565	-0.7742	-0.1353	-0.4236	-0.2713	0.0256	-0.6774	-0.489	-0.3363	-1.207	-1.0211	-1.2424	-1.1509	-0.7911	0.2382	-0.492	-0.5458	-0.187	-0.1937	-0.5154	-0.5455	-0.1923	0.3006	-0.9478	0.0344	-0.6849	-1.2658	-1.3417	-0.0403	1.5772
796.875	-0.1911	-0.8722	-0.228	-0.5381	-0.4207	-0.0181	-0.8268	-0.5529	-0.447	-1.413	-1.2059	-1.4694	-1.389	-1.0054	-0.1019	-0.646	-0.7561	-0.4376	-0.4185	-0.7149	-0.774	-0.3774	0.1624	-1.1207	-0.0676	-0.8835	-1.4505	-1.561	-0.0995	1.622
