time,FP1,F3,F7,FC3,C3,C5,P3,P7,PO7,PO3,O1,Oz,Pz,CPz,FP2,Fz,F4,F8,FC4,FCz,Cz,C4,C6,P4,P8,PO8,PO4,O2,HEOG_left,HEOG_right
-199.2188,-0.3383,-0.1206,-0.929,-0.0901,-0.2985,0.0835,0.1823,0.152,0.5397,0.2294,0.3539,-0.0103,0.0855,0.0433,-1.1711,-0.4792,-0.4933,-0.5993,-0.4403,-0.3665,-0.2184,-0.4102,-0.542,-0.2652,0.1059,-0.3922,-0.2186,-0.2581,-0.345,-0.2272
-195.3125,-0.3443,-0.2455,-0.9008,-0.2045,-0.2566,-0.0058,0.2452,0.1904,0.5619,0.265,0.3354,0.0749,0.1549,0.1437,-1.0105,-0.4553,-0.4721,-0.4924,-0.4161,-0.3066,-0.1102,-0.359,-0.4333,-0.0945,0.1612,-0.2579,-0.0899,-0.162,-0.3242,-0.228
-191.4062,-0.351,-0.346,-0.8715,-0.2931,-0.2059,-0.0748,0.3102,0.2222,0.5826,0.2995,0.3097,0.1543,0.2278,0.2475,-0.85,-0.416,-0.4437,-0.3965,-0.3857,-0.2338,0.0036,-0.3076,-0.3305,0.0647,0.2105,-0.1309,0.0312,-0.0717,-0.3015,-0.2246
-187.5,-0.3588,-0.4001,-0.8382,-0.3355,-0.1405,-0.1096,0.3786,0.2439,0.6001,0.3326,0.2736,0.2232,0.3074,0.3575,-0.6884,-0.3486,-0.4011,-0.32,-0.343,-0.1378,0.1282,-0.2548,-0.2394,0.2028,0.2485,-0.0172,0.139,0.0092,-0.2751,-0.2137
-183.5938,-0.3659,-0.3939,-0.7989,-0.3198,-0.0562,-0.1027,0.4518,0.2548,0.614,0.3646,0.2278,0.2798,0.3964,0.4753,-0.5238,-0.246,-0.3391,-0.267,-0.2837,-0.0128,0.2666,-0.1977,-0.1616,0.316,0.2735,0.08,0.2315,0.0792,-0.2435,-0.1921
-179.6875,-0.3692,-0.3237,-0.7526,-0.2449,0.0481,-0.0537,0.5299,0.2575,0.6248,0.3965,0.1765,0.3249,0.4953,0.6003,-0.3549,-0.1079,-0.2557,-0.2376,-0.2065,0.1411,0.4182,-0.1329,-0.0958,0.4054,0.2879,0.1605,0.3101,0.1388,-0.2059,-0.1573
-175.7812,-0.3643,-0.1977,-0.6994,-0.1206,0.1695,0.0308,0.6113,0.2563,0.6334,0.4287,0.127,0.3611,0.6022,0.7284,-0.1829,0.058,-0.1538,-0.2292,-0.1134,0.3166,0.5784,-0.0578,-0.0387,0.4758,0.2964,0.2261,0.3783,0.1902,-0.1624,-0.1088
-171.875,-0.3465,-0.0351,-0.6399,0.0349,0.3007,0.1385,0.6918,0.2563,0.6408,0.4606,0.0873,0.3911,0.7118,0.8523,-0.0131,0.2374,-0.041,-0.2369,-0.0101,0.5007,0.7378,0.0278,0.0128,0.5328,0.3031,0.2796,0.4393,0.2358,-0.1138,-0.0488
-167.9688,-0.3118,0.1382,-0.5749,0.198,0.4304,0.2536,0.7649,0.2611,0.6471,0.4894,0.0646,0.4162,0.8153,0.9619,0.1451,0.4114,0.0717,-0.2546,0.095,0.6759,0.8837,0.1209,0.0598,0.5803,0.3108,0.3236,0.4939,0.2769,-0.0618,0.0176
-164.0625,-0.2586,0.2937,-0.5052,0.3445,0.5448,0.3587,0.8221,0.2722,0.6509,0.511,0.0629,0.4357,0.9016,1.0455,0.2787,0.5603,0.172,-0.2757,0.1926,0.8237,1.0017,0.215,0.1011,0.6184,0.3189,0.3591,0.5396,0.3134,-0.0086,0.0829
-160.1562,-0.1902,0.4069,-0.4321,0.4531,0.6294,0.4378,0.854,0.2878,0.6495,0.5197,0.082,0.4468,0.9585,1.0913,0.374,0.6665,0.2487,-0.2933,0.2728,0.9273,1.078,0.3008,0.1332,0.6435,0.3242,0.3851,0.5705,0.3427,0.0428,0.1387
-156.25,-0.1153,0.4617,-0.3578,0.5089,0.6714,0.4784,0.851,0.303,0.639,0.5094,0.1168,0.4447,0.974,1.0887,0.4199,0.7181,0.2926,-0.3022,0.3269,0.9737,1.1013,0.3672,0.1511,0.6487,0.3213,0.3985,0.5781,0.3607,0.0887,0.1773
-152.3438,-0.0476,0.4521,-0.2866,0.5043,0.6618,0.473,0.8051,0.3101,0.6146,0.4743,0.1577,0.4241,0.9384,1.0302,0.4105,0.7096,0.2982,-0.2995,0.3479,0.9552,1.0638,0.4034,0.1495,0.6261,0.3042,0.3948,0.5542,0.3617,0.1247,0.1934
-148.4375,-0.0029,0.3829,-0.2245,0.4397,0.5961,0.4205,0.7107,0.3002,0.5717,0.4092,0.1926,0.3807,0.8457,0.9114,0.3473,0.6424,0.264,-0.2865,0.3312,0.8702,0.9621,0.4006,0.1245,0.5688,0.2678,0.3696,0.4923,0.3405,0.1457,0.1853
-144.5312,0.0055,0.2664,-0.1784,0.3214,0.4751,0.3258,0.5665,0.2652,0.5074,0.3115,0.2096,0.3122,0.6947,0.7328,0.2394,0.5242,0.1929,-0.2681,0.2756,0.7231,0.7976,0.3541,0.0746,0.4731,0.2098,0.3203,0.3902,0.2932,0.1472,0.1555
-140.625,-0.0299,0.1197,-0.1551,0.1606,0.3047,0.1994,0.3762,0.1997,0.4209,0.1811,0.1994,0.2199,0.4902,0.4994,0.1024,0.3668,0.0921,-0.2513,0.1836,0.5237,0.5766,0.2646,0.0023,0.34,0.1321,0.2467,0.2508,0.2186,0.1259,0.1101
-136.7188,-0.1083,-0.0394,-0.1584,-0.0292,0.0956,0.0552,0.1488,0.103,0.3146,0.0221,0.158,0.1083,0.2426,0.2218,-0.0449,0.1847,-0.0276,-0.2427,0.0623,0.2857,0.3102,0.1388,-0.0867,0.1754,0.0403,0.1525,0.0825,0.119,0.0812,0.0577
-132.8125,-0.2201,-0.1951,-0.1881,-0.2332,-0.1378,-0.0911,-0.1017,-0.0212,0.1933,-0.1572,0.0874,-0.0149,-0.0326,-0.0846,-0.1837,-0.0075,-0.1536,-0.2456,-0.0777,0.0256,0.0139,-0.0121,-0.1844,-0.0106,-0.0564,0.0442,-0.1021,0.0005,0.0155,0.0072
-128.9062,-0.3486,-0.3356,-0.2384,-0.4366,-0.378,-0.224,-0.3576,-0.1644,0.0644,-0.3442,-0.0047,-0.14,-0.3159,-0.4001,-0.2983,-0.1961,-0.2731,-0.2585,-0.2231,-0.239,-0.2935,-0.1734,-0.2811,-0.2046,-0.1471,-0.0692,-0.2873,-0.1273,-0.0648,-0.034
-125,-0.4738,-0.4525,-0.2988,-0.6245,-0.6053,-0.33,-0.5988,-0.3144,-0.0637,-0.5235,-0.1063,-0.2565,-0.5858,-0.7019,-0.3781,-0.3688,-0.3739,-0.275,-0.3586,-0.4904,-0.5901,-0.3285,-0.3673,-0.3912,-0.2212,-0.1773,-0.4566,-0.252,-0.1502,-0.0608
-121.0938,-0.5763,-0.5396,-0.3552,-0.7814,-0.7989,-0.3986,-0.805,-0.4569,-0.1826,-0.6778,-0.2033,-0.3542,-0.8205,-0.9661,-0.4174,-0.5148,-0.4455,-0.2853,-0.4688,-0.7117,-0.8534,-0.461,-0.4341,-0.5546,-0.2697,-0.2697,-0.5938,-0.3603,-0.2289,-0.0713
-117.1875,-0.6411,-0.5914,-0.393,-0.8921,-0.9387,-0.4227,-0.9577,-0.5767,-0.2844,-0.791,-0.2818,-0.425,-1.0004,-1.1698,-0.415,-0.624,-0.4796,-0.2792,-0.5392,-0.8869,-1.0614,-0.556,-0.4742,-0.68,-0.2873,-0.337,-0.6857,-0.439,-0.2883,-0.0661
-113.2812,-0.6595,-0.6023,-0.3993,-0.9426,-1.0082,-0.3989,-1.0423,-0.6593,-0.3632,-0.8499,-0.3305,-0.4633,-1.1102,-1.294,-0.3726,-0.6876,-0.4704,-0.2488,-0.5587,-1.002,-1.1956,-0.6016,-0.4831,-0.7556,-0.273,-0.3725,-0.723,-0.4778,-0.3169,-0.0475
-109.375,-0.6287,-0.568,-0.3664,-0.9227,-0.9966,-0.3283,-1.0502,-0.6934,-0.4149,-0.847,-0.3425,-0.4669,-1.1406,-1.3267,-0.2937,-0.6985,-0.4163,-0.1903,-0.5213,-1.0464,-1.2429,-0.5905,-0.4586,-0.7741,-0.2306,-0.3727,-0.7022,-0.4709,-0.3063,-0.0184
-105.4688,-0.5507,-0.4865,-0.2927,-0.8286,-0.9017,-0.2161,-0.9806,-0.6725,-0.4375,-0.781,-0.3159,-0.437,-1.0902,-1.2642,-0.1838,-0.6526,-0.3199,-0.1045,-0.4276,-1.0139,-1.1979,-0.5209,-0.4017,-0.7335,-0.1677,-0.338,-0.626,-0.418,-0.2522,0.0182
-101.5625,-0.4308,-0.3606,-0.1825,-0.6649,-0.7309,-0.0721,-0.8406,-0.5963,-0.4313,-0.658,-0.2543,-0.3782,-0.965,-1.113,-0.0497,-0.5502,-0.1894,0.0037,-0.285,-0.9049,-1.0643,-0.397,-0.3161,-0.638,-0.0944,-0.2721,-0.5032,-0.3249,-0.1561,0.06
-97.6562,-0.277,-0.1984,-0.0452,-0.4453,-0.501,0.0903,-0.6453,-0.4723,-0.3991,-0.4904,-0.1664,-0.2982,-0.779,-0.889,0.1002,-0.3971,-0.0373,0.1266,-0.1076,-0.7277,-0.8552,-0.2293,-0.208,-0.4974,-0.0219,-0.182,-0.3475,-0.203,-0.0253,0.1051
-93.75,-0.1003,-0.0134,0.108,-0.1914,-0.2367,0.2548,-0.4163,-0.3147,-0.3463,-0.2963,-0.0648,-0.2071,-0.5522,-0.6166,0.2554,-0.2056,0.1211,0.2547,0.0859,-0.498,-0.592,-0.0338,-0.0862,-0.3264,0.0398,-0.0768,-0.1763,-0.0682,0.1273,0.1513
-89.8438,0.0858,0.1769,0.2655,0.0703,0.0324,0.4039,-0.1794,-0.1434,-0.2815,-0.0968,0.0358,-0.1165,-0.3091,-0.3253,0.4033,0.0069,0.2696,0.3781,0.2742,-0.2393,-0.3027,0.1693,0.0387,-0.1431,0.0828,0.0325,-0.0082,0.0623,0.2844,0.1959
-85.9375,0.266,0.3533,0.4166,0.3118,0.2763,0.5214,0.0392,0.0192,-0.215,0.0859,0.1204,-0.0379,-0.0752,-0.0462,0.53,0.2193,0.3938,0.4863,0.4368,0.0211,-0.0184,0.3582,0.1547,0.0331,0.1025,0.1346,0.1395,0.172,0.4265,0.2349
-82.0312,0.4253,0.4979,0.5522,0.5092,0.4695,0.5944,0.2164,0.1521,-0.1582,0.232,0.1765,0.0188,0.1261,0.1929,0.6222,0.4099,0.4836,0.5692,0.5568,0.2549,0.2314,0.5129,0.2504,0.1842,0.0977,0.2187,0.2528,0.2484,0.5351,0.2638
-78.125,0.5509,0.5978,0.6647,0.646,0.5949,0.6157,0.3355,0.2397,-0.121,0.3272,0.1959,0.0469,0.2768,0.371,0.6694,0.5599,0.5345,0.6177,0.6235,0.4384,0.4228,0.6184,0.3174,0.2962,0.0712,0.2764,0.3239,0.2846,0.5956,0.2783
-74.2188,0.6341,0.6471,0.7484,0.7155,0.6466,0.5845,0.3891,0.2744,-0.1095,0.3648,0.1763,0.0444,0.367,0.4775,0.6672,0.6567,0.5474,0.6259,0.6346,0.5559,0.5417,0.6676,0.3517,0.3616,0.0288,0.3028,0.3512,0.2807,0.6002,0.2758
-70.3125,0.6723,0.6472,0.8005,0.7217,0.6301,0.5067,0.3791,0.2585,-0.1249,0.3467,0.1214,0.0143,0.3959,0.5125,0.6181,0.6952,0.5285,0.5925,0.596,0.6022,0.5849,0.6625,0.3555,0.3799,-0.0215,0.2976,0.3393,0.2423,0.5502,0.2558
-66.4062,0.6694,0.6057,0.8217,0.6764,0.5602,0.3934,0.3164,0.203,-0.1624,0.2829,0.0407,-0.0363,0.371,0.4861,0.5324,0.6778,0.4864,0.5224,0.5202,0.5831,0.5604,0.6129,0.3362,0.3576,-0.0712,0.2651,0.2975,0.1797,0.4548,0.2207
-62.5,0.6349,0.5339,0.8167,0.5961,0.4575,0.2587,0.2183,0.1251,-0.2129,0.1898,-0.0525,-0.0972,0.3063,0.4146,0.4261,0.6131,0.4305,0.4263,0.4236,0.5121,0.4842,0.5339,0.3044,0.3059,-0.1124,0.2127,0.2374,0.1052,0.3304,0.1743
-58.5938,0.5811,0.4437,0.7923,0.498,0.3433,0.1174,0.1047,0.044,-0.2649,0.0861,-0.1437,-0.1572,0.2187,0.3169,0.3169,0.5128,0.368,0.3191,0.3225,0.4072,0.3758,0.4419,0.271,0.2377,-0.1394,0.1494,0.1704,0.0305,0.1959,0.1212
-54.6875,0.5194,0.346,0.7559,0.3962,0.2359,-0.0174,-0.0055,-0.023,-0.3074,-0.0101,-0.2196,-0.2064,0.1245,0.2096,0.22,0.3889,0.3028,0.2164,0.2292,0.2858,0.2536,0.3498,0.2441,0.164,-0.1497,0.0839,0.1051,-0.0348,0.0698,0.0651
-50.7812,0.4577,0.2489,0.7132,0.3005,0.1475,-0.1357,-0.098,-0.0644,-0.3332,-0.085,-0.2706,-0.2377,0.0366,0.1046,0.1443,0.2519,0.2351,0.1312,0.1499,0.1615,0.1314,0.2648,0.2268,0.0919,-0.1448,0.0222,0.0464,-0.0852,-0.0345,0.0084
-46.875,0.3998,0.158,0.6674,0.2159,0.083,-0.2312,-0.1648,-0.0759,-0.3402,-0.1313,-0.2922,-0.2482,-0.0383,0.0074,0.0901,0.1098,0.163,0.071,0.0842,0.0424,0.0164,0.1869,0.2169,0.0231,-0.1304,-0.033,-0.0054,-0.1193,-0.1096,-0.048
-42.9688,0.3463,0.0761,0.6195,0.1432,0.0402,-0.3014,-0.2051,-0.0609,-0.3319,-0.1491,-0.2856,-0.2386,-0.0991,-0.0821,0.0501,-0.0316,0.0843,0.0371,0.0269,-0.0684,-0.0899,0.1107,0.2081,-0.0447,-0.1149,-0.0824,-0.0532,-0.1389,-0.1552,-0.1037
-39.0625,0.2971,0.0038,0.5685,0.0814,0.0121,-0.3476,-0.2242,-0.0283,-0.316,-0.1443,-0.2562,-0.2128,-0.1497,-0.1669,0.0134,-0.1667,-0.0008,0.0253,-0.0287,-0.1702,-0.1896,0.0286,0.1929,-0.1157,-0.1078,-0.1286,-0.1012,-0.1479,-0.1756,-0.1578
-35.1562,0.2523,-0.0588,0.5131,0.0294,-0.0107,-0.3732,-0.2312,0.0095,-0.3024,-0.1269,-0.2124,-0.1762,-0.196,-0.2499,-0.0301,-0.289,-0.0877,0.0286,-0.087,-0.262,-0.2844,-0.0646,0.1663,-0.1924,-0.1166,-0.174,-0.1525,-0.1504,-0.1777,-0.2074
-31.25,0.2129,-0.1112,0.4521,-0.0123,-0.0364,-0.3831,-0.2358,0.0401,-0.3006,-0.1081,-0.1635,-0.1345,-0.2432,-0.3315,-0.0842,-0.39,-0.1673,0.0403,-0.1475,-0.3399,-0.3736,-0.1686,0.1282,-0.2736,-0.1444,-0.2191,-0.207,-0.1493,-0.1682,-0.248
-27.3438,0.1785,-0.151,0.3854,-0.0409,-0.0696,-0.3818,-0.2464,0.053,-0.3173,-0.0975,-0.118,-0.0926,-0.2934,-0.4082,-0.1452,-0.4595,-0.2273,0.0555,-0.2039,-0.3967,-0.452,-0.2762,0.084,-0.3533,-0.1888,-0.2615,-0.261,-0.1454,-0.1515,-0.2737
-23.4375,0.1461,-0.1746,0.3137,-0.0522,-0.1103,-0.374,-0.2678,0.0417,-0.3554,-0.1014,-0.0831,-0.0545,-0.3454,-0.4729,-0.2036,-0.4886,-0.2562,0.0712,-0.2461,-0.4238,-0.5111,-0.3742,0.0437,-0.4226,-0.2434,-0.2968,-0.308,-0.1386,-0.13,-0.2796
-19.5312,0.109,-0.1778,0.2383,-0.0421,-0.1541,-0.3642,-0.3009,0.0038,-0.4136,-0.1223,-0.0637,-0.0236,-0.3946,-0.5172,-0.2483,-0.4718,-0.2462,0.0851,-0.2633,-0.4133,-0.5413,-0.4471,0.0182,-0.472,-0.2994,-0.3204,-0.3414,-0.1281,-0.1042,-0.2638
-15.625,0.0588,-0.158,0.161,-0.0093,-0.1943,-0.3574,-0.3433,-0.0589,-0.4862,-0.1586,-0.0625,-0.0024,-0.4346,-0.5335,-0.2716,-0.4096,-0.1962,0.0945,-0.247,-0.3619,-0.5347,-0.4802,0.0172,-0.4938,-0.3488,-0.3293,-0.3557,-0.1135,-0.0743,-0.2283
-11.7188,-0.0111,-0.1163,0.0851,0.0439,-0.2245,-0.359,-0.3896,-0.1406,-0.565,-0.2055,-0.0793,0.0073,-0.4591,-0.5168,-0.2718,-0.3098,-0.1124,0.0959,-0.194,-0.272,-0.4878,-0.4636,0.046,-0.485,-0.3855,-0.3233,-0.349,-0.0956,-0.0412,-0.1794
-7.8125,-0.1014,-0.0586,0.0152,0.1102,-0.2403,-0.3737,-0.4332,-0.2327,-0.6403,-0.2562,-0.1116,0.0041,-0.4631,-0.4666,-0.2527,-0.1858,-0.0073,0.0853,-0.1067,-0.1525,-0.4029,-0.3942,0.1045,-0.4466,-0.4068,-0.3056,-0.3226,-0.0763,-0.0068,-0.1262
-3.9062,-0.2044,0.0045,-0.0418,0.1789,-0.2412,-0.4047,-0.4675,-0.3257,-0.7031,-0.3037,-0.155,-0.0123,-0.4448,-0.387,-0.2218,-0.0552,0.103,0.059,0.0067,-0.0176,-0.2885,-0.2767,0.1871,-0.3847,-0.4131,-0.2818,-0.2818,-0.0584,0.0262,-0.0784
0,-0.3051,0.0595,-0.0784,0.237,-0.2303,-0.4526,-0.4878,-0.4103,-0.7468,-0.3421,-0.2043,-0.0422,-0.4067,-0.2872,-0.1879,0.0636,0.2016,0.0145,0.1334,0.1159,-0.1582,-0.124,0.2829,-0.3085,-0.408,-0.2589,-0.2345,-0.0462,0.0545,-0.045
3.9062,-0.3845,0.0929,-0.0872,0.2725,-0.2137,-0.5151,-0.4919,-0.4795,-0.7683,-0.3686,-0.2546,-0.0853,-0.3557,-0.1798,-0.1597,0.1548,0.2739,-0.0491,0.2585,0.231,-0.029,0.0449,0.3779,-0.2297,-0.3978,-0.2439,-0.1903,-0.0442,0.0749,-0.0324
7.8125,-0.4248,0.0958,-0.0632,0.2774,-0.1974,-0.5864,-0.4803,-0.5292,-0.7689,-0.3832,-0.3026,-0.1411,-0.3017,-0.0791,-0.1447,0.2078,0.31,-0.1304,0.3673,0.314,0.0819,0.2081,0.4566,-0.1606,-0.3902,-0.2421,-0.1589,-0.0574,0.0857,-0.0436
11.7188,-0.414,0.0668,-0.0045,0.2505,-0.1846,-0.6569,-0.4551,-0.5576,-0.7526,-0.3882,-0.3458,-0.2085,-0.2551,0.0024,-0.1479,0.2198,0.3073,-0.2257,0.4485,0.3571,0.161,0.3445,0.5062,-0.1115,-0.3929,-0.2563,-0.1476,-0.0892,0.0873,-0.0773
15.625,-0.3486,0.0146,0.0868,0.1997,-0.1738,-0.7143,-0.4182,-0.5642,-0.7248,-0.3865,-0.3819,-0.2844,-0.2235,0.057,-0.1712,0.1967,0.271,-0.3273,0.497,0.3607,0.2013,0.4389,0.5187,-0.0889,-0.4113,-0.2849,-0.1596,-0.1403,0.0833,-0.1275
19.5312,-0.2348,-0.0429,0.205,0.1403,-0.1575,-0.7441,-0.3699,-0.5482,-0.69,-0.3795,-0.4072,-0.3631,-0.2091,0.0844,-0.2116,0.1522,0.2139,-0.4243,0.5147,0.3338,0.2048,0.4852,0.4942,-0.0932,-0.4469,-0.323,-0.1927,-0.2073,0.0802,-0.1842
23.4375,-0.088,-0.0831,0.3409,0.0927,-0.1245,-0.7325,-0.3083,-0.5078,-0.6503,-0.3664,-0.4156,-0.4362,-0.2079,0.0914,-0.2621,0.1053,0.1538,-0.5031,0.511,0.2915,0.1817,0.4874,0.4408,-0.1186,-0.4957,-0.3617,-0.2385,-0.2822,0.0867,-0.2341
27.3438,0.0696,-0.0838,0.483,0.0764,-0.0628,-0.6698,-0.2296,-0.4399,-0.6042,-0.3439,-0.3991,-0.4926,-0.2101,0.0909,-0.3124,0.0756,0.1105,-0.5502,0.4999,0.2522,0.1483,0.4589,0.374,-0.1536,-0.549,-0.3911,-0.2845,-0.353,0.1116,-0.2638
31.25,0.2138,-0.03,0.6199,0.1059,0.0366,-0.5529,-0.13,-0.3416,-0.548,-0.3069,-0.3496,-0.5208,-0.2029,0.098,-0.3505,0.0788,0.1013,-0.5538,0.497,0.2333,0.123,0.4185,0.3131,-0.1839,-0.595,-0.4013,-0.3168,-0.4058,0.1615,-0.2616
35.1562,0.3243,0.0824,0.7418,0.1866,0.1761,-0.3875,-0.0075,-0.2119,-0.4766,-0.251,-0.261,-0.5106,-0.174,0.1267,-0.3644,0.1241,0.1378,-0.507,0.5158,0.2474,0.1224,0.3859,0.2764,-0.1955,-0.6218,-0.3852,-0.3226,-0.4275,0.2393,-0.2205
39.0625,0.3898,0.2456,0.8427,0.3141,0.3505,-0.1872,0.136,-0.0529,-0.3863,-0.1743,-0.132,-0.4558,-0.1147,0.1861,-0.3439,0.2127,0.2243,-0.4089,0.5647,0.3008,0.1579,0.3768,0.277,-0.1783,-0.6208,-0.3397,-0.2939,-0.4092,0.343,-0.139
42.9688,0.4123,0.4423,0.9205,0.4758,0.5472,0.0287,0.2942,0.1288,-0.2757,-0.0788,0.0328,-0.3554,-0.0222,0.2784,-0.282,0.3388,0.3571,-0.2651,0.6458,0.3933,0.234,0.4002,0.3191,-0.1285,-0.5891,-0.2665,-0.2287,-0.3476,0.4667,-0.021
46.875,0.4059,0.6493,0.9762,0.6538,0.7486,0.2392,0.4567,0.3225,-0.1473,0.0292,0.2229,-0.215,0.0997,0.3987,-0.1766,0.4917,0.5256,-0.0872,0.7542,0.5185,0.3473,0.4564,0.3981,-0.0494,-0.5298,-0.1709,-0.1312,-0.2463,0.601,0.1248
50.7812,0.3928,0.8425,1.0117,0.8286,0.9356,0.4251,0.6108,0.5148,-0.0075,0.1399,0.4232,-0.0458,0.2414,0.5361,-0.0317,0.6576,0.714,0.1091,0.8791,0.6655,0.4875,0.5376,0.5013,0.0494,-0.4518,-0.0612,-0.011,-0.1147,0.7349,0.2863
54.6875,0.3966,1.0012,1.028,0.9823,1.0908,0.5728,0.7434,0.6916,0.1339,0.2413,0.6166,0.1366,0.3888,0.6753,0.1426,0.8213,0.9024,0.3058,1.0054,0.8199,0.6388,0.6294,0.6113,0.1544,-0.3665,0.0535,0.1183,0.0328,0.8569,0.4495
58.5938,0.4356,1.112,1.0253,1.1012,1.2017,0.6754,0.8438,0.8405,0.2649,0.3223,0.7869,0.3138,0.526,0.7994,0.3308,0.9678,1.0692,0.4848,1.1153,0.9652,0.7816,0.7133,0.7091,0.2509,-0.2855,0.1645,0.242,0.1796,0.9563,0.5998
62.5,0.5183,1.1703,1.0034,1.1776,1.2626,0.7331,0.9051,0.9527,0.3732,0.3741,0.9213,0.4677,0.6378,0.893,0.515,1.0837,1.1944,0.63,1.1915,1.0851,0.8966,0.7701,0.7776,0.3253,-0.2177,0.2641,0.3457,0.309,1.0235,0.724
66.4062,0.6421,1.1812,0.9643,1.2104,1.2745,0.7518,0.9257,1.0242,0.4484,0.3926,1.0122,0.5832,0.7123,0.9444,0.6786,1.1591,1.2624,0.7299,1.2195,1.1657,0.9676,0.7837,0.804,0.368,-0.1668,0.3469,0.4179,0.4067,1.0519,0.8123
70.3125,0.7946,1.1566,0.9129,1.2045,1.2454,0.7418,0.9097,1.0562,0.4843,0.3787,1.0585,0.65,0.7423,0.9482,0.8092,1.1889,1.2649,0.779,1.1911,1.1985,0.9848,0.7442,0.7823,0.3741,-0.1317,0.4092,0.4514,0.4625,1.0381,0.8596
74.2188,0.9567,1.1122,0.8571,1.1693,1.1875,0.7149,0.8656,1.0539,0.4805,0.3379,1.0642,0.6644,0.7269,0.9066,0.9001,1.1743,1.2036,0.7792,1.1057,1.1816,0.9476,0.6507,0.7142,0.3446,-0.107,0.4495,0.4444,0.4721,0.9836,0.8663
78.125,1.1063,1.0632,0.8062,1.117,1.1154,0.6825,0.8045,1.0254,0.4424,0.2791,1.0375,0.6291,0.6713,0.8285,0.9495,1.1224,1.0896,0.7386,0.9722,1.1215,0.8643,0.5122,0.6096,0.2859,-0.085,0.4681,0.4007,0.4371,0.8944,0.8382
82.0312,1.2224,1.0224,0.7684,1.0609,1.044,0.6539,0.7387,0.9794,0.3804,0.2123,0.9889,0.5528,0.5861,0.7291,0.9593,1.0459,0.943,0.6707,0.8076,1.0319,0.752,0.347,0.4851,0.2088,-0.059,0.4667,0.3286,0.3649,0.7815,0.7849
85.9375,1.2883,0.9989,0.7487,1.0135,0.9862,0.6353,0.6787,0.9242,0.3072,0.1471,0.9286,0.4479,0.4855,0.6266,0.9332,0.9614,0.7899,0.592,0.6356,0.9329,0.6327,0.1792,0.3619,0.1265,-0.0246,0.4487,0.24,0.2668,0.6596,0.7179
89.8438,1.2954,0.9986,0.7487,0.9862,0.9519,0.6295,0.6324,0.8668,0.2354,0.0911,0.8655,0.3291,0.3856,0.5396,0.8772,0.8871,0.6585,0.52,0.483,0.8476,0.5304,0.0355,0.262,0.0526,0.0191,0.4187,0.1483,0.157,0.5455,0.6492
93.75,1.2452,1.0248,0.7671,0.988,0.9472,0.6369,0.6042,0.812,0.1748,0.0492,0.8058,0.2107,0.3016,0.4838,0.8003,0.8411,0.5749,0.4709,0.3755,0.7982,0.4665,-0.0605,0.205,-0.0011,0.0695,0.3829,0.0667,0.0502,0.4557,0.5894
97.6562,1.1496,1.0784,0.8019,1.0246,0.9743,0.6556,0.5947,0.7627,0.1311,0.0234,0.7526,0.105,0.2455,0.4694,0.7149,0.8379,0.5583,0.4577,0.3335,0.8025,0.4561,-0.0919,0.2044,-0.0262,0.1227,0.348,0.007,-0.04,0.4037,0.547
101.5625,1.0288,1.1578,0.8517,1.0977,1.0309,0.6828,0.6014,0.7203,0.1053,0.0133,0.7059,0.0207,0.2245,0.4993,0.6367,0.8862,0.6174,0.4873,0.3673,0.8697,0.5053,-0.0526,0.2653,-0.0186,0.1749,0.3208,-0.0225,-0.1027,0.397,0.5272
105.4688,0.9063,1.2584,0.9151,1.204,1.1103,0.7145,0.6196,0.6847,0.0945,0.016,0.6632,-0.0377,0.24,0.569,0.5828,0.9872,0.7479,0.5592,0.4749,0.9984,0.6101,0.0524,0.3831,0.0209,0.2238,0.3065,-0.0174,-0.1306,0.4356,0.5317
109.375,0.8044,1.3728,0.9897,1.3346,1.2022,0.7462,0.6435,0.6552,0.0934,0.0276,0.6205,-0.0696,0.2875,0.6673,0.5682,1.1333,0.9329,0.6645,0.6422,1.1763,0.7574,0.2074,0.5441,0.0875,0.2697,0.3081,0.0225,-0.1212,0.5113,0.5583
113.2812,0.739,1.4909,1.0696,1.4769,1.2941,0.7742,0.6678,0.6316,0.0962,0.0441,0.5744,-0.0776,0.3586,0.7794,0.6031,1.3096,1.1455,0.7863,0.8449,1.3826,0.9273,0.3891,0.7278,0.173,0.3146,0.3255,0.0931,-0.0762,0.6098,0.6022
117.1875,0.7169,1.6016,1.1456,1.6157,1.3744,0.7967,0.689,0.6147,0.0988,0.0626,0.5232,-0.0658,0.4426,0.8893,0.6896,1.4961,1.3549,0.9029,1.0539,1.5915,1.0975,0.5717,0.9102,0.2679,0.3618,0.3557,0.1877,-0.001,0.7136,0.6561
121.0938,0.7349,1.6946,1.2057,1.7358,1.4343,0.8149,0.7063,0.6063,0.0994,0.0821,0.4682,-0.0382,0.529,0.9832,0.8198,1.6708,1.5314,0.9917,1.2401,1.7772,1.2463,0.7306,1.0674,0.3624,0.415,0.3942,0.2975,0.0966,0.8058,0.712
125,0.7799,1.761,1.2381,1.8239,1.469,0.8322,0.7205,0.6084,0.0986,0.1032,0.4125,0.0015,0.6087,1.051,0.977,1.813,1.6524,1.0338,1.3797,1.9176,1.3563,0.8465,1.1786,0.4478,0.476,0.4353,0.4131,0.2074,0.8732,0.7614
128.9062,0.8311,1.7941,1.2327,1.8688,1.4767,0.8515,0.7322,0.6221,0.0978,0.1261,0.3599,0.0499,0.6744,1.086,1.1371,1.905,1.7043,1.0182,1.4564,1.9962,1.415,0.9072,1.2291,0.5172,0.5442,0.4736,0.5252,0.3217,0.9075,0.7957
132.8125,0.8639,1.7881,1.1829,1.8614,1.4555,0.8713,0.7395,0.645,0.0976,0.149,0.3125,0.1029,0.72,1.0844,1.2724,1.9334,1.6831,0.9433,1.4622,2.003,1.4152,0.9081,1.2112,0.5648,0.6158,0.5039,0.6246,0.4296,0.9043,0.806
136.7188,0.8542,1.737,1.0855,1.7932,1.4013,0.8826,0.7363,0.6709,0.0963,0.166,0.2694,0.1548,0.7398,1.0434,1.3561,1.8887,1.5921,0.816,1.3966,1.9338,1.3534,0.851,1.1255,0.5864,0.6837,0.522,0.7022,0.5213,0.8625,0.7836
140.625,0.7839,1.634,0.9401,1.6569,1.3063,0.8684,0.7118,0.6896,0.0894,0.1675,0.2261,0.1978,0.7273,0.9604,1.3648,1.7654,1.4392,0.6482,1.2643,1.7889,1.229,0.7425,0.9802,0.5784,0.7387,0.5243,0.7496,0.5877,0.7815,0.7205
144.5312,0.6451,1.4724,0.7492,1.447,1.16,0.8071,0.6527,0.689,0.0705,0.1417,0.1763,0.2232,0.6756,0.8323,1.2816,1.5622,1.234,0.4526,1.0735,1.5721,1.0432,0.5913,0.7895,0.5375,0.7708,0.5079,0.7593,0.6204,0.6614,0.6117
148.4375,0.4413,1.2476,0.517,1.1623,0.953,0.6782,0.5466,0.6575,0.033,0.0772,0.1136,0.2223,0.5781,0.6564,1.0978,1.2823,0.9857,0.2389,0.8336,1.2904,0.7992,0.4063,0.5705,0.4606,0.7705,0.4698,0.7248,0.6133,0.5025,0.456
152.3438,0.1857,0.9596,0.2502,0.8085,0.6813,0.4705,0.3857,0.5874,-0.0279,-0.0335,0.0339,0.1887,0.4298,0.4316,0.814,0.9337,0.703,0.0125,0.5546,0.9535,0.5022,0.1944,0.3397,0.3447,0.7302,0.4075,0.6419,0.5631,0.3069,0.2574
156.25,-0.1021,0.6155,-0.0425,0.4002,0.3499,0.1873,0.1701,0.4767,-0.1137,-0.1915,-0.0632,0.1199,0.2292,0.1602,0.4426,0.5299,0.3934,-0.224,0.2456,0.5737,0.1605,-0.0401,0.1098,0.1873,0.6455,0.3187,0.5085,0.4701,0.0801,0.025
160.1562,-0.4013,0.2296,-0.3495,-0.0399,-0.0259,-0.1519,-0.0911,0.3302,-0.2214,-0.3908,-0.1743,0.0183,-0.0204,-0.1515,0.008,0.089,0.0643,-0.468,-0.0841,0.1654,-0.2146,-0.295,-0.1123,-0.0122,0.516,0.202,0.3263,0.3389,-0.1687,-0.2283
164.0625,-0.6928,-0.1771,-0.6565,-0.4829,-0.4217,-0.5149,-0.3809,0.1582,-0.3442,-0.6185,-0.2931,-0.109,-0.3104,-0.4921,-0.4542,-0.3671,-0.2761,-0.7133,-0.425,-0.2544,-0.608,-0.5686,-0.3249,-0.2516,0.3463,0.0574,0.1006,0.1774,-0.4261,-0.4872
167.9688,-0.962,-0.5796,-0.9469,-0.8979,-0.8084,-0.8624,-0.6773,-0.0247,-0.4723,-0.8577,-0.412,-0.2513,-0.6269,-0.8463,-0.901,-0.8143,-0.6177,-0.948,-0.7665,-0.6671,-1.002,-0.8571,-0.5297,-0.5248,0.1457,-0.1134,-0.1588,-0.0038,-0.6757,-0.7359
171.875,-1.1985,-0.9519,-1.2028,-1.2565,-1.1563,-1.156,-0.9567,-0.203,-0.5951,-1.09,-0.5237,-0.3966,-0.9524,-1.1956,-1.2887,-1.228,-0.9476,-1.1551,-1.096,-1.0531,-1.3768,-1.1527,-0.7284,-0.8207,-0.0728,-0.3059,-0.4383,-0.193,-0.9004,-0.9597
175.7812,-1.3964,-1.2705,-1.4079,-1.5367,-1.441,-1.365,-1.1988,-0.3619,-0.7024,-1.2986,-0.6227,-0.5336,-1.2677,-1.5211,-1.5816,-1.5859,-1.251,-1.3153,-1.3991,-1.3932,-1.713,-1.4436,-0.9197,-1.1249,-0.2944,-0.5131,-0.7218,-0.3792,-1.0842,-1.1459
179.6875,-1.5526,-1.5181,-1.5504,-1.7267,-1.647,-1.472,-1.3887,-0.4902,-0.7866,-1.4703,-0.7058,-0.653,-1.5543,-1.8051,-1.7583,-1.87,-1.5127,-1.4123,-1.6606,-1.6708,-1.9934,-1.7138,-1.0985,-1.4199,-0.504,-0.725,-0.9918,-0.5523,-1.2145,-1.2855
183.5938,-1.6651,-1.6866,-1.6251,-1.8253,-1.7695,-1.475,-1.5195,-0.5815,-0.8427,-1.5974,-0.7715,-0.7486,-1.7965,-2.0336,-1.816,-2.0689,-1.7192,-1.4369,-1.8665,-1.8737,-2.2053,-1.9465,-1.2556,-1.688,-0.6891,-0.9298,-1.2315,-0.7047,-1.2844,-1.3735
187.5,-1.7319,-1.7777,-1.6348,-1.8419,-1.8137,-1.3874,-1.5912,-0.6342,-0.8691,-1.6766,-0.8194,-0.8173,-1.9821,-2.1966,-1.7695,-2.1788,-1.8616,-1.3904,-2.0061,-1.9957,-2.3413,-2.1255,-1.3801,-1.9123,-0.8404,-1.1139,-1.4266,-0.83,-1.2933,-1.4091
191.4062,-1.7495,-1.8014,-1.5884,-1.7926,-1.7914,-1.2337,-1.6093,-0.6506,-0.8663,-1.7086,-0.8481,-0.8576,-2.1028,-2.2885,-1.646,-2.2029,-1.9361,-1.2842,-2.0734,-2.0362,-2.3987,-2.238,-1.4612,-2.0784,-0.9519,-1.2644,-1.5659,-0.9234,-1.2466,-1.3957
195.3125,-1.7147,-1.7717,-1.4988,-1.6955,-1.717,-1.0436,-1.5812,-0.6353,-0.8363,-1.6956,-0.855,-0.8696,-2.1531,-2.3062,-1.4776,-2.1489,-1.9434,-1.1371,-2.0671,-1.9987,-2.3785,-2.2756,-1.4906,-2.1751,-1.0212,-1.3698,-1.6421,-0.9811,-1.1538,-1.3389
199.2188,-1.6266,-1.7016,-1.3791,-1.5656,-1.6022,-0.8444,-1.5138,-0.5936,-0.7818,-1.6405,-0.8358,-0.8532,-2.13,-2.2491,-1.2934,-2.0262,-1.8868,-0.9702,-1.99,-1.889,-2.2833,-2.2346,-1.4636,-2.1951,-1.0482,-1.4225,-1.6517,-0.9999,-1.0265,-1.246
203.125,-1.4889,-1.5983,-1.2391,-1.411,-1.4534,-0.6548,-1.411,-0.5302,-0.706,-1.5458,-0.7856,-0.8088,-2.0325,-2.1174,-1.1129,-1.8438,-1.7709,-0.8018,-1.8478,-1.7128,-2.1159,-2.1164,-1.3805,-2.1356,-1.0345,-1.4196,-1.5949,-0.9774,-0.8758,-1.1239
207.0312,-1.3117,-1.4618,-1.0834,-1.2323,-1.2706,-0.4819,-1.2739,-0.4487,-0.6125,-1.4136,-0.7004,-0.737,-1.8622,-1.9135,-0.9444,-1.6085,-1.6002,-0.6443,-1.6485,-1.4755,-1.88,-1.9279,-1.2468,-1.9993,-0.9835,-1.3633,-1.4761,-0.913,-0.7107,-0.9792
210.9375,-1.1093,-1.2873,-0.911,-1.0249,-1.0504,-0.3223,-1.1021,-0.3522,-0.506,-1.247,-0.5793,-0.6391,-1.6243,-1.6427,-0.7868,-1.326,-1.3799,-0.5027,-1.4017,-1.1827,-1.5811,-1.6815,-1.0731,-1.7948,-0.9005,-1.2611,-1.303,-0.8084,-0.537,-0.8183
214.8438,-0.898,-1.0691,-0.7175,-0.7832,-0.7897,-0.1665,-0.8957,-0.2434,-0.3916,-1.0507,-0.4258,-0.5182,-1.3288,-1.3147,-0.6342,-1.0029,-1.1173,-0.3758,-1.1194,-0.8421,-1.2285,-1.3947,-0.8741,-1.5366,-0.7925,-1.1242,-1.0872,-0.6685,-0.3587,-0.6476
218.75,-0.6918,-0.8063,-0.4988,-0.5062,-0.4908,-0.0048,-0.6579,-0.1254,-0.275,-0.8324,-0.2484,-0.379,-0.9909,-0.9446,-0.4816,-0.6492,-0.8233,-0.2589,-0.8158,-0.4654,-0.8371,-1.0888,-0.6662,-1.2442,-0.6682,-0.9661,-0.8427,-0.5015,-0.1786,-0.4741
222.6562,-0.5017,-0.5066,-0.2556,-0.2005,-0.1642,0.1678,-0.3965,-0.0019,-0.1623,-0.6024,-0.06,-0.228,-0.6302,-0.5525,-0.3282,-0.2796,-0.5136,-0.1464,-0.5071,-0.0701,-0.4275,-0.786,-0.4653,-0.9392,-0.5372,-0.8007,-0.5847,-0.3181,-0.0003,-0.3057
226.5625,-0.3346,-0.1877,0.0038,0.1181,0.1709,0.3489,-0.1244,0.1219,-0.0595,-0.3741,0.1241,-0.0734,-0.2689,-0.1618,-0.179,0.0857,-0.2075,-0.0348,-0.2101,0.3212,-0.0247,-0.5065,-0.2839,-0.6431,-0.4085,-0.6407,-0.3284,-0.1312,0.171,-0.1502
230.4688,-0.1956,0.1249,0.2634,0.4265,0.4893,0.5298,0.1415,0.2392,0.0276,-0.162,0.2882,0.0755,0.0703,0.2035,-0.0422,0.4232,0.0737,0.0762,0.0595,0.6826,0.3454,-0.2652,-0.1289,-0.3735,-0.2893,-0.4964,-0.0872,0.0464,0.3283,-0.0148
234.375,-0.0886,0.4024,0.5016,0.6984,0.7648,0.6981,0.383,0.3421,0.094,0.0199,0.4192,0.2096,0.3676,0.5223,0.0732,0.7087,0.31,0.1839,0.2892,0.9884,0.6593,-0.069,-0.0011,-0.1421,-0.1837,-0.3747,0.1287,0.2028,0.4632,0.0954
238.2812,-0.0172,0.6176,0.6952,0.9091,0.9747,0.8414,0.5837,0.4224,0.1366,0.1601,0.5087,0.3212,0.6085,0.7789,0.1612,0.9212,0.4858,0.2836,0.4717,1.2168,0.8994,0.0829,0.1041,0.0462,-0.0929,-0.2786,0.3121,0.329,0.5681,0.1775
242.1875,0.0158,0.7505,0.8238,1.0397,1.104,0.9497,0.7314,0.4737,0.1543,0.2515,0.5541,0.4047,0.7848,0.9649,0.2197,1.0459,0.592,0.37,0.6044,1.3533,1.0559,0.1977,0.1941,0.1926,-0.0164,-0.2077,0.4593,0.4192,0.637,0.2314
246.0938,0.0095,0.7906,0.8735,1.0803,1.147,1.017,0.8202,0.4928,0.1495,0.2924,0.5585,0.4577,0.8954,1.079,0.2505,1.0765,0.6268,0.4387,0.6891,1.3923,1.1277,0.2856,0.2762,0.3021,0.0471,-0.1593,0.5687,0.4711,0.6676,0.2586
250,-0.0346,0.7392,0.8401,1.031,1.1069,1.0411,0.8508,0.4806,0.1272,0.287,0.5296,0.4815,0.9446,1.1262,0.2567,1.0156,0.5949,0.4867,0.7304,1.3381,1.1211,0.3558,0.3544,0.3804,0.0969,-0.1296,0.6399,0.4861,0.6611,0.262
253.9062,-0.1121,0.6092,0.7309,0.9022,0.9952,1.0236,0.8302,0.4428,0.0949,0.244,0.478,0.4804,0.9408,1.1159,0.2404,0.8753,0.5069,0.5117,0.7339,1.204,1.0486,0.4136,0.428,0.4317,0.1303,-0.1158,0.673,0.4685,0.6223,0.2451
257.8125,-0.2163,0.4242,0.5639,0.7136,0.829,0.9697,0.7701,0.3888,0.061,0.1759,0.4151,0.4613,0.895,1.0601,0.2013,0.6754,0.3776,0.5122,0.7059,1.0111,0.9267,0.4595,0.4913,0.4569,0.1429,-0.1163,0.6689,0.4245,0.5591,0.2124
261.7188,-0.3382,0.215,0.3662,0.4919,0.6299,0.8881,0.6852,0.3308,0.0335,0.0968,0.3515,0.4325,0.8192,0.9724,0.137,0.4417,0.2245,0.4867,0.6525,0.7852,0.7744,0.4889,0.5348,0.4547,0.1294,-0.1313,0.6297,0.362,0.4814,0.169
265.625,-0.4673,0.0153,0.1691,0.2671,0.4212,0.7911,0.5912,0.2818,0.0191,0.0209,0.2962,0.4029,0.7258,0.8666,0.0452,0.203,0.066,0.4345,0.5795,0.5542,0.6108,0.495,0.5481,0.4225,0.0863,-0.1622,0.5599,0.2893,0.3995,0.1214
269.5312,-0.5927,-0.1439,0.0026,0.0689,0.2264,0.6941,0.503,0.2537,0.0217,-0.0396,0.2559,0.3807,0.6268,0.7558,-0.0739,-0.0129,-0.0808,0.3566,0.4928,0.3444,0.4537,0.4709,0.5223,0.3593,0.0135,-0.2098,0.4668,0.2146,0.3229,0.0763
273.4375,-0.7057,-0.2394,-0.1106,-0.0781,0.0662,0.6134,0.4332,0.255,0.0432,-0.0758,0.235,0.3724,0.5339,0.652,-0.2156,-0.1829,-0.2025,0.2558,0.3976,0.1768,0.3177,0.413,0.4533,0.2678,-0.0847,-0.274,0.3608,0.1457,0.2594,0.0408
277.3438,-0.8014,-0.2602,-0.1593,-0.1581,-0.0439,0.5643,0.3908,0.2892,0.0832,-0.0824,0.2353,0.3826,0.4568,0.5649,-0.3698,-0.2919,-0.2904,0.1383,0.2989,0.0642,0.2129,0.3221,0.3434,0.1554,-0.1992,-0.3521,0.2545,0.089,0.2135,0.0205
281.25,-0.8799,-0.2087,-0.1456,-0.1666,-0.0962,0.5584,0.3799,0.354,0.1399,-0.0586,0.2567,0.4129,0.4031,0.5005,-0.522,-0.3355,-0.3425,0.0128,0.2005,0.0095,0.1436,0.2041,0.2019,0.034,-0.3174,-0.4388,0.1609,0.0497,0.1861,0.0189
285.1562,-0.9455,-0.1007,-0.083,-0.1114,-0.0923,0.6,0.3991,0.4412,0.2099,-0.0079,0.2965,0.4616,0.376,0.4602,-0.6557,-0.32,-0.363,-0.1099,0.1052,0.0054,0.1079,0.0685,0.0431,-0.0827,-0.4266,-0.5271,0.0906,0.0305,0.1743,0.036
289.0625,-1.0036,0.0376,0.0079,-0.012,-0.044,0.6838,0.4411,0.5375,0.2882,0.0623,0.35,0.5237,0.3744,0.4403,-0.7563,-0.2619,-0.3619,-0.2185,0.0136,0.0357,0.0974,-0.0739,-0.1164,-0.1817,-0.516,-0.6092,0.0502,0.0314,0.172,0.0682
292.9688,-1.0581,0.1731,0.1039,0.1035,0.0281,0.7936,0.4936,0.6274,0.3681,0.1418,0.4112,0.5913,0.3917,0.4321,-0.814,-0.1843,-0.3537,-0.3034,-0.0762,0.0785,0.099,-0.2131,-0.2614,-0.2539,-0.5793,-0.6775,0.0407,0.0494,0.1708,0.1078
296.875,-1.1097,0.272,0.1844,0.2029,0.0974,0.903,0.5407,0.6957,0.4415,0.219,0.4731,0.6551,0.4176,0.4234,-0.8271,-0.1134,-0.3551,-0.3586,-0.1681,0.1099,0.0966,-0.3421,-0.3807,-0.2956,-0.6158,-0.7263,0.0576,0.0787,0.1613,0.1448
300.7812,-1.1549,0.3056,0.2329,0.2553,0.1356,0.98,0.5656,0.7301,0.4992,0.2828,0.5289,0.7057,0.4393,0.4012,-0.8023,-0.0735,-0.3817,-0.3838,-0.2675,0.1088,0.0742,-0.4573,-0.4695,-0.309,-0.6292,-0.7521,0.0925,0.1118,0.1351,0.1679
304.6875,-1.1876,0.2557,0.2386,0.2374,0.1189,0.993,0.5541,0.7235,0.5333,0.3245,0.5732,0.7356,0.4443,0.3544,-0.7537,-0.0826,-0.4454,-0.3848,-0.3792,0.0606,0.0196,-0.5583,-0.529,-0.3014,-0.6266,-0.754,0.1345,0.1408,0.086,0.1676
308.5938,-1.2013,0.1194,0.1957,0.138,0.0327,0.9191,0.4977,0.6747,0.5382,0.3391,0.6027,0.7407,0.4234,0.2767,-0.6992,-0.149,-0.5513,-0.3719,-0.5057,-0.04,-0.0734,-0.6463,-0.5654,-0.2825,-0.6156,-0.7335,0.1734,0.1589,0.0122,0.1382
312.5,-1.1924,-0.0908,0.1035,-0.0391,-0.1241,0.7508,0.3957,0.5889,0.5129,0.3263,0.617,0.7209,0.3723,0.1682,-0.6559,-0.27,-0.6961,-0.3574,-0.6448,-0.1877,-0.2032,-0.7226,-0.5863,-0.2621,-0.6026,-0.6939,0.2014,0.1619,-0.0834,0.0803
316.4062,-1.1621,-0.3483,-0.0332,-0.2759,-0.3388,0.5002,0.2559,0.4765,0.4612,0.2902,0.6187,0.6807,0.2932,0.0361,-0.6364,-0.4324,-0.8686,-0.3514,-0.7896,-0.3681,-0.3605,-0.7871,-0.5982,-0.2475,-0.5907,-0.6396,0.2147,0.1488,-0.1926,0.0008
320.3125,-1.1175,-0.6181,-0.2036,-0.5436,-0.587,0.197,0.0932,0.3513,0.3915,0.2382,0.6126,0.628,0.1938,-0.1077,-0.6457,-0.6161,-1.0515,-0.3591,-0.929,-0.5613,-0.5306,-0.8385,-0.6049,-0.2424,-0.5791,-0.5746,0.2135,0.1225,-0.3039,-0.0879
324.2188,-1.0697,-0.8642,-0.3922,-0.8082,-0.8376,-0.1171,-0.0732,0.228,0.3149,0.1795,0.6048,0.5726,0.086,-0.2485,-0.6808,-0.7982,-1.2259,-0.379,-1.0509,-0.7462,-0.6971,-0.8744,-0.6064,-0.246,-0.5644,-0.5026,0.202,0.0885,-0.4046,-0.171
328.125,-1.0308,-1.0569,-0.5803,-1.0374,-1.059,-0.3979,-0.2239,0.1201,0.2425,0.1231,0.6009,0.5242,-0.0169,-0.3727,-0.7328,-0.9585,-1.3755,-0.4049,-1.1451,-0.9048,-0.8448,-0.8935,-0.6008,-0.2547,-0.5415,-0.4264,0.186,0.0539,-0.4837,-0.2352
332.0312,-1.0097,-1.1778,-0.7491,-1.2059,-1.2249,-0.6079,-0.3429,0.0373,0.1829,0.076,0.6046,0.4897,-0.103,-0.4704,-0.7896,-1.083,-1.4901,-0.4285,-1.2065,-1.0259,-0.9632,-0.8966,-0.5863,-0.2631,-0.5063,-0.3486,0.1718,0.0254,-0.5347,-0.2722
335.9375,-1.0098,-1.2225,-0.8836,-1.2993,-1.3195,-0.7242,-0.4212,-0.0157,0.1402,0.0426,0.6166,0.4718,-0.165,-0.5375,-0.8401,-1.1667,-1.5673,-0.4437,-1.2364,-1.1064,-1.0482,-0.8874,-0.563,-0.2667,-0.4574,-0.2719,0.1642,0.0073,-0.5571,-0.2807
339.8438,-1.0285,-1.1998,-0.9751,-1.3161,-1.3399,-0.7411,-0.4583,-0.0395,0.1131,0.0238,0.6341,0.4685,-0.2013,-0.5769,-0.8769,-1.213,-1.6117,-0.4491,-1.2423,-1.1511,-1.1025,-0.8729,-0.5345,-0.2632,-0.3974,-0.2002,0.1651,0.001,-0.5561,-0.2666
343.75,-1.0594,-1.1284,-1.0221,-1.2664,-1.2962,-0.6708,-0.4619,-0.0395,0.0959,0.017,0.6515,0.4731,-0.2173,-0.5974,-0.8979,-1.2317,-1.6324,-0.4492,-1.2356,-1.1706,-1.1343,-0.8611,-0.5072,-0.2535,-0.3321,-0.1383,0.1735,0.004,-0.5413,-0.2403
347.6562,-1.0954,-1.0321,-1.0293,-1.1699,-1.2092,-0.5387,-0.4467,-0.0246,0.0799,0.017,0.6614,0.4766,-0.2232,-0.6121,-0.9062,-1.2355,-1.6393,-0.4525,-1.2281,-1.1783,-1.1552,-0.8595,-0.4884,-0.2419,-0.2698,-0.0914,0.1858,0.0114,-0.5238,-0.214
351.5625,-1.132,-0.9349,-1.0055,-1.0516,-1.1062,-0.3784,-0.4302,-0.0054,0.056,0.0166,0.6561,0.4698,-0.2325,-0.635,-0.9086,-1.2366,-1.6407,-0.4688,-1.2285,-1.1871,-1.1778,-0.8729,-0.4841,-0.235,-0.2189,-0.0645,0.1968,0.0168,-0.5131,-0.1975
355.4688,-1.1695,-0.8559,-0.9612,-0.937,-1.0147,-0.2251,-0.4296,0.0075,0.0166,0.0083,0.6297,0.4453,-0.2581,-0.678,-0.9125,-1.2439,-1.6409,-0.505,-1.24,-1.2069,-1.2122,-0.9014,-0.4972,-0.2401,-0.1869,-0.061,0.2008,0.0139,-0.5145,-0.1969
359.375,-1.213,-0.8062,-0.9054,-0.8468,-0.9573,-0.109,-0.457,0.0063,-0.043,-0.0147,0.5788,0.3994,-0.3091,-0.7478,-0.9239,-1.2607,-1.6397,-0.5624,-1.2594,-1.242,-1.2635,-0.9405,-0.5258,-0.2629,-0.1788,-0.082,0.193,-0.0018,-0.5279,-0.213
363.2812,-1.2691,-0.7869,-0.8446,-0.7927,-0.9461,-0.0503,-0.5172,-0.0131,-0.1229,-0.0564,0.5043,0.333,-0.3881,-0.8433,-0.9448,-1.2848,-1.6334,-0.6352,-1.2777,-1.2904,-1.3302,-0.981,-0.5636,-0.3055,-0.1964,-0.1259,0.1702,-0.0322,-0.5476,-0.242
367.1875,-1.343,-0.7894,-0.7815,-0.7755,-0.9807,-0.0557,-0.6056,-0.0489,-0.2183,-0.1166,0.4114,0.2515,-0.4898,-0.9552,-0.9724,-1.3091,-1.6162,-0.7113,-1.2827,-1.3437,-1.404,-1.0112,-0.6005,-0.3656,-0.2385,-0.1877,0.1313,-0.076,-0.5643,-0.2766
371.0938,-1.4332,-0.7986,-0.7152,-0.7858,-1.048,-0.1171,-0.709,-0.0937,-0.3198,-0.19,0.309,0.1637,-0.602,-1.0676,-1.0006,-1.3246,-1.5828,-0.776,-1.2625,-1.3895,-1.4711,-1.0188,-0.625,-0.4356,-0.3011,-0.2605,0.0781,-0.1292,-0.5672,-0.3082
375,-1.5303,-0.7982,-0.6426,-0.8076,-1.1262,-0.2138,-0.8084,-0.1365,-0.4145,-0.2671,0.2083,0.0798,-0.7074,-1.1616,-1.022,-1.3231,-1.5307,-0.8162,-1.2095,-1.4152,-1.5162,-0.9951,-0.6276,-0.5053,-0.3782,-0.3366,0.0141,-0.186,-0.5481,-0.3291
378.9062,-1.6163,-0.7764,-0.5602,-0.8238,-1.1906,-0.3173,-0.8831,-0.1651,-0.4886,-0.3352,0.121,0.0097,-0.7884,-1.2196,-1.0305,-1.3005,-1.4624,-0.824,-1.1234,-1.4112,-1.5265,-0.9368,-0.6034,-0.5636,-0.4628,-0.4088,-0.0559,-0.2405,-0.5034,-0.3348
382.8125,-1.6684,-0.7299,-0.4659,-0.8212,-1.219,-0.3982,-0.9149,-0.1693,-0.5294,-0.3808,0.0571,-0.0392,-0.8302,-1.2292,-1.0236,-1.2581,-1.3849,-0.7988,-1.0123,-1.3745,-1.4951,-0.8478,-0.5538,-0.6012,-0.5478,-0.4712,-0.1262,-0.2876,-0.4356,-0.3247
386.7188,-1.6644,-0.665,-0.3605,-0.7928,-1.1973,-0.4324,-0.8915,-0.1425,-0.5277,-0.3915,0.0236,-0.062,-0.8236,-1.1859,-1.002,-1.2023,-1.3084,-0.7465,-0.8911,-1.3083,-1.4225,-0.7388,-0.486,-0.612,-0.626,-0.5194,-0.1912,-0.3235,-0.3525,-0.3023
390.625,-1.589,-0.5945,-0.2471,-0.7385,-1.121,-0.406,-0.8084,-0.0837,-0.479,-0.3581,0.0242,-0.0568,-0.7663,-1.0929,-0.9685,-1.141,-1.2429,-0.6768,-0.7769,-1.2209,-1.3159,-0.6236,-0.4109,-0.5942,-0.6907,-0.5502,-0.2448,-0.3447,-0.2642,-0.2731
394.5312,-1.4393,-0.5323,-0.1307,-0.6632,-0.9941,-0.3172,-0.6688,0.0035,-0.3842,-0.2761,0.0587,-0.0233,-0.6621,-0.9591,-0.9266,-1.0808,-1.1943,-0.6001,-0.6844,-1.1221,-1.1861,-0.5161,-0.3397,-0.5487,-0.7356,-0.5608,-0.2804,-0.3484,-0.1802,-0.2423
398.4375,-1.2274,-0.4872,-0.0166,-0.5727,-0.8274,-0.1744,-0.4828,0.1115,-0.2495,-0.1462,0.1237,0.0376,-0.5192,-0.7962,-0.8785,-1.0234,-1.161,-0.524,-0.6206,-1.0191,-1.0435,-0.4257,-0.2811,-0.4792,-0.7557,-0.5486,-0.2919,-0.3314,-0.1061,-0.2126
402.3438,-0.9795,-0.4587,0.0908,-0.4721,-0.6345,0.0065,-0.2654,0.2302,-0.0855,0.0249,0.2135,0.1242,-0.3482,-0.6158,-0.8251,-0.9643,-1.1335,-0.4521,-0.5829,-0.9143,-0.8959,-0.3553,-0.2389,-0.3902,-0.7479,-0.512,-0.274,-0.2909,-0.0426,-0.1831
406.25,-0.7315,-0.4368,0.1888,-0.364,-0.4298,0.2059,-0.0348,0.3486,0.0934,0.2244,0.3201,0.2332,-0.161,-0.4281,-0.7659,-0.8943,-1.0956,-0.3833,-0.5601,-0.8049,-0.7463,-0.3013,-0.2115,-0.287,-0.7128,-0.4512,-0.2246,-0.2254,0.014,-0.1496
410.1562,-0.5202,-0.4052,0.2764,-0.2492,-0.2267,0.404,0.1897,0.4564,0.2707,0.4349,0.4345,0.3598,0.0303,-0.2408,-0.6992,-0.8022,-1.0294,-0.3135,-0.5354,-0.6845,-0.5946,-0.2554,-0.1924,-0.1755,-0.6544,-0.3692,-0.1453,-0.1356,0.0698,-0.1059
414.0625,-0.3752,-0.3463,0.3531,-0.128,-0.0365,0.5838,0.3896,0.5447,0.4301,0.6355,0.5471,0.4972,0.2144,-0.0599,-0.6224,-0.679,-0.9208,-0.2383,-0.4924,-0.5462,-0.4388,-0.2079,-0.1727,-0.0617,-0.5808,-0.2717,-0.0424,-0.0253,0.1302,-0.0461
417.9688,-0.3114,-0.248,0.4184,-0.0016,0.132,0.7322,0.5499,0.6069,0.5573,0.8057,0.6488,0.6367,0.3809,0.1097,-0.5327,-0.5212,-0.7645,-0.1554,-0.4201,-0.3859,-0.2773,-0.1508,-0.1441,0.0481,-0.5026,-0.1664,0.0745,0.0992,0.1977,0.033
421.875,-0.3265,-0.1072,0.4705,0.1268,0.2731,0.8408,0.66,0.639,0.642,0.9278,0.732,0.7693,0.521,0.2634,-0.4284,-0.3335,-0.5668,-0.0672,-0.3165,-0.2046,-0.1111,-0.0811,-0.1017,0.1478,-0.431,-0.0618,0.1935,0.2296,0.2702,0.1302
425.7812,-0.4022,0.0682,0.5068,0.2519,0.3836,0.9051,0.7156,0.6391,0.6798,0.99,0.7909,0.8858,0.6279,0.3968,-0.3103,-0.1281,-0.3445,0.019,-0.1894,-0.0093,0.0558,-0.0014,-0.0458,0.2318,-0.376,0.0345,0.3027,0.3565,0.3414,0.2395
429.6875,-0.5095,0.2606,0.5239,0.3667,0.4625,0.9238,0.7185,0.6084,0.6721,0.9885,0.8222,0.9781,0.697,0.5055,-0.183,0.0769,-0.1217,0.0929,-0.0541,0.1878,0.2165,0.0804,0.018,0.2953,-0.3444,0.1169,0.3917,0.4704,0.4021,0.3506
433.5938,-0.6161,0.4464,0.5184,0.463,0.5101,0.898,0.6753,0.5507,0.6254,0.9269,0.8245,1.0398,0.7262,0.5854,-0.0554,0.2614,0.0763,0.1434,0.0703,0.3712,0.3616,0.1535,0.0805,0.3346,-0.3389,0.1821,0.4527,0.5623,0.4426,0.4507
437.5,-0.6948,0.6007,0.4869,0.5327,0.527,0.8303,0.5961,0.472,0.5501,0.8154,0.7982,1.0655,0.7148,0.6328,0.0608,0.4068,0.2274,0.162,0.1655,0.5253,0.481,0.2063,0.1316,0.347,-0.3582,0.2284,0.4803,0.6236,0.4554,0.527
441.4062,-0.7294,0.702,0.4271,0.5688,0.5135,0.7247,0.492,0.3803,0.4576,0.6679,0.7454,1.0522,0.6635,0.6446,0.1533,0.4996,0.3173,0.1452,0.2176,0.6366,0.5653,0.2289,0.1623,0.3309,-0.3977,0.2552,0.4719,0.6474,0.4367,0.569
445.3125,-0.7177,0.7363,0.3391,0.5666,0.4701,0.587,0.3736,0.2846,0.359,0.4996,0.6691,0.9987,0.5742,0.6188,0.211,0.5333,0.341,0.0957,0.2199,0.696,0.607,0.2149,0.1672,0.2859,-0.451,0.2624,0.4273,0.629,0.388,0.5712
449.2188,-0.6693,0.6996,0.2266,0.5253,0.3979,0.4255,0.2496,0.1932,0.2636,0.3251,0.5746,0.9078,0.4503,0.5556,0.2262,0.5101,0.303,0.0219,0.1737,0.7009,0.6023,0.1632,0.1453,0.2133,-0.5109,0.2504,0.349,0.5675,0.3161,0.5341
453.125,-0.6008,0.5988,0.0987,0.4489,0.3006,0.2513,0.127,0.1131,0.1783,0.1576,0.4686,0.7863,0.2979,0.4583,0.1963,0.4402,0.2162,-0.0644,0.0887,0.6557,0.5525,0.0789,0.1006,0.1171,-0.5706,0.2199,0.243,0.467,0.2323,0.4658
457.0312,-0.5305,0.4512,-0.0306,0.3466,0.1852,0.079,0.0115,0.0489,0.1075,0.0081,0.3605,0.646,0.1265,0.3342,0.1239,0.3407,0.0996,-0.1506,-0.0189,0.5718,0.4651,-0.027,0.0419,0.0049,-0.6238,0.1731,0.1191,0.3378,0.151,0.381
460.9375,-0.4736,0.281,-0.1433,0.2318,0.0629,-0.0744,-0.0913,0.0031,0.0538,-0.1144,0.2614,0.5026,-0.0504,0.1957,0.0179,0.2327,-0.0241,-0.2265,-0.128,0.4661,0.3532,-0.1382,-0.0192,-0.1124,-0.6653,0.1134,-0.0092,0.1956,0.0869,0.2984
464.8438,-0.4403,0.1158,-0.2204,0.1203,-0.0526,-0.1921,-0.1765,-0.0246,0.0172,-0.2031,0.183,0.3744,-0.2166,0.0585,-0.1077,0.1376,-0.1324,-0.2849,-0.2169,0.3585,0.2341,-0.2365,-0.07,-0.221,-0.6921,0.046,-0.1262,0.0601,0.0524,0.2372
468.75,-0.4348,-0.0201,-0.2461,0.027,-0.1479,-0.2612,-0.2395,-0.0363,-0.0039,-0.2546,0.1355,0.2785,-0.3548,-0.0605,-0.2354,0.0731,-0.2059,-0.3223,-0.2672,0.2675,0.1262,-0.3045,-0.1,-0.3069,-0.703,-0.0227,-0.2162,-0.049,0.055,0.2126
472.6562,-0.4558,-0.1106,-0.2122,-0.0385,-0.2136,-0.2777,-0.2779,-0.0367,-0.0133,-0.2693,0.1257,0.2282,-0.4503,-0.1462,-0.3478,0.0494,-0.2324,-0.3378,-0.268,0.2071,0.0453,-0.3303,-0.1034,-0.3578,-0.7,-0.0854,-0.2666,-0.1152,0.0954,0.2317
476.5625,-0.4962,-0.1516,-0.1214,-0.0741,-0.247,-0.2481,-0.2924,-0.0315,-0.0161,-0.2521,0.155,0.23,-0.4935,-0.1886,-0.4308,0.067,-0.2085,-0.3327,-0.2181,0.1836,0.0014,-0.3095,-0.0804,-0.3666,-0.6875,-0.1352,-0.2705,-0.1296,0.1669,0.2916
480.4688,-0.5449,-0.1518,0.0115,-0.0858,-0.2536,-0.1894,-0.2867,-0.0272,-0.0177,-0.2121,0.2188,0.2816,-0.4822,-0.1846,-0.475,0.1176,-0.1398,-0.31,-0.1262,0.1949,-0.0029,-0.2467,-0.0373,-0.3323,-0.6722,-0.1666,-0.2289,-0.0922,0.2563,0.3806
484.375,-0.5888,-0.1288,0.1623,-0.0856,-0.2447,-0.1247,-0.2677,-0.0291,-0.0229,-0.1609,0.307,0.3727,-0.4221,-0.1391,-0.4771,0.1864,-0.0395,-0.2743,-0.009,0.2321,0.0272,-0.1541,0.0155,-0.2612,-0.6613,-0.1772,-0.15,-0.0129,0.3469,0.4806
488.2812,-0.6157,-0.1035,0.3025,-0.0862,-0.2338,-0.0773,-0.2435,-0.0402,-0.0345,-0.1111,0.406,0.4864,-0.3255,-0.0628,-0.4386,0.2572,0.0751,-0.2317,0.1129,0.2826,0.0812,-0.0491,0.066,-0.1657,-0.6617,-0.1679,-0.0488,0.0909,0.4217,0.572
492.1875,-0.6181,-0.0925,0.4071,-0.0963,-0.2315,-0.064,-0.2213,-0.0603,-0.0525,-0.0731,0.5013,0.6024,-0.2087,0.0301,-0.3643,0.3167,0.1862,-0.1894,0.2193,0.3345,0.1466,0.0499,0.1031,-0.0616,-0.6775,-0.1426,0.0566,0.1981,0.4674,0.6387
496.0938,-0.5943,-0.1032,0.4607,-0.1171,-0.2416,-0.0904,-0.206,-0.0853,-0.0744,-0.0528,0.5804,0.7011,-0.0887,0.1255,-0.2601,0.3585,0.2794,-0.1548,0.2948,0.3796,0.2127,0.1276,0.1196,0.0354,-0.7087,-0.1079,0.1488,0.2888,0.4766,0.6711
500,-0.5489,-0.1319,0.4605,-0.1416,-0.2599,-0.1501,-0.1983,-0.1087,-0.0954,-0.0511,0.6353,0.7675,0.0202,0.213,-0.1326,0.3837,0.3464,-0.1341,0.3318,0.4159,0.273,0.1746,0.1136,0.1127,-0.7506,-0.0708,0.2143,0.3481,0.4495,0.6684
503.9062,-0.4902,-0.166,0.4163,-0.1577,-0.2753,-0.2279,-0.1952,-0.1227,-0.1101,-0.0634,0.6635,0.7934,0.1087,0.2873,0.011,0.3993,0.3858,-0.1307,0.3311,0.4468,0.3263,0.1898,0.089,0.1641,-0.794,-0.0375,0.2461,0.3696,0.3926,0.6373
507.8125,-0.4269,-0.1893,0.3468,-0.1525,-0.2743,-0.3042,-0.1909,-0.1205,-0.1135,-0.0814,0.6683,0.7794,0.1734,0.3491,0.1619,0.4153,0.4029,-0.1445,0.3012,0.4788,0.3758,0.1796,0.0552,0.19,-0.827,-0.0119,0.2444,0.3551,0.3174,0.5896
511.7188,-0.3644,-0.1878,0.2746,-0.1168,-0.2444,-0.3601,-0.1781,-0.0977,-0.1017,-0.0945,0.657,0.7334,0.2167,0.4035,0.3097,0.4402,0.4071,-0.1708,0.256,0.5191,0.4274,0.1562,0.0246,0.1968,-0.8382,0.005,0.2158,0.3142,0.2374,0.5392
515.625,-0.3029,-0.155,0.2205,-0.0485,-0.1786,-0.3816,-0.1505,-0.0535,-0.0733,-0.0928,0.6391,0.6687,0.2444,0.4576,0.4426,0.4781,0.4101,-0.2019,0.2114,0.5718,0.4865,0.1342,0.01,0.1942,-0.8198,0.0146,0.1707,0.2602,0.1657,0.4986
519.5312,-0.239,-0.0933,0.1997,0.0465,-0.0776,-0.3616,-0.1046,0.0091,-0.0292,-0.0687,0.624,0.6008,0.2638,0.5178,0.5496,0.5277,0.422,-0.2287,0.1818,0.6368,0.5561,0.1268,0.0218,0.1922,-0.7702,0.0199,0.1206,0.2073,0.1128,0.4768
523.4375,-0.1681,-0.0137,0.218,0.1556,0.0498,-0.3011,-0.0409,0.0831,0.0271,-0.0193,0.6187,0.544,0.2809,0.5863,0.6216,0.5821,0.4488,-0.2434,0.1767,0.7087,0.6345,0.1421,0.0651,0.1978,-0.6953,0.0245,0.0753,0.1668,0.0846,0.4777
527.3438,-0.0891,0.0674,0.2707,0.2625,0.1879,-0.2085,0.0354,0.1586,0.0894,0.0523,0.6258,0.5083,0.298,0.6601,0.653,0.6302,0.4906,-0.242,0.1985,0.7774,0.7148,0.1812,0.1378,0.2134,-0.6072,0.0314,0.0415,0.1457,0.0819,0.4991
531.25,-0.0071,0.1328,0.3443,0.35,0.3168,-0.098,0.1147,0.2241,0.149,0.1372,0.6435,0.4979,0.3131,0.7302,0.6427,0.6592,0.5405,-0.2257,0.2419,0.8301,0.7856,0.2371,0.2315,0.2364,-0.5212,0.043,0.0218,0.1458,0.0998,0.5339
535.1562,0.0658,0.1675,0.4196,0.4032,0.4154,0.012,0.1845,0.2681,0.1961,0.2211,0.6655,0.5112,0.3201,0.7831,0.5939,0.6569,0.5863,-0.2007,0.2944,0.8534,0.8326,0.2969,0.3324,0.2601,-0.4523,0.0606,0.0154,0.1645,0.1289,0.5711
539.0625,0.1131,0.1615,0.4771,0.4107,0.464,0.1017,0.2311,0.2812,0.221,0.2874,0.6826,0.5413,0.3102,0.8033,0.5146,0.6137,0.6128,-0.1767,0.3397,0.8354,0.8413,0.3443,0.4245,0.2755,-0.4118,0.0854,0.0189,0.1958,0.1566,0.599
542.9688,0.1176,0.1103,0.5018,0.3664,0.4474,0.1533,0.2426,0.2572,0.216,0.3201,0.6852,0.5781,0.2743,0.7764,0.4158,0.5246,0.6052,-0.1636,0.3607,0.7679,0.7996,0.364,0.4931,0.2739,-0.4045,0.1176,0.0276,0.2322,0.1697,0.6073
546.875,0.0674,0.0151,0.4869,0.2693,0.3575,0.1532,0.2106,0.1942,0.1772,0.3074,0.6654,0.6106,0.2053,0.6934,0.3104,0.3895,0.5527,-0.1692,0.3439,0.6481,0.7009,0.3451,0.5276,0.2485,-0.4283,0.1564,0.0369,0.2658,0.1571,0.5894
550.7812,-0.0398,-0.1179,0.435,0.1243,0.1948,0.0954,0.1328,0.0953,0.1061,0.2442,0.6202,0.6295,0.1003,0.5524,0.2107,0.2145,0.4513,-0.1966,0.2824,0.4797,0.5459,0.2833,0.5231,0.1966,-0.4754,0.1995,0.0428,0.2901,0.1125,0.544
554.6875,-0.1935,-0.2777,0.3567,-0.0578,-0.0298,-0.0181,0.0135,-0.0317,0.0097,0.134,0.5521,0.6286,-0.038,0.3603,0.1269,0.0107,0.305,-0.2434,0.1779,0.2731,0.3437,0.1825,0.4811,0.1199,-0.5354,0.2429,0.0423,0.3002,0.0363,0.4755
558.5938,-0.3713,-0.4499,0.2676,-0.2609,-0.2959,-0.1766,-0.1362,-0.175,-0.0996,-0.0119,0.4699,0.6065,-0.2014,0.1324,0.0647,-0.2062,0.1259,-0.3025,0.0409,0.0451,0.1112,0.0539,0.4093,0.0241,-0.5975,0.2805,0.0336,0.2938,-0.0636,0.3925
562.5,-0.544,-0.618,0.1837,-0.4651,-0.5754,-0.3623,-0.2998,-0.3199,-0.2063,-0.1756,0.3866,0.5659,-0.3769,-0.1104,0.0256,-0.4183,-0.0682,-0.3641,-0.1116,-0.1837,-0.1294,-0.0861,0.3196,-0.0822,-0.6542,0.3052,0.0154,0.2711,-0.1732,0.3066
566.4062,-0.6823,-0.766,0.1178,-0.6495,-0.8365,-0.5524,-0.4584,-0.4513,-0.2944,-0.3363,0.3168,0.5129,-0.549,-0.3444,0.0061,-0.608,-0.2568,-0.4185,-0.2598,-0.3912,-0.3543,-0.219,0.2261,-0.1893,-0.7021,0.3091,-0.0129,0.234,-0.275,0.2292
570.3125,-0.7639,-0.8807,0.0762,-0.7949,-1.0481,-0.7224,-0.5936,-0.5557,-0.3502,-0.4734,0.2733,0.4557,-0.7019,-0.5472,-0.0009,-0.7603,-0.4211,-0.4579,-0.3849,-0.5579,-0.5412,-0.3279,0.1419,-0.2883,-0.7424,0.2856,-0.0511,0.1862,-0.3517,0.1693
574.2188,-0.7791,-0.954,0.0588,-0.887,-1.1846,-0.849,-0.6896,-0.6232,-0.3649,-0.5703,0.2648,0.4027,-0.8215,-0.7006,-0.0045,-0.8651,-0.5469,-0.4782,-0.4732,-0.6694,-0.6734,-0.3998,0.0771,-0.3722,-0.7793,0.2306,-0.0984,0.1323,-0.3895,0.1321
578.125,-0.7319,-0.9829,0.0611,-0.9176,-1.2292,-0.9128,-0.7354,-0.6488,-0.3363,-0.6162,0.2937,0.3613,-0.8969,-0.792,-0.0131,-0.9183,-0.6259,-0.4788,-0.5176,-0.7186,-0.7412,-0.4278,0.037,-0.4357,-0.8176,0.1445,-0.1519,0.0775,-0.3812,0.1179
582.0312,-0.6389,-0.9695,0.0776,-0.885,-1.1756,-0.9004,-0.7252,-0.6324,-0.2685,-0.6072,0.3564,0.3369,-0.9209,-0.8149,-0.0318,-0.9209,-0.6559,-0.4624,-0.5177,-0.7055,-0.742,-0.4109,0.0223,-0.4749,-0.861,0.0324,-0.2069,0.0272,-0.327,0.1232
585.9375,-0.5246,-0.9192,0.1042,-0.7931,-1.0285,-0.8063,-0.6591,-0.578,-0.1713,-0.5459,0.4442,0.332,-0.8906,-0.769,-0.0608,-0.8785,-0.6389,-0.4332,-0.4782,-0.6361,-0.6803,-0.353,0.0305,-0.4868,-0.9099,-0.0954,-0.2571,-0.0136,-0.2343,0.1419
589.8438,-0.4154,-0.8387,0.1399,-0.6508,-0.8032,-0.6341,-0.5423,-0.493,-0.0576,-0.4401,0.5452,0.3463,-0.8077,-0.6595,-0.0949,-0.7993,-0.58,-0.3962,-0.4066,-0.5212,-0.5655,-0.2619,0.0565,-0.4695,-0.961,-0.2253,-0.2948,-0.0406,-0.1156,0.1666
593.75,-0.3336,-0.7355,0.1856,-0.4706,-0.5234,-0.3975,-0.3848,-0.3861,0.0588,-0.301,0.647,0.3769,-0.6776,-0.4962,-0.1242,-0.6931,-0.4863,-0.3553,-0.3118,-0.3735,-0.4107,-0.1473,0.0951,-0.4221,-1.0083,-0.3428,-0.3129,-0.051,0.0136,0.1904
597.6562,-0.2926,-0.6168,0.2423,-0.2684,-0.2189,-0.119,-0.2002,-0.2668,0.1659,-0.1415,0.7388,0.4189,-0.5099,-0.2931,-0.1366,-0.5703,-0.3661,-0.3129,-0.2023,-0.2071,-0.2308,-0.0203,0.1418,-0.3459,-1.0444,-0.4351,-0.3056,-0.0438,0.1379,0.2077
601.5625,-0.2954,-0.4899,0.3086,-0.0616,0.0792,0.1724,-0.0046,-0.1436,0.2547,0.0256,0.8125,0.466,-0.317,-0.067,-0.1209,-0.4407,-0.2292,-0.2689,-0.0861,-0.0348,-0.0411,0.1082,0.1932,-0.2446,-1.0629,-0.4937,-0.2699,-0.02,0.2443,0.2146
605.4688,-0.3343,-0.3617,0.3803,0.1325,0.3421,0.4454,0.1847,-0.0244,0.3198,0.188,0.8629,0.5112,-0.1134,0.1641,-0.07,-0.3127,-0.086,-0.2216,0.0297,0.1319,0.1443,0.2279,0.2472,-0.1251,-1.06,-0.5163,-0.2067,0.017,0.3237,0.2093
609.375,-0.3945,-0.2387,0.451,0.2991,0.5476,0.6714,0.3511,0.0839,0.359,0.3339,0.8879,0.5468,0.0858,0.3825,0.016,-0.1928,0.0533,-0.1683,0.1396,0.2844,0.3137,0.3306,0.3023,0.0028,-1.0357,-0.5069,-0.1212,0.0615,0.3722,0.1917
613.2812,-0.4575,-0.1262,0.5138,0.4279,0.6834,0.8289,0.4805,0.1746,0.3728,0.4532,0.8872,0.566,0.2661,0.5729,0.1293,-0.0842,0.1807,-0.1066,0.2398,0.4175,0.459,0.4108,0.3576,0.1276,-0.9934,-0.4749,-0.0217,0.1064,0.3911,0.1639
617.1875,-0.5057,-0.0279,0.5641,0.5154,0.7486,0.9071,0.5633,0.2422,0.3637,0.5374,0.8621,0.5637,0.4161,0.724,0.2553,0.013,0.2916,-0.0352,0.3292,0.5294,0.5761,0.4666,0.4123,0.2376,-0.9393,-0.432,0.0813,0.1444,0.3859,0.1303
621.0938,-0.526,0.0546,0.6012,0.5649,0.753,0.9082,0.5957,0.2823,0.336,0.5814,0.8158,0.5381,0.5284,0.8305,0.3762,0.102,0.3858,0.0454,0.4088,0.6221,0.6657,0.5,0.4664,0.3236,-0.8803,-0.3898,0.1771,0.1699,0.3656,0.0974
625,-0.5115,0.1214,0.6293,0.586,0.7154,0.8464,0.5814,0.2939,0.2957,0.5848,0.7536,0.4919,0.6014,0.8934,0.4752,0.1881,0.4666,0.1325,0.4812,0.7004,0.7323,0.5163,0.5201,0.3801,-0.8227,-0.3563,0.2572,0.1799,0.3406,0.073
628.9062,-0.4621,0.175,0.6568,0.5928,0.6599,0.7456,0.5313,0.2796,0.2507,0.553,0.6837,0.4328,0.6394,0.9202,0.5405,0.2773,0.5392,0.2221,0.5497,0.7713,0.7838,0.523,0.5734,0.4071,-0.771,-0.3351,0.3169,0.1755,0.3215,0.0651
632.8125,-0.3826,0.2193,0.6941,0.6014,0.6116,0.6354,0.4626,0.2467,0.2099,0.4972,0.617,0.3723,0.6524,0.9237,0.5675,0.3748,0.609,0.3103,0.6164,0.8422,0.8295,0.5278,0.626,0.4096,-0.7267,-0.3244,0.3562,0.1617,0.3167,0.0804
636.7188,-0.2808,0.26,0.7514,0.6264,0.5926,0.5461,0.396,0.2059,0.1821,0.4328,0.566,0.3238,0.6541,0.9199,0.5591,0.4838,0.6805,0.3942,0.6823,0.9199,0.8795,0.5376,0.6766,0.3968,-0.6886,-0.3188,0.3797,0.1463,0.3321,0.1229
640.625,-0.1654,0.3048,0.8352,0.6797,0.6185,0.5033,0.3519,0.1689,0.1744,0.3764,0.5426,0.3001,0.6592,0.9246,0.5256,0.6049,0.7565,0.4731,0.7473,1.0092,0.9417,0.5575,0.7242,0.3795,-0.6539,-0.3108,0.3945,0.1383,0.3698,0.1937
644.5312,-0.0445,0.3628,0.9472,0.768,0.6961,0.5237,0.3458,0.146,0.1903,0.3425,0.5556,0.3097,0.6801,0.9507,0.4826,0.7371,0.8397,0.5486,0.8116,1.1129,1.0215,0.5903,0.7686,0.3683,-0.619,-0.2932,0.4088,0.1456,0.4284,0.2903
648.4375,0.0748,0.4437,1.0835,0.893,0.8227,0.6121,0.3847,0.1428,0.2283,0.3399,0.6078,0.3549,0.7241,1.005,0.45,0.8784,0.9328,0.6249,0.8769,1.231,1.1202,0.6373,0.812,0.3708,-0.5806,-0.2601,0.4287,0.1736,0.5039,0.4084
652.3438,0.1877,0.5558,1.2354,1.0513,0.9872,0.7615,0.4657,0.1589,0.2814,0.3693,0.6947,0.4307,0.7914,1.0868,0.4493,1.0273,1.04,0.7078,0.9471,1.3621,1.2347,0.6982,0.8589,0.3909,-0.5362,-0.2085,0.4567,0.2234,0.5912,0.5422
656.25,0.2919,0.7042,1.3916,1.2352,1.1723,0.9552,0.5756,0.1879,0.338,0.4235,0.8052,0.5256,0.8746,1.188,0.5,1.1833,1.1664,0.8045,1.0288,1.5032,1.358,0.7725,0.916,0.4279,-0.4848,-0.1376,0.4912,0.2922,0.6855,0.6861
660.1562,0.3882,0.8891,1.5396,1.4338,1.3574,1.1698,0.6941,0.2187,0.3833,0.4881,0.9232,0.6235,0.9605,1.2944,0.6161,1.3471,1.3168,0.9229,1.1289,1.6508,1.4807,0.8589,0.9907,0.4774,-0.427,-0.0496,0.5269,0.373,0.7845,0.8349
664.0625,0.4796,1.105,1.6688,1.6347,1.5212,1.3794,0.7974,0.238,0.4028,0.5448,1.0306,0.7068,1.0324,1.3886,0.8022,1.5201,1.4942,1.07,1.2538,1.8012,1.5921,0.9557,1.0885,0.5325,-0.3655,0.0508,0.556,0.4563,0.8875,0.9849
667.9688,0.5693,1.3415,1.7712,1.825,1.6453,1.5588,0.863,0.233,0.3846,0.5748,1.111,0.7597,1.0736,1.4538,1.0511,1.7028,1.6981,1.2503,1.4062,1.9508,1.6828,1.0605,1.2111,0.5849,-0.3048,0.1568,0.5705,0.5309,0.9959,1.1324
671.875,0.6589,1.5846,1.8431,1.9934,1.716,1.6866,0.8748,0.194,0.3229,0.5629,1.1525,0.7708,1.0715,1.4776,1.344,1.8948,1.9238,1.4632,1.5848,2.0969,1.7467,1.1705,1.3559,0.6277,-0.2506,0.2605,0.5641,0.5865,1.1112,1.2742
675.7812,0.7477,1.8196,1.8851,2.1313,1.7277,1.7485,0.8262,0.117,0.2194,0.5013,1.1498,0.7355,1.0211,1.4556,1.6537,2.0939,2.1628,1.7018,1.7836,2.2379,1.7827,1.2831,1.5158,0.6561,-0.2088,0.3537,0.5347,0.6155,1.2336,1.4067
679.6875,0.8337,2.0333,1.9016,2.2347,1.6836,1.7394,0.7224,0.0053,0.0839,0.391,1.1052,0.657,0.9266,1.3933,1.9488,2.2961,2.4041,1.9519,1.9933,2.3738,1.7957,1.3958,1.6806,0.6691,-0.1839,0.4297,0.4847,0.6149,1.3612,1.5263
683.5938,0.9149,2.2164,1.8994,2.3052,1.597,1.6649,0.5801,-0.131,-0.0671,0.2432,1.0283,0.5456,0.8025,1.3055,2.2006,2.4965,2.6362,2.1936,2.2027,2.5063,1.7961,1.507,1.8385,0.67,-0.1777,0.4844,0.4219,0.5867,1.4895,1.6295
687.5,0.9905,2.3652,1.8856,2.3498,1.4892,1.5411,0.4249,-0.2757,-0.2126,0.0772,0.9342,0.4174,0.6711,1.2145,2.388,2.6898,2.8484,2.4035,2.4007,2.6381,1.7983,1.6152,1.9783,0.6656,-0.1889,0.517,0.3577,0.5379,1.6118,1.7139
691.4062,1.0618,2.4814,1.8661,2.3802,1.3868,1.3925,0.2874,-0.4094,-0.3303,-0.0819,0.8412,0.292,0.5595,1.1459,2.501,2.8714,3.0327,2.5594,2.5782,2.7723,1.8182,1.7196,2.0911,0.6654,-0.2131,0.5301,0.3063,0.4794,1.7213,1.7782
695.3125,1.1317,2.5714,1.8454,2.4108,1.3179,1.2491,0.1975,-0.5123,-0.4004,-0.2079,0.7685,0.1889,0.4948,1.1244,2.5427,3.0376,3.1841,2.6449,2.7293,2.912,1.8704,1.8197,2.1719,0.6799,-0.2431,0.5295,0.2819,0.4239,1.8121,1.8235
699.2188,1.2038,2.6434,1.826,2.4558,1.3067,1.141,0.1793,-0.5677,-0.4088,-0.2775,0.7326,0.1251,0.4989,1.1686,2.5273,3.1865,3.3014,2.6533,2.8518,3.0587,1.9655,1.9158,2.2209,0.7184,-0.2706,0.5229,0.2964,0.3838,1.881,1.8531
703.125,1.281,2.7053,1.8102,2.5257,1.3694,1.0931,0.2469,-0.5645,-0.3494,-0.2755,0.745,0.1117,0.5845,1.2878,2.4774,3.3169,3.3861,2.5897,2.9467,3.2122,2.1079,2.0089,2.2423,0.7875,-0.2876,0.5183,0.357,0.369,1.9283,1.8715
707.0312,1.365,2.7609,1.8003,2.6244,1.511,1.1199,0.4012,-0.4993,-0.2256,-0.1971,0.8099,0.1526,0.7521,1.4804,2.4191,3.4283,3.4413,2.4699,3.0173,3.3696,2.295,2.1,2.2436,0.8888,-0.2883,0.5226,0.4641,0.3849,1.957,1.8832
710.9375,1.4557,2.809,1.7993,2.7473,1.7234,1.2228,0.6301,-0.3771,-0.0496,-0.0489,0.9234,0.243,0.9902,1.7343,2.378,3.5197,3.471,2.3179,3.0678,3.526,2.5174,2.1897,2.2337,1.0189,-0.2712,0.5398,0.6111,0.4317,1.9722,1.8915
714.8438,1.5519,2.844,1.8099,2.8829,1.9875,1.3901,0.9111,-0.2105,0.1598,0.1521,1.0741,0.3707,1.2773,2.0295,2.3748,3.5905,3.4792,2.1608,3.1028,3.6753,2.7616,2.2784,2.221,1.1695,-0.2391,0.5703,0.7845,0.5042,1.9792,1.8972
718.75,1.6509,2.8593,1.8341,3.0156,2.2767,1.6009,1.2151,-0.0179,0.3799,0.3821,1.2449,0.5179,1.5861,2.342,2.4211,3.6405,3.4701,2.0237,3.1267,3.8123,3.0117,2.3656,2.2122,1.3287,-0.1999,0.6104,0.9665,0.593,1.9827,1.8991
722.6562,1.7486,2.8505,1.8725,3.1303,2.5624,1.8304,1.5119,0.1795,0.5876,0.615,1.4165,0.6646,1.8885,2.648,2.5171,3.6711,3.4484,1.925,3.1437,3.9335,3.2532,2.4501,2.2119,1.4832,-0.1646,0.6531,1.1376,0.686,1.9861,1.8947
726.5625,1.8383,2.819,1.9237,3.2166,2.8188,2.0547,1.7749,0.3609,0.763,0.8267,1.57,0.7916,2.1598,2.9273,2.6512,3.6854,3.4192,1.8737,3.1577,4.0385,3.4739,2.5302,2.2218,1.6202,-0.1451,0.6887,1.2805,0.7705,1.9913,1.881
730.4688,1.9107,2.7723,1.9843,3.2704,3.0273,2.2556,1.9845,0.509,0.8916,0.9984,1.6909,0.884,2.3821,3.1654,2.8017,3.6884,3.3875,1.8694,3.1719,4.1287,3.6655,2.6038,2.2417,1.73,-0.1509,0.7071,1.3831,0.8359,1.9989,1.8564
734.375,1.9555,2.7225,2.0493,3.294,3.1777,2.4222,2.1299,0.6119,0.9658,1.1192,1.7705,0.9338,2.546,3.354,2.9414,3.6851,3.357,1.9041,3.1884,4.2066,3.8227,2.6686,2.2698,1.8067,-0.1867,0.6995,1.4401,0.8748,2.0088,1.8214
738.2812,1.9634,2.6822,2.1129,3.2938,3.2684,2.5502,2.2092,0.6647,0.9853,1.1861,1.8075,0.9403,2.6499,3.4902,3.0434,3.6794,3.3292,1.9649,3.2072,4.2735,3.9425,2.7223,2.3039,1.8493,-0.2504,0.6605,1.4537,0.8845,2.0197,1.7785
742.1875,1.9294,2.6598,2.1697,3.2769,3.3035,2.6403,2.2275,0.6687,0.9558,1.2032,1.8066,0.9097,2.698,3.5745,3.087,3.6721,3.3025,2.037,3.2257,4.3277,4.0225,2.7626,2.3409,1.8611,-0.333,0.5892,1.4317,0.8665,2.0296,1.732
746.0938,1.8549,2.6556,2.2152,3.2477,3.2904,2.6948,2.1939,0.63,0.8872,1.1794,1.7765,0.853,2.6985,3.6086,3.0618,3.6595,3.2719,2.1056,3.2382,4.3639,4.0602,2.7864,2.3767,1.848,-0.4213,0.4899,1.3848,0.8258,2.035,1.6859
750,1.7476,2.6609,2.2463,3.2062,3.2358,2.7152,2.1189,0.5575,0.7917,1.1257,1.7273,0.7829,2.6599,3.5943,2.9692,3.6336,3.2294,2.1571,3.2367,4.3728,4.0519,2.7897,2.4056,1.8167,-0.5006,0.3707,1.3237,0.7693,2.0306,1.6425
753.9062,1.6198,2.6593,2.261,3.1475,3.1449,2.7011,2.012,0.461,0.6809,1.053,1.6672,0.7108,2.5901,3.5327,2.8211,3.5835,3.1658,2.1805,3.2118,4.3431,3.994,2.7676,2.4207,1.773,-0.5593,0.2426,1.2566,0.7044,2.01,1.6011
757.8125,1.4857,2.6314,2.2581,3.0646,3.0204,2.6506,1.8812,0.3497,0.5651,0.9704,1.6021,0.6452,2.4952,3.4251,2.6371,3.4982,3.0731,2.1687,3.1552,4.2639,3.884,2.7155,2.4148,1.7203,-0.5903,0.1171,1.1882,0.6374,1.9671,1.5587
761.7188,1.3572,2.5612,2.2373,2.9519,2.8645,2.5636,1.7337,0.232,0.4525,0.8858,1.535,0.5908,2.3801,3.2746,2.4396,3.3707,2.9473,2.1203,3.0627,4.1285,3.7228,2.6311,2.3832,1.6605,-0.5926,0.0056,1.1204,0.5736,1.8981,1.5112
765.625,1.2423,2.4408,2.2,2.8086,2.6812,2.4447,1.5771,0.1154,0.3499,0.8062,1.4678,0.5491,2.2502,3.0883,2.2494,3.2006,2.7905,2.0404,2.9361,3.9372,3.5162,2.5158,2.3257,1.5942,-0.5698,-0.0823,1.0539,0.5169,1.8036,1.4564
769.5312,1.1438,2.2732,2.1491,2.6408,2.4775,2.3052,1.4204,0.007,0.263,0.7382,1.4031,0.5198,2.1115,2.877,2.0822,2.9954,2.6115,1.9401,2.7839,3.698,3.2751,2.376,2.2476,1.522,-0.5278,-0.1391,0.9893,0.4704,1.6894,1.3955
773.4375,1.0605,2.0708,2.0886,2.461,2.2642,2.1622,1.2735,-0.0874,0.1965,0.6888,1.3447,0.5017,1.9715,2.6545,1.9456,2.7693,2.4238,1.8348,2.6199,3.4251,3.0138,2.2214,2.1595,1.4446,-0.4736,-0.1602,0.9276,0.4365,1.5662,1.3336
777.3438,0.9885,1.8513,2.0222,2.2842,2.053,2.0349,1.1457,-0.1634,0.1541,0.6636,1.2978,0.4932,1.837,2.4345,1.8399,2.5394,2.242,1.74,2.4598,3.1355,2.7471,2.0633,2.0743,1.3631,-0.4137,-0.1442,0.8701,0.4161,1.4466,1.2781
781.25,0.9235,1.632,1.9526,2.1245,1.8545,1.9405,1.0437,-0.2191,0.137,0.666,1.2675,0.4923,1.7133,2.228,1.7586,2.3215,2.078,1.6686,2.3176,2.8446,2.4869,1.9115,2.0042,1.2781,-0.3535,-0.0935,0.8174,0.4088,1.3429,1.2367
785.1562,0.8616,1.4257,1.8808,1.9913,1.6752,1.8896,0.9696,-0.2552,0.144,0.6961,1.2569,0.4966,1.6028,2.0411,1.6924,2.126,1.9385,1.6279,2.2021,2.5633,2.2404,1.7724,1.9579,1.1899,-0.2972,-0.0137,0.7694,0.4126,1.2633,1.2149
789.0625,0.8,1.2388,1.8073,1.8871,1.5163,1.8835,0.9207,-0.2755,0.1709,0.7501,1.266,0.5039,1.5046,1.874,1.6316,1.9562,1.8235,1.6181,2.1155,2.2962,2.0088,1.6478,1.9381,1.0987,-0.2473,0.0875,0.7249,0.4242,1.2101,1.2139
792.9688,0.7366,1.0709,1.7322,1.8073,1.3736,1.9144,0.8899,-0.2855,0.211,0.8209,1.2904,0.5118,1.415,1.7221,1.5684,1.8085,1.728,1.6335,2.0528,2.0424,1.7891,1.5356,1.9412,1.0045,-0.2037,0.2011,0.6822,0.4401,1.1795,1.2305
796.875,0.6691,0.9165,1.6564,1.7419,1.2392,1.9665,0.8672,-0.2921,0.256,0.8993,1.3227,0.5186,1.3291,1.5781,1.4984,1.6743,1.6433,1.6635,2.0044,1.7973,1.5758,1.4308,1.9585,0.9083,-0.1647,0.3181,0.6396,0.4566,1.1622,1.2575
