time	FP1	F3	F7	FC3	C3	C5	P3	P7	PO7	PO3	O1	Oz	Pz	CPz	FP2	Fz	F4	F8	FC4	FCz	Cz	C4	C6	P4	P8	PO8	PO4	O2	HEOG_left	HEOG_right
-199.2188	-0.5621	0.7798	-1.4167	0.2054	-0.4687	-1.0102	0.1336	0.2126	0.0524	0.0988	-0.0304	0.1408	0.3342	0.1938	-0.7126	-0.542	-0.5258	-0.2204	-0.4556	-0.4044	-0.0576	-0.2759	0.0146	0.1729	-0.1593	0.2272	0.0567	0.0434	-0.6473	-0.9616
-195.3125	-0.5382	0.3575	-1.13	-0.0529	-0.4741	-0.8777	0.1326	0.1831	0.0853	0.1052	0.0158	0.1461	0.3112	0.1824	-0.644	-0.4461	-0.3353	-0.171	-0.2944	-0.3006	0.0108	-0.1434	0.0243	0.1945	-0.0852	0.219	0.0685	0.0661	-0.5969	-0.8554
-191.4062	-0.5172	-0.0248	-0.8769	-0.2894	-0.4797	-0.7517	0.1274	0.1532	0.1124	0.1077	0.0544	0.1463	0.2808	0.1617	-0.5861	-0.362	-0.174	-0.1353	-0.1635	-0.2124	0.0629	-0.0362	0.0224	0.2049	-0.0194	0.2061	0.0725	0.0814	-0.5572	-0.762
-187.5	-0.4993	-0.3346	-0.682	-0.4825	-0.4835	-0.6376	0.1168	0.1242	0.1309	0.1053	0.081	0.1392	0.2397	0.1273	-0.5423	-0.2956	-0.0593	-0.1176	-0.0787	-0.1491	0.0886	0.0338	0.0083	0.1994	0.0331	0.1873	0.0661	0.0857	-0.5332	-0.6891
-183.5938	-0.4858	-0.5571	-0.5561	-0.6203	-0.4847	-0.5392	0.1011	0.0982	0.14	0.0983	0.0933	0.1247	0.1873	0.0779	-0.5129	-0.2517	-0.0018	-0.1193	-0.0468	-0.1167	0.0829	0.0623	-0.0159	0.1771	0.0703	0.1631	0.0487	0.0778	-0.5258	-0.6407
-179.6875	-0.4787	-0.6954	-0.496	-0.7006	-0.4825	-0.4582	0.0815	0.0779	0.1411	0.0885	0.0918	0.1043	0.1257	0.0156	-0.4956	-0.2318	-0.0025	-0.1383	-0.0635	-0.1161	0.0467	0.0538	-0.0455	0.1411	0.0929	0.1354	0.0226	0.0595	-0.5318	-0.6164
-175.7812	-0.4793	-0.7637	-0.4868	-0.7281	-0.4761	-0.3951	0.0605	0.0659	0.1369	0.0781	0.0793	0.0811	0.0594	-0.0542	-0.4854	-0.2335	-0.0515	-0.1682	-0.114	-0.143	-0.013	0.0205	-0.0736	0.0977	0.1041	0.1074	-0.0078	0.0349	-0.5444	-0.6112
-171.875	-0.4872	-0.7793	-0.5074	-0.7111	-0.4641	-0.3483	0.0407	0.0637	0.1306	0.0695	0.0597	0.0584	-0.0056	-0.1239	-0.476	-0.2497	-0.1292	-0.1992	-0.1761	-0.1875	-0.085	-0.0204	-0.0918	0.0551	0.1083	0.083	-0.0364	0.0094	-0.5545	-0.6171
-167.9688	-0.4995	-0.7559	-0.5364	-0.6578	-0.4445	-0.3148	0.0246	0.0713	0.1247	0.064	0.0372	0.0393	-0.0635	-0.1857	-0.4609	-0.2698	-0.2106	-0.2203	-0.226	-0.2369	-0.1565	-0.0516	-0.0928	0.021	0.1095	0.0654	-0.0574	-0.0119	-0.5528	-0.6241
-164.0625	-0.5106	-0.7024	-0.5563	-0.5761	-0.4161	-0.2905	0.0136	0.0866	0.1206	0.0621	0.0158	0.0251	-0.1097	-0.2332	-0.4351	-0.2826	-0.2722	-0.2224	-0.2451	-0.2787	-0.2163	-0.0603	-0.073	0.0009	0.1106	0.0567	-0.0665	-0.0252	-0.5319	-0.6228
-160.1562	-0.5135	-0.6239	-0.5557	-0.474	-0.3789	-0.271	0.0075	0.1057	0.1179	0.0629	-0.002	0.0155	-0.1421	-0.2634	-0.3963	-0.2798	-0.2985	-0.202	-0.2257	-0.3039	-0.2578	-0.0422	-0.0342	-0.0037	0.1129	0.057	-0.0622	-0.0294	-0.4876	-0.6057
-156.25	-0.5017	-0.5263	-0.5296	-0.3608	-0.3357	-0.2527	0.0053	0.1233	0.1152	0.0644	-0.0153	0.0089	-0.1611	-0.277	-0.345	-0.2587	-0.2874	-0.1627	-0.1743	-0.3097	-0.2801	-0.0034	0.0148	0.0048	0.1163	0.0645	-0.0465	-0.0257	-0.4207	-0.5685
-152.3438	-0.4707	-0.4184	-0.4781	-0.2482	-0.2912	-0.2331	0.0045	0.134	0.1102	0.0643	-0.0245	0.0028	-0.1694	-0.2787	-0.2848	-0.2233	-0.2501	-0.1155	-0.1101	-0.2997	-0.2877	0.0412	0.0594	0.0205	0.1203	0.0756	-0.0242	-0.0174	-0.3364	-0.511
-148.4375	-0.4206	-0.3129	-0.4053	-0.1491	-0.2512	-0.2112	0.0024	0.1333	0.1006	0.0604	-0.031	-0.0053	-0.1708	-0.2749	-0.2216	-0.1832	-0.2082	-0.076	-0.0597	-0.2826	-0.2883	0.0712	0.0816	0.0356	0.1236	0.0859	-0.0017	-0.0087	-0.2441	-0.4367
-144.5312	-0.3564	-0.2246	-0.3182	-0.0758	-0.2204	-0.1872	-0.0035	0.1191	0.0846	0.0507	-0.0366	-0.0168	-0.1696	-0.2725	-0.163	-0.1503	-0.1856	-0.0601	-0.0486	-0.2689	-0.2902	0.0667	0.0654	0.0421	0.125	0.0909	0.0143	-0.0038	-0.1549	-0.3517
-140.625	-0.2873	-0.166	-0.2255	-0.0366	-0.2012	-0.1618	-0.0148	0.0916	0.0619	0.0344	-0.0425	-0.0314	-0.1687	-0.2762	-0.1166	-0.1356	-0.2014	-0.0788	-0.0929	-0.2674	-0.2993	0.0153	0.0019	0.0339	0.1231	0.0874	0.0189	-0.0054	-0.0798	-0.2642
-136.7188	-0.2247	-0.1442	-0.1371	-0.0337	-0.1922	-0.1358	-0.0318	0.0536	0.0337	0.0122	-0.0489	-0.0473	-0.1695	-0.2874	-0.0886	-0.1452	-0.2628	-0.134	-0.1929	-0.2825	-0.3175	-0.0833	-0.1063	0.0088	0.1167	0.074	0.0104	-0.0142	-0.0268	-0.1821
-132.8125	-0.1783	-0.1584	-0.0634	-0.0623	-0.1895	-0.1093	-0.0532	0.0097	0.0028	-0.0141	-0.0548	-0.0614	-0.1711	-0.304	-0.0815	-0.1791	-0.3629	-0.2178	-0.3324	-0.313	-0.3421	-0.2162	-0.2439	-0.0307	0.105	0.0519	-0.0091	-0.0282	0.0002	-0.1123
-128.9062	-0.1538	-0.1994	-0.0129	-0.1113	-0.1878	-0.082	-0.0766	-0.0348	-0.0272	-0.0414	-0.0581	-0.0697	-0.171	-0.3207	-0.0938	-0.2309	-0.483	-0.3134	-0.483	-0.3528	-0.3678	-0.3598	-0.3858	-0.0782	0.0883	0.0252	-0.0337	-0.0432	0.002	-0.0587
-125	-0.1516	-0.2518	0.0089	-0.1654	-0.182	-0.0531	-0.099	-0.0747	-0.0527	-0.066	-0.0565	-0.0688	-0.1663	-0.3313	-0.1195	-0.29	-0.5981	-0.4	-0.6122	-0.3932	-0.388	-0.4865	-0.5035	-0.1245	0.0677	-0.0003	-0.0558	-0.0538	-0.0165	-0.0225
-121.0938	-0.167	-0.2976	0.0013	-0.2085	-0.1688	-0.0227	-0.1174	-0.1063	-0.0708	-0.0846	-0.0484	-0.057	-0.1546	-0.3304	-0.1496	-0.3445	-0.6843	-0.4582	-0.6926	-0.4255	-0.3977	-0.5723	-0.5728	-0.1606	0.0455	-0.0183	-0.0676	-0.0546	-0.048	-0.0016
-117.1875	-0.1922	-0.3207	-0.0305	-0.2277	-0.1475	0.008	-0.1298	-0.1274	-0.0806	-0.0948	-0.0332	-0.0344	-0.1355	-0.3155	-0.1744	-0.3841	-0.7258	-0.4756	-0.7089	-0.4434	-0.3945	-0.6026	-0.5794	-0.1798	0.0243	-0.0239	-0.0636	-0.0423	-0.0846	0.008
-113.2812	-0.2182	-0.3115	-0.0762	-0.2168	-0.1201	0.0367	-0.1354	-0.1376	-0.0827	-0.0964	-0.0126	-0.0037	-0.1112	-0.2877	-0.1866	-0.4026	-0.7172	-0.4492	-0.6608	-0.4444	-0.3793	-0.5754	-0.5229	-0.1795	0.0063	-0.0148	-0.0423	-0.0162	-0.1192	0.0116
-109.375	-0.2365	-0.2693	-0.1218	-0.1775	-0.0905	0.0606	-0.1347	-0.138	-0.0797	-0.091	0.0105	0.0303	-0.086	-0.2516	-0.1828	-0.3984	-0.6643	-0.386	-0.5616	-0.4296	-0.3559	-0.5006	-0.4154	-0.1619	-0.0071	0.0071	-0.0067	0.0203	-0.1459	0.0142
-105.4688	-0.2407	-0.2027	-0.1531	-0.1198	-0.0635	0.0773	-0.1292	-0.1303	-0.0749	-0.082	0.0319	0.0612	-0.066	-0.2145	-0.165	-0.3747	-0.5805	-0.3008	-0.4333	-0.4031	-0.3299	-0.3969	-0.2786	-0.1334	-0.0165	0.0362	0.0362	0.0606	-0.1602	0.0195
-101.5625	-0.2274	-0.127	-0.1584	-0.0592	-0.0435	0.086	-0.1214	-0.1162	-0.0713	-0.0736	0.0468	0.0823	-0.0575	-0.1845	-0.1395	-0.3379	-0.4824	-0.2119	-0.3005	-0.3707	-0.3068	-0.2862	-0.138	-0.1028	-0.0239	0.0642	0.0766	0.0958	-0.1592	0.0285
-97.6562	-0.1967	-0.0592	-0.1323	-0.0122	-0.0335	0.0872	-0.1137	-0.0972	-0.0715	-0.0702	0.0513	0.0874	-0.0652	-0.1683	-0.1145	-0.2957	-0.3857	-0.1366	-0.1847	-0.3387	-0.2916	-0.1891	-0.0172	-0.0792	-0.0323	0.0819	0.1043	0.1171	-0.1414	0.0395
-93.75	-0.1515	-0.0128	-0.0765	0.0081	-0.0343	0.0828	-0.1085	-0.0747	-0.0761	-0.0752	0.0426	0.0728	-0.091	-0.1697	-0.0978	-0.2555	-0.3021	-0.0874	-0.1006	-0.3118	-0.2863	-0.1203	0.0663	-0.0693	-0.0441	0.0817	0.1119	0.1175	-0.1067	0.049
-89.8438	-0.0964	0.0071	0.0013	-0.003	-0.0438	0.0758	-0.1073	-0.0501	-0.0843	-0.0897	0.02	0.0381	-0.1321	-0.1876	-0.0939	-0.222	-0.2374	-0.0694	-0.0547	-0.2922	-0.2902	-0.0866	0.1041	-0.0754	-0.0599	0.0602	0.0964	0.0948	-0.0565	0.0536
-85.9375	-0.036	0.0051	0.09	-0.0393	-0.0566	0.0693	-0.1098	-0.025	-0.0938	-0.1124	-0.0142	-0.0131	-0.1813	-0.2163	-0.1025	-0.1964	-0.1913	-0.0797	-0.0446	-0.2789	-0.2989	-0.086	0.0975	-0.0947	-0.0777	0.0192	0.0609	0.0519	0.006	0.0514
-82.0312	0.0256	-0.0056	0.1784	-0.0854	-0.0644	0.0673	-0.1141	-0.0015	-0.1011	-0.1391	-0.0556	-0.0735	-0.2283	-0.2459	-0.1187	-0.1758	-0.1583	-0.1083	-0.0608	-0.2671	-0.3053	-0.1087	0.0571	-0.1197	-0.0934	-0.0347	0.0135	-0.0036	0.076	0.044
-78.125	0.0853	-0.0087	0.2579	-0.1206	-0.0577	0.0733	-0.1173	0.0182	-0.1033	-0.1643	-0.098	-0.1337	-0.2616	-0.2653	-0.1336	-0.1544	-0.1298	-0.1406	-0.0886	-0.2498	-0.3012	-0.1392	-0.0002	-0.1408	-0.1019	-0.0913	-0.0346	-0.0608	0.1477	0.0362
-74.2188	0.1411	0.0103	0.3239	-0.1256	-0.0287	0.0905	-0.1163	0.0318	-0.0983	-0.1826	-0.1349	-0.184	-0.2722	-0.2646	-0.1373	-0.1253	-0.0963	-0.1615	-0.1117	-0.2195	-0.2792	-0.1608	-0.0548	-0.1491	-0.0992	-0.14	-0.0726	-0.1087	0.2149	0.0351
-70.3125	0.1913	0.0586	0.3755	-0.0889	0.0265	0.12	-0.1092	0.037	-0.0862	-0.1901	-0.161	-0.2165	-0.2554	-0.2376	-0.121	-0.083	-0.0508	-0.1587	-0.1163	-0.1703	-0.235	-0.1597	-0.0895	-0.1391	-0.0838	-0.1724	-0.0926	-0.1384	0.2722	0.048
-66.4062	0.2348	0.1347	0.4145	-0.0102	0.1054	0.1608	-0.0959	0.0319	-0.0691	-0.1854	-0.1728	-0.2268	-0.2122	-0.1837	-0.0795	-0.0247	0.0105	-0.126	-0.0937	-0.0995	-0.1681	-0.1284	-0.0935	-0.1104	-0.058	-0.1839	-0.0914	-0.1455	0.3163	0.08
-62.5	0.2713	0.2286	0.4437	0.1001	0.2	0.2091	-0.0779	0.016	-0.0505	-0.1697	-0.1695	-0.2145	-0.1484	-0.1069	-0.0122	0.0486	0.0873	-0.0638	-0.0418	-0.0083	-0.0819	-0.0676	-0.0645	-0.0673	-0.0269	-0.1746	-0.0707	-0.13	0.3463	0.1327
-58.5938	0.3013	0.326	0.466	0.224	0.2985	0.2595	-0.0577	-0.0093	-0.0341	-0.1457	-0.1523	-0.1825	-0.0726	-0.0149	0.0768	0.1325	0.1763	0.0216	0.0357	0.0983	0.0171	0.0149	-0.0083	-0.0175	0.0025	-0.1483	-0.0359	-0.0962	0.364	0.2032
-54.6875	0.3268	0.412	0.4835	0.3421	0.3884	0.3055	-0.0373	-0.0405	-0.0225	-0.1163	-0.1236	-0.1365	0.0059	0.0837	0.1807	0.2211	0.273	0.1206	0.1311	0.2132	0.1214	0.1071	0.0641	0.0305	0.0237	-0.112	0.0057	-0.0514	0.3722	0.2851
-50.7812	0.3506	0.476	0.4968	0.4387	0.4603	0.3413	-0.0173	-0.0724	-0.0167	-0.0836	-0.0867	-0.0834	0.0795	0.1808	0.2914	0.3081	0.3725	0.2231	0.2355	0.3286	0.2238	0.1961	0.1404	0.0694	0.0318	-0.0734	0.0468	-0.0036	0.374	0.3698
-46.875	0.3761	0.514	0.5058	0.5051	0.5093	0.3634	0.0031	-0.0995	-0.016	-0.0489	-0.045	-0.0301	0.1429	0.2706	0.4013	0.3885	0.4707	0.3207	0.3405	0.4371	0.3186	0.2718	0.2102	0.0949	0.0239	-0.0399	0.081	0.039	0.3719	0.4492
-42.9688	0.407	0.529	0.5097	0.5408	0.5358	0.3709	0.0254	-0.117	-0.0186	-0.0128	-0.0023	0.0169	0.1938	0.3497	0.5045	0.4594	0.5638	0.4075	0.4396	0.5335	0.4024	0.329	0.2674	0.1057	-0.0002	-0.0171	0.1037	0.0697	0.368	0.5168
-39.0625	0.4466	0.5306	0.5084	0.5527	0.5448	0.3659	0.0511	-0.1225	-0.0229	0.0239	0.0376	0.0531	0.2316	0.4168	0.5971	0.5207	0.6489	0.4809	0.5293	0.615	0.4742	0.3681	0.3099	0.1032	-0.0378	-0.0083	0.1121	0.0842	0.3644	0.5698
-35.1562	0.4976	0.5326	0.5026	0.5535	0.544	0.3536	0.0801	-0.1169	-0.028	0.0597	0.071	0.0757	0.2569	0.4719	0.6771	0.5747	0.725	0.5411	0.6095	0.682	0.5351	0.3943	0.3398	0.0907	-0.0837	-0.014	0.1056	0.0809	0.3636	0.6088
-31.25	0.5623	0.5508	0.495	0.5593	0.5426	0.3411	0.1107	-0.1039	-0.034	0.0919	0.0948	0.084	0.2712	0.5164	0.7442	0.6261	0.7933	0.5909	0.6835	0.7381	0.5883	0.4167	0.3631	0.0726	-0.1297	-0.0324	0.0854	0.0615	0.3693	0.6371
-27.3438	0.6414	0.6002	0.4901	0.5871	0.5493	0.3368	0.1394	-0.0889	-0.0417	0.117	0.1071	0.0797	0.2759	0.5522	0.8002	0.6808	0.8584	0.6362	0.7577	0.7892	0.6379	0.4462	0.3885	0.0541	-0.166	-0.0591	0.0549	0.0309	0.3849	0.6596
-23.4375	0.7332	0.6906	0.4938	0.6503	0.5703	0.348	0.1618	-0.0773	-0.0523	0.1317	0.1074	0.0658	0.2728	0.5809	0.8484	0.7447	0.9266	0.6837	0.8395	0.8423	0.6883	0.4924	0.426	0.0399	-0.1829	-0.0888	0.0188	-0.0036	0.413	0.6813
-19.5312	0.8324	0.8235	0.511	0.754	0.6077	0.3788	0.1735	-0.0732	-0.0666	0.133	0.0967	0.0462	0.2625	0.6035	0.8929	0.8212	1.0026	0.7388	0.9329	0.9026	0.742	0.5598	0.4826	0.0335	-0.1739	-0.1161	-0.0175	-0.034	0.4543	0.7065
-15.625	0.9298	0.9886	0.5438	0.8902	0.6573	0.4277	0.1711	-0.0784	-0.0845	0.1197	0.0773	0.0245	0.2451	0.6197	0.9365	0.9095	1.0855	0.8017	1.0343	0.9718	0.7982	0.6449	0.558	0.0359	-0.138	-0.1367	-0.0494	-0.0534	0.5071	0.7375
-11.7188	1.0129	1.1621	0.5891	1.0351	0.7076	0.4862	0.1522	-0.0922	-0.1051	0.092	0.0527	0.0035	0.2192	0.6267	0.9778	1.0027	1.1659	0.8642	1.1294	1.0455	0.8519	0.7336	0.6402	0.0444	-0.0817	-0.149	-0.0748	-0.0579	0.567	0.7739
-7.8125	1.0681	1.3084	0.6381	1.1503	0.7407	0.5388	0.1162	-0.1122	-0.1272	0.0518	0.0258	-0.016	0.1823	0.6199	1.0103	1.0886	1.2256	0.9097	1.1933	1.1136	0.8941	0.8025	0.7048	0.0525	-0.018	-0.1547	-0.0944	-0.0482	0.628	0.812
-3.9062	1.0827	1.3851	0.6768	1.1895	0.7351	0.5643	0.0634	-0.136	-0.15	0.002	-0.0011	-0.0355	0.1313	0.5935	1.0224	1.1503	1.2407	0.9149	1.1945	1.1617	0.9133	0.8224	0.7186	0.0507	0.0355	-0.1585	-0.1127	-0.0298	0.6824	0.8452
0	1.0481	1.3525	0.6885	1.1096	0.67	0.5404	-0.0053	-0.1621	-0.174	-0.0547	-0.0283	-0.0588	0.0632	0.542	1.0015	1.1704	1.1872	0.8558	1.103	1.1742	0.8984	0.7655	0.6465	0.0279	0.0604	-0.1675	-0.1367	-0.0127	0.722	0.8643
3.9062	0.9621	1.1836	0.6578	0.8837	0.5315	0.4487	-0.089	-0.1917	-0.2017	-0.1163	-0.0584	-0.0918	-0.024	0.4615	0.9377	1.1342	1.0473	0.715	0.8993	1.1381	0.8414	0.6126	0.4615	-0.0258	0.0419	-0.1897	-0.1751	-0.0094	0.7389	0.8592
7.8125	0.8308	0.874	0.575	0.513	0.3181	0.2807	-0.1859	-0.2277	-0.2376	-0.1826	-0.0971	-0.1407	-0.1308	0.352	0.8291	1.0349	0.8176	0.4889	0.5842	1.048	0.7407	0.3613	0.1549	-0.1168	-0.0273	-0.2315	-0.2358	-0.0324	0.7263	0.8196
11.7188	0.67	0.449	0.4402	0.0341	0.0454	0.0432	-0.2934	-0.2748	-0.287	-0.2544	-0.1507	-0.2112	-0.2546	0.2187	0.6845	0.8772	0.5138	0.193	0.1853	0.9091	0.6034	0.0316	-0.2551	-0.2451	-0.1445	-0.2959	-0.3236	-0.091	0.6797	0.7377
15.625	0.5043	-0.0352	0.2664	-0.4818	-0.2525	-0.2385	-0.4063	-0.3359	-0.3538	-0.3321	-0.2242	-0.3051	-0.3886	0.0738	0.5243	0.6806	0.1743	-0.1353	-0.2402	0.7402	0.4463	-0.3324	-0.72	-0.4019	-0.2954	-0.3807	-0.4373	-0.1883	0.5981	0.6103
19.5312	0.3652	-0.496	0.0793	-0.937	-0.5263	-0.522	-0.5152	-0.4103	-0.4377	-0.4135	-0.3177	-0.4188	-0.5212	-0.0636	0.3777	0.4791	-0.1422	-0.4404	-0.6113	0.5728	0.2961	-0.6661	-1.1647	-0.5688	-0.4547	-0.4775	-0.568	-0.3189	0.4859	0.4412
23.4375	0.2852	-0.8372	-0.0855	-1.2262	-0.7189	-0.7543	-0.6066	-0.4913	-0.5321	-0.4918	-0.424	-0.5418	-0.6353	-0.169	0.278	0.3177	-0.3653	-0.6566	-0.8371	0.4471	0.1854	-0.8953	-1.4987	-0.7195	-0.5895	-0.5724	-0.6987	-0.468	0.3527	0.2425
27.3438	0.2904	-0.9701	-0.1894	-1.2614	-0.7786	-0.8829	-0.6645	-0.5659	-0.6237	-0.5557	-0.5283	-0.6565	-0.7116	-0.2167	0.2536	0.2433	-0.4287	-0.724	-0.8394	0.4038	0.1465	-0.9536	-1.637	-0.8238	-0.6654	-0.6477	-0.8065	-0.613	0.2132	0.0354
31.25	0.3918	-0.8385	-0.1998	-0.9994	-0.6745	-0.871	-0.6743	-0.6179	-0.6946	-0.5911	-0.6104	-0.7417	-0.732	-0.1873	0.3209	0.2921	-0.2893	-0.6053	-0.5784	0.4724	0.2022	-0.8032	-1.5242	-0.8549	-0.6538	-0.686	-0.8672	-0.7276	0.0864	-0.1522
35.1562	0.5807	-0.439	-0.0994	-0.462	-0.4087	-0.7095	-0.6276	-0.632	-0.7269	-0.5857	-0.6496	-0.7767	-0.6854	-0.0735	0.4774	0.4793	0.0562	-0.3006	-0.0722	0.6612	0.358	-0.4501	-1.1544	-0.7971	-0.5404	-0.6742	-0.8619	-0.7869	-0.0068	-0.288
39.0625	0.8297	0.1717	0.1082	0.2622	-0.0203	-0.4231	-0.5259	-0.5986	-0.7074	-0.5324	-0.6299	-0.7462	-0.571	0.1155	0.7019	0.7922	0.5676	0.1495	0.601	0.9526	0.598	0.0522	-0.5776	-0.6503	-0.3296	-0.6069	-0.7812	-0.7734	-0.0448	-0.3404
42.9688	1.1004	0.8893	0.3986	1.037	0.4226	-0.0647	-0.3807	-0.5174	-0.6316	-0.4319	-0.5444	-0.6442	-0.3992	0.3563	0.9612	1.1942	1.1708	0.6739	1.3224	1.3071	0.8885	0.6162	0.1116	-0.4302	-0.0449	-0.4878	-0.6283	-0.6802	-0.0084	-0.2838
46.875	1.3559	1.5884	0.732	1.715	0.8409	0.2988	-0.2108	-0.3976	-0.5046	-0.2929	-0.397	-0.4755	-0.1882	0.6176	1.2216	1.6338	1.7791	1.1913	1.9663	1.6735	1.1867	1.1451	0.8006	-0.1631	0.2759	-0.328	-0.4171	-0.5125	0.1155	-0.105
50.7812	1.5724	2.1557	1.0627	2.1776	1.1653	0.6044	-0.0375	-0.2563	-0.3407	-0.13	-0.2023	-0.2554	0.0403	0.8677	1.4591	2.0579	2.3161	1.6324	2.4354	2.0015	1.4519	1.5596	1.3874	0.1206	0.5888	-0.1441	-0.169	-0.2862	0.3298	0.1926
54.6875	1.7441	2.5158	1.3483	2.3641	1.3521	0.8078	0.1199	-0.1148	-0.1603	0.0389	0.0177	-0.0072	0.2645	1.0805	1.6644	2.4212	2.7311	1.9548	2.6833	2.2517	1.6529	1.8146	1.8038	0.3922	0.8527	0.0449	0.0909	-0.0257	0.6232	0.5856
58.5938	1.881	2.6436	1.5562	2.2804	1.39	0.891	0.2456	0.0055	0.0131	0.1945	0.236	0.2408	0.4644	1.2378	1.8412	2.6915	3.0037	2.1464	2.7173	2.3995	1.7713	1.9041	2.0231	0.6273	1.0353	0.2202	0.3365	0.24	0.9686	1.0322
62.5	1.9991	2.5614	1.6674	1.9879	1.296	0.8608	0.3287	0.087	0.1564	0.3182	0.4252	0.4587	0.6215	1.3278	1.9979	2.8498	3.1385	2.2195	2.5855	2.4348	1.7999	1.852	2.0564	0.8064	1.1181	0.3643	0.5431	0.4803	1.3253	1.4771
66.4062	2.1094	2.3245	1.6761	1.5784	1.1049	0.7415	0.3613	0.1186	0.2507	0.3938	0.5607	0.6196	0.7189	1.3429	2.139	2.8885	3.1552	2.199	2.3544	2.3582	1.7391	1.6978	1.9393	0.9142	1.0969	0.4627	0.6892	0.6671	1.6444	1.8607
70.3125	2.2093	2.0022	1.5885	1.1448	0.8565	0.5648	0.3386	0.0967	0.2838	0.409	0.625	0.7036	0.7415	1.278	2.259	2.8086	3.0779	2.1109	2.087	2.1778	1.5934	1.4821	1.7174	0.9399	0.9815	0.5051	0.7585	0.7789	1.8772	2.1298
74.2188	2.2811	1.6596	1.4199	0.7588	0.5851	0.3614	0.2589	0.0257	0.2523	0.3577	0.6102	0.7006	0.6792	1.1307	2.3412	2.6184	2.9287	1.9747	1.8273	1.9065	1.3696	1.2359	1.4337	0.8786	0.7931	0.4872	0.743	0.804	1.9853	2.2476
78.125	2.2972	1.3454	1.192	0.4577	0.3139	0.1543	0.1244	-0.0833	0.1624	0.2417	0.5197	0.6129	0.5292	0.9034	2.3626	2.3338	2.7252	1.8017	1.5953	1.5623	1.0778	0.9773	1.1225	0.7329	0.5602	0.4119	0.6442	0.7429	1.9483	2.2018
82.0312	2.2305	1.0871	0.9303	0.2455	0.0547	-0.0424	-0.0573	-0.215	0.0286	0.0711	0.3682	0.4552	0.2995	0.6062	2.3024	1.979	2.4823	1.5978	1.3902	1.1683	0.7328	0.7139	0.8083	0.5153	0.3144	0.2898	0.4748	0.6083	1.77	2.0075
85.9375	2.0652	0.8927	0.6624	0.1018	-0.1884	-0.2224	-0.2727	-0.3528	-0.1289	-0.1363	0.1787	0.2518	0.0096	0.2586	2.1515	1.587	2.216	1.3689	1.2016	0.7541	0.356	0.4491	0.509	0.2477	0.0852	0.1377	0.2571	0.4233	1.4778	1.7043
89.8438	1.8058	0.7574	0.4152	-0.0026	-0.4133	-0.3836	-0.5032	-0.4819	-0.2878	-0.3575	-0.0215	0.0329	-0.3106	-0.1105	1.9192	1.1977	1.9458	1.1263	1.0191	0.3547	-0.0239	0.1884	0.2398	-0.0402	-0.1042	-0.0234	0.0201	0.217	1.1183	1.3487
93.75	1.4788	0.6709	0.2118	-0.0924	-0.6156	-0.5244	-0.7272	-0.592	-0.4283	-0.5682	-0.2058	-0.1711	-0.6246	-0.4652	1.6342	0.8544	1.6947	0.8884	0.8405	0.0079	-0.3728	-0.0572	0.0152	-0.3153	-0.2397	-0.1723	-0.2052	0.0194	0.7476	1.0018
97.6562	1.1288	0.6237	0.0687	-0.1786	-0.7863	-0.642	-0.9231	-0.6785	-0.5362	-0.7466	-0.3533	-0.3349	-0.8954	-0.7677	1.3397	0.597	1.4859	0.6784	0.673	-0.2503	-0.6554	-0.2711	-0.1517	-0.5459	-0.3177	-0.2912	-0.3912	-0.1436	0.4203	0.7179
101.5625	0.8089	0.6106	-0.0072	-0.2564	-0.9124	-0.7323	-1.0725	-0.7429	-0.605	-0.8767	-0.4516	-0.442	-1.0904	-0.9837	1.0837	0.4561	1.3379	0.5191	0.5298	-0.3913	-0.8399	-0.435	-0.2528	-0.7071	-0.3443	-0.368	-0.5173	-0.2544	0.1788	0.5343
105.4688	0.5688	0.6306	-0.0188	-0.3093	-0.9801	-0.7913	-1.1624	-0.7907	-0.6355	-0.9499	-0.4978	-0.4864	-1.1865	-1.0879	0.9087	0.4471	1.2602	0.4272	0.4245	-0.3986	-0.9032	-0.5338	-0.289	-0.7843	-0.3325	-0.398	-0.5732	-0.3048	0.047	0.4662
109.375	0.4446	0.6861	0.0227	-0.3167	-0.978	-0.8177	-1.1869	-0.8287	-0.6337	-0.9651	-0.4971	-0.4721	-1.1719	-1.067	0.8424	0.5687	1.2518	0.4091	0.366	-0.2702	-0.8345	-0.5599	-0.2719	-0.7749	-0.2993	-0.3837	-0.5588	-0.2967	0.0274	0.5071
113.2812	0.4511	0.7795	0.1005	-0.2619	-0.9007	-0.8135	-1.1465	-0.8625	-0.6083	-0.9271	-0.4595	-0.4104	-1.0474	-0.9211	0.8934	0.804	1.3025	0.4598	0.3565	-0.0183	-0.6362	-0.5151	-0.2229	-0.6873	-0.2617	-0.3334	-0.483	-0.2396	0.1036	0.6331
117.1875	0.5809	0.9113	0.1968	-0.139	-0.7506	-0.7854	-1.0478	-0.8953	-0.568	-0.8447	-0.397	-0.3169	-0.8247	-0.6628	1.0516	1.1256	1.3972	0.5649	0.392	0.3341	-0.3235	-0.4094	-0.1687	-0.5385	-0.2337	-0.259	-0.3612	-0.1475	0.2466	0.8097
121.0938	0.8085	1.0789	0.2963	0.0452	-0.5379	-0.7421	-0.9015	-0.9269	-0.5195	-0.7287	-0.3206	-0.2072	-0.524	-0.3139	1.2923	1.5014	1.5211	0.7057	0.4665	0.7579	0.0792	-0.2574	-0.1347	-0.3499	-0.2238	-0.173	-0.2118	-0.0362	0.4223	1.0001
125	1.0975	1.2768	0.3882	0.2734	-0.2789	-0.693	-0.7209	-0.9547	-0.4666	-0.5895	-0.2384	-0.0946	-0.1711	0.0982	1.5833	1.9014	1.6642	0.864	0.5752	1.2235	0.5426	-0.0742	-0.1382	-0.1436	-0.2335	-0.0868	-0.053	0.0805	0.5986	1.1723
128.9062	1.4099	1.4981	0.4681	0.5232	0.0074	-0.6444	-0.5197	-0.9743	-0.4104	-0.4364	-0.1549	0.0121	0.2066	0.5442	1.8911	2.302	1.8234	1.0261	0.7176	1.7049	1.0362	0.128	-0.1844	0.0616	-0.259	-0.0087	0.0999	0.1919	0.7516	1.3036
132.8125	1.713	1.7353	0.5365	0.774	0.3029	-0.5983	-0.3102	-0.9801	-0.3493	-0.2764	-0.0707	0.1092	0.5825	0.996	2.1862	2.6874	2.0009	1.1849	0.8965	2.1817	1.5319	0.3415	-0.2647	0.2521	-0.2922	0.0565	0.2362	0.2919	0.8679	1.3825
136.7188	1.9838	1.9799	0.5986	1.0119	0.5933	-0.552	-0.102	-0.966	-0.2803	-0.114	0.016	0.197	0.9334	1.4288	2.4456	3.0484	2.2005	1.338	1.1153	2.6392	2.0056	0.5624	-0.3603	0.4203	-0.325	0.1067	0.3499	0.3782	0.9442	1.4082
140.625	2.2093	2.2218	0.6614	1.2307	0.8684	-0.4987	0.098	-0.9262	-0.1997	0.0476	0.1078	0.2783	1.2406	1.8219	2.6537	3.3795	2.4227	1.4854	1.373	3.0657	2.438	0.7875	-0.4468	0.5629	-0.3509	0.1419	0.439	0.4507	0.9849	1.388
144.5312	2.3853	2.4492	0.7315	1.4306	1.1223	-0.431	0.2857	-0.8563	-0.1049	0.2059	0.2069	0.3557	1.4907	2.1587	2.8019	3.6751	2.6603	1.6261	1.6611	3.451	2.8137	1.0127	-0.5015	0.6798	-0.3678	0.1623	0.5037	0.5097	0.9989	1.3343
148.4375	2.5134	2.6494	0.8132	1.6143	1.351	-0.3421	0.4578	-0.7549	0.0043	0.3577	0.3132	0.4303	1.6751	2.427	2.8876	3.9283	2.8985	1.7569	1.9624	3.7846	3.1217	1.2309	-0.5076	0.7714	-0.3772	0.1681	0.5451	0.5549	0.9961	1.2611
152.3438	2.5982	2.8119	0.9067	1.7842	1.5523	-0.2283	0.6122	-0.6244	0.1251	0.4987	0.4234	0.5005	1.7906	2.6195	2.9133	4.1304	3.118	1.8724	2.2541	4.0561	3.3552	1.4333	-0.4565	0.838	-0.3833	0.1591	0.5644	0.5847	0.9852	1.1815
156.25	2.6452	2.9311	1.0083	1.941	1.7255	-0.0883	0.7467	-0.4712	0.2513	0.6236	0.5317	0.5626	1.8391	2.7345	2.8856	4.2737	3.3002	1.9679	2.5139	4.2575	3.5125	1.6124	-0.3467	0.8799	-0.3898	0.1353	0.5626	0.5963	0.9723	1.1054
160.1562	2.6597	3.0088	1.1109	2.084	1.8725	0.0773	0.8599	-0.3051	0.375	0.7269	0.6301	0.6112	1.828	2.7771	2.8139	4.3538	3.4337	2.0414	2.7257	4.3856	3.5987	1.7642	-0.1816	0.898	-0.398	0.0977	0.5409	0.5873	0.9604	1.0383
164.0625	2.6457	3.0548	1.2066	2.214	1.9985	0.268	0.9513	-0.1377	0.487	0.804	0.7105	0.6414	1.7687	2.7587	2.7086	4.3719	3.5167	2.0952	2.8835	4.444	3.6246	1.8898	0.0327	0.8945	-0.4053	0.0488	0.5011	0.5566	0.9489	0.9807
167.9688	2.6054	3.0848	1.289	2.3341	2.1113	0.4837	1.0214	0.0196	0.5789	0.8519	0.7656	0.6489	1.6757	2.6954	2.5797	4.3353	3.557	2.1349	2.9919	4.4428	3.606	1.9946	0.288	0.8732	-0.406	-0.0077	0.4459	0.505	0.9343	0.9293
171.875	2.539	3.1153	1.3546	2.4498	2.2194	0.7243	1.0717	0.1567	0.6442	0.8695	0.7898	0.6317	1.564	2.6051	2.4358	4.2553	3.5685	2.1675	3.0632	4.3968	3.5599	2.0857	0.5733	0.8385	-0.3923	-0.0674	0.3783	0.4354	0.911	0.8783
175.7812	2.4456	3.1584	1.4035	2.5656	2.329	0.9872	1.1036	0.2664	0.6784	0.8577	0.7805	0.5897	1.4466	2.504	2.2825	4.1446	3.5653	2.1982	3.1124	4.3208	3.5014	2.1692	0.875	0.795	-0.3577	-0.1257	0.302	0.3523	0.8728	0.8214
179.6875	2.3236	3.2158	1.4385	2.6807	2.4405	1.2658	1.118	0.3448	0.6803	0.8187	0.7374	0.5245	1.3327	2.4036	2.1231	4.0135	3.5573	2.2285	3.1519	4.2265	3.4394	2.2479	1.1766	0.7465	-0.2982	-0.1794	0.2204	0.2608	0.815	0.7539
183.5938	2.1733	3.2763	1.4638	2.7858	2.5468	1.5479	1.1149	0.3917	0.6509	0.7557	0.6632	0.4394	1.227	2.3085	1.9584	3.8677	3.5476	2.2549	3.1883	4.1188	3.3759	2.32	1.4611	0.6956	-0.214	-0.2262	0.1366	0.1657	0.7365	0.6737
187.5	1.9984	3.3186	1.483	2.8637	2.6346	1.817	1.0935	0.4099	0.5936	0.6724	0.5624	0.3382	1.1296	2.2177	1.7885	3.7078	3.5321	2.2708	3.2207	3.9961	3.3058	2.3803	1.7128	0.644	-0.1089	-0.2653	0.0537	0.071	0.6401	0.5825
191.4062	1.8073	3.3173	1.4987	2.8944	2.6877	2.0549	1.0527	0.4045	0.5135	0.5728	0.4413	0.2257	1.0382	2.1261	1.615	3.531	3.502	2.2686	3.243	3.8527	3.2199	2.4223	1.9211	0.5932	0.0111	-0.2962	-0.025	-0.0202	0.5336	0.4856
195.3125	1.613	3.2519	1.5121	2.8614	2.6927	2.2456	0.9931	0.3822	0.4172	0.4619	0.3079	0.1075	0.9496	2.0279	1.4428	3.335	3.4486	2.2432	3.2477	3.6827	3.1096	2.4407	2.0815	0.5452	0.1396	-0.3184	-0.0958	-0.1052	0.4275	0.3911
199.2188	1.4312	3.1134	1.5225	2.7584	2.6428	2.378	0.9171	0.3498	0.3121	0.3455	0.1705	-0.0101	0.8618	1.9196	1.2805	3.12	3.3663	2.1945	3.2292	3.4837	2.97	2.4336	2.1958	0.5026	0.2705	-0.3309	-0.155	-0.1811	0.3336	0.3085
203.125	1.276	2.9069	1.5281	2.5917	2.5396	2.4472	0.8292	0.3132	0.2058	0.2298	0.0379	-0.1206	0.7749	1.801	1.139	2.8904	3.255	2.1268	3.1853	3.2585	2.8019	2.4018	2.2699	0.4678	0.3985	-0.3327	-0.1992	-0.2453	0.2617	0.2461
207.0312	1.1555	2.6497	1.5255	2.378	2.3928	2.4538	0.7358	0.277	0.1055	0.1213	-0.0817	-0.2179	0.6902	1.6748	1.0284	2.6534	3.1184	2.0468	3.1159	3.0149	2.611	2.3473	2.3088	0.4418	0.5185	-0.3235	-0.227	-0.2953	0.2174	0.2087
210.9375	1.069	2.3653	1.5099	2.1399	2.2163	2.4029	0.643	0.2435	0.0178	0.0257	-0.1819	-0.2969	0.6099	1.5452	0.9544	2.4167	2.9617	1.9597	3.0195	2.7624	2.4058	2.2696	2.3135	0.4231	0.6244	-0.3044	-0.2397	-0.33	0.2001	0.1967
214.8438	1.0069	2.077	1.4761	1.8992	2.0251	2.3018	0.5563	0.2137	-0.0526	-0.0531	-0.2582	-0.3549	0.5356	1.4159	0.9156	2.1858	2.7879	1.8668	2.8914	2.5103	2.1949	2.1654	2.2794	0.4076	0.7091	-0.2789	-0.2413	-0.3499	0.2037	0.206
218.75	0.9535	1.8026	1.4186	1.6722	1.8312	2.1586	0.4787	0.1874	-0.1025	-0.1129	-0.3083	-0.3913	0.468	1.2893	0.9028	1.9633	2.5965	1.7642	2.7236	2.2647	1.985	2.0283	2.1985	0.3895	0.7651	-0.2519	-0.2375	-0.3573	0.2185	0.2297
222.6562	0.8924	1.551	1.3329	1.4669	1.642	1.9807	0.4113	0.1642	-0.1311	-0.1538	-0.3328	-0.4081	0.407	1.1659	0.9007	1.7484	2.3847	1.6448	2.5078	2.0288	1.7801	1.8526	2.0625	0.3629	0.7856	-0.2292	-0.2348	-0.3556	0.2341	0.2598
226.5625	0.8123	1.3238	1.2168	1.2829	1.4602	1.7746	0.3533	0.1434	-0.1394	-0.1776	-0.3341	-0.4085	0.3519	1.0456	0.892	1.5394	2.15	1.5017	2.2405	1.803	1.5825	1.6363	1.8677	0.3238	0.7669	-0.2155	-0.2381	-0.3483	0.2423	0.2886
230.4688	0.7098	1.1174	1.0714	1.1142	1.2852	1.546	0.303	0.1248	-0.1301	-0.1871	-0.3161	-0.3963	0.3031	0.9289	0.862	1.3357	1.8945	1.3322	1.9271	1.5879	1.3937	1.3852	1.6188	0.272	0.7093	-0.213	-0.2492	-0.3379	0.2386	0.3102
234.375	0.5903	0.9276	0.9017	0.9528	1.1155	1.3009	0.2594	0.1083	-0.1066	-0.1847	-0.2834	-0.3739	0.2627	0.8188	0.8029	1.1402	1.6277	1.1407	1.5848	1.3857	1.217	1.1136	1.3303	0.2119	0.6192	-0.2202	-0.2656	-0.3244	0.2228	0.3206
238.2812	0.4657	0.7537	0.7164	0.7928	0.9516	1.0469	0.2233	0.0942	-0.0722	-0.1715	-0.2396	-0.3417	0.2355	0.7216	0.7158	0.9601	1.3669	0.9401	1.2414	1.2015	1.0579	0.8437	1.0258	0.1522	0.5084	-0.2315	-0.2804	-0.3053	0.1981	0.3177
242.1875	0.3493	0.5999	0.5251	0.6336	0.7972	0.7938	0.1978	0.0829	-0.0293	-0.1465	-0.1869	-0.2975	0.2283	0.6463	0.6096	0.8059	1.1343	0.75	0.9311	1.0433	0.9245	0.6019	0.7345	0.1049	0.3927	-0.2377	-0.2833	-0.2754	0.1689	0.3005
246.0938	0.2516	0.4745	0.3368	0.4806	0.6596	0.5533	0.1877	0.0747	0.0206	-0.1071	-0.1261	-0.237	0.2493	0.6033	0.4982	0.6881	0.9515	0.5917	0.6864	0.9197	0.8259	0.4133	0.4853	0.082	0.2886	-0.229	-0.2628	-0.228	0.1384	0.2682
250	0.1775	0.3861	0.1567	0.3431	0.5474	0.3375	0.1981	0.0701	0.0773	-0.0495	-0.0561	-0.155	0.3052	0.6017	0.3955	0.6137	0.8325	0.4827	0.5301	0.8368	0.7697	0.2957	0.3006	0.0936	0.2093	-0.1964	-0.2092	-0.157	0.1076	0.2191
253.9062	0.1255	0.338	-0.0137	0.2301	0.4673	0.1571	0.2333	0.0697	0.1411	0.0299	0.0246	-0.0476	0.3999	0.6461	0.3108	0.5818	0.7783	0.4309	0.4683	0.7948	0.7585	0.2553	0.1907	0.1448	0.162	-0.1347	-0.117	-0.0582	0.0743	0.1511
257.8125	0.0898	0.3245	-0.1755	0.1457	0.4215	0.0188	0.295	0.0745	0.2127	0.1333	0.1178	0.087	0.5319	0.7351	0.2467	0.5822	0.7749	0.4315	0.4881	0.7862	0.7884	0.2842	0.1511	0.2349	0.1464	-0.0435	0.0137	0.0693	0.0352	0.0625
261.7188	0.0626	0.3302	-0.3303	0.0869	0.4058	-0.0761	0.3817	0.0855	0.2925	0.2609	0.2242	0.247	0.695	0.8602	0.199	0.5959	0.7953	0.4676	0.5591	0.7959	0.8484	0.3625	0.1633	0.357	0.1555	0.073	0.1769	0.2221	-0.0125	-0.0462
265.625	0.0361	0.332	-0.478	0.0434	0.4097	-0.1326	0.4885	0.1036	0.3803	0.4099	0.3431	0.4265	0.8778	1.007	0.1586	0.5988	0.8055	0.5141	0.6414	0.8031	0.9219	0.4621	0.1991	0.4995	0.178	0.2064	0.3616	0.393	-0.0693	-0.1719
269.5312	0.0035	0.3049	-0.616	-0.0003	0.4187	-0.1618	0.6077	0.1295	0.4746	0.5745	0.4716	0.6162	1.066	1.1568	0.1144	0.5662	0.773	0.5439	0.6935	0.7855	0.989	0.5528	0.2276	0.6479	0.2012	0.3458	0.5535	0.5712	-0.1335	-0.3095
273.4375	-0.0406	0.2273	-0.74	-0.0613	0.4168	-0.1788	0.7295	0.1633	0.5727	0.7461	0.6047	0.8039	1.2442	1.2899	0.0557	0.4782	0.6742	0.5334	0.6818	0.7235	1.03	0.608	0.2219	0.7867	0.2141	0.4795	0.7371	0.7436	-0.2019	-0.4529
277.3438	-0.1004	0.087	-0.8456	-0.1534	0.3909	-0.1989	0.8439	0.2044	0.6702	0.9145	0.7352	0.9763	1.3978	1.3884	-0.0265	0.3234	0.5	0.468	0.5868	0.6035	1.0288	0.6093	0.1651	0.9019	0.2091	0.5965	0.8977	0.897	-0.271	-0.5967
281.25	-0.1781	-0.1147	-0.93	-0.2831	0.334	-0.2332	0.942	0.2515	0.762	1.0689	0.855	1.1215	1.516	1.4394	-0.1383	0.102	0.2575	0.3442	0.4061	0.4217	0.9759	0.5493	0.0533	0.9826	0.1841	0.688	1.0236	1.0198	-0.3373	-0.7367
285.1562	-0.2729	-0.3622	-0.993	-0.4469	0.2468	-0.285	1.018	0.3037	0.843	1.2002	0.9568	1.2304	1.5932	1.4375	-0.2821	-0.1746	-0.0324	0.1697	0.154	0.1847	0.87	0.4321	-0.1053	1.0228	0.1422	0.7484	1.1074	1.104	-0.3974	-0.8701
289.0625	-0.3804	-0.6278	-1.0367	-0.632	0.1376	-0.3483	1.0695	0.3598	0.9092	1.302	1.0347	1.2984	1.6294	1.385	-0.4551	-0.4856	-0.3397	-0.0388	-0.1422	-0.0917	0.7184	0.2712	-0.2931	1.0217	0.0901	0.7758	1.1468	1.1461	-0.4474	-0.9944
292.9688	-0.4927	-0.878	-1.0632	-0.8183	0.02	-0.4097	1.0974	0.4192	0.9582	1.3712	1.0854	1.3259	1.6296	1.2912	-0.6493	-0.8052	-0.6325	-0.2597	-0.448	-0.3855	0.5349	0.087	-0.4878	0.984	0.0365	0.7712	1.1442	1.1471	-0.4825	-1.1078
296.875	-0.6	-1.0819	-1.0738	-0.9842	-0.0911	-0.4528	1.1046	0.4805	0.9893	1.4075	1.108	1.3167	1.6019	1.1694	-0.852	-1.108	-0.8831	-0.4708	-0.729	-0.6732	0.3365	-0.0983	-0.6676	0.9176	-0.0106	0.7377	1.1054	1.1118	-0.4983	-1.2088
300.7812	-0.6931	-1.218	-1.0681	-1.111	-0.1832	-0.4625	1.0946	0.5413	1.0026	1.4127	1.1031	1.2771	1.555	1.034	-1.0472	-1.3736	-1.0734	-0.6535	-0.9575	-0.9348	0.1394	-0.2652	-0.8155	0.8326	-0.0459	0.6803	1.0387	1.047	-0.4916	-1.2971
304.6875	-0.7658	-1.279	-1.0449	-1.1875	-0.2492	-0.4304	1.0701	0.5976	0.9984	1.3894	1.0727	1.2139	1.4964	0.8967	-1.2195	-1.5901	-1.1968	-0.796	-1.1182	-1.157	-0.0442	-0.4009	-0.9216	0.7385	-0.0675	0.6042	0.9526	0.9602	-0.4623	-1.3732
308.5938	-0.8162	-1.2716	-1.0039	-1.2118	-0.2884	-0.3563	1.0321	0.6438	0.977	1.3405	1.0191	1.1336	1.4305	0.7649	-1.357	-1.755	-1.2588	-0.8946	-1.2096	-1.3351	-0.2083	-0.5012	-0.9836	0.6426	-0.0764	0.5155	0.8551	0.8593	-0.4136	-1.4378
312.5	-0.8466	-1.213	-0.948	-1.1906	-0.3059	-0.2496	0.9808	0.6737	0.9383	1.2691	0.9449	1.0415	1.3588	0.6409	-1.4549	-1.8737	-1.2736	-0.9529	-1.2436	-1.4723	-0.3528	-0.5701	-1.0048	0.5494	-0.076	0.4205	0.7533	0.7512	-0.3516	-1.4901
316.4062	-0.862	-1.1256	-0.8833	-1.1368	-0.3109	-0.1265	0.916	0.6816	0.8827	1.1788	0.8539	0.9425	1.2806	0.5236	-1.5152	-1.9565	-1.2601	-0.9797	-1.2404	-1.5766	-0.4815	-0.6175	-0.9913	0.461	-0.0704	0.3259	0.6526	0.6427	-0.2837	-1.5276
320.3125	-0.8675	-1.0314	-0.8189	-1.0668	-0.3135	-0.007	0.8382	0.6638	0.8119	1.0741	0.7507	0.841	1.1944	0.4098	-1.5456	-2.0147	-1.2367	-0.9854	-1.2229	-1.6578	-0.5998	-0.6549	-0.9501	0.3774	-0.063	0.2381	0.5576	0.5401	-0.2171	-1.5452
324.2188	-0.8671	-0.949	-0.7645	-0.9969	-0.3225	0.0895	0.7496	0.6197	0.729	0.9606	0.6412	0.7413	1.0993	0.2973	-1.5555	-2.0578	-1.2175	-0.98	-1.2105	-1.7239	-0.7114	-0.6927	-0.8882	0.2984	-0.0559	0.1629	0.4718	0.4488	-0.1572	-1.5363
328.125	-0.8629	-0.8916	-0.7277	-0.9411	-0.3434	0.1484	0.6539	0.552	0.6385	0.8445	0.5321	0.6476	0.9964	0.1861	-1.552	-2.0913	-1.21	-0.9698	-1.2155	-1.7795	-0.8166	-0.737	-0.8122	0.224	-0.0498	0.1041	0.3977	0.3734	-0.1073	-1.4949
332.0312	-0.8552	-0.8665	-0.7119	-0.9084	-0.3775	0.1625	0.5559	0.4658	0.5458	0.7324	0.4298	0.5634	0.8881	0.0788	-1.5374	-2.117	-1.2153	-0.9581	-1.241	-1.8249	-0.9126	-0.7887	-0.7295	0.155	-0.0442	0.0634	0.3365	0.3165	-0.068	-1.417
335.9375	-0.8433	-0.8744	-0.7151	-0.9016	-0.422	0.1329	0.4607	0.3684	0.4565	0.6298	0.34	0.4915	0.7785	-0.0196	-1.5097	-2.1332	-1.2293	-0.9447	-1.2823	-1.857	-0.9935	-0.8447	-0.6478	0.0929	-0.0381	0.04	0.2879	0.2785	-0.0387	-1.3028
339.8438	-0.8258	-0.9099	-0.7306	-0.9171	-0.4713	0.0686	0.3728	0.2673	0.3751	0.5411	0.2663	0.4328	0.6722	-0.1032	-1.4637	-2.1359	-1.2444	-0.9273	-1.329	-1.8712	-1.0529	-0.8985	-0.5747	0.039	-0.0304	0.0303	0.2502	0.2571	-0.0177	-1.1571
343.75	-0.8012	-0.9619	-0.749	-0.9456	-0.518	-0.0166	0.2954	0.1697	0.305	0.4685	0.2101	0.3872	0.5734	-0.167	-1.394	-2.1203	-1.2512	-0.9026	-1.3681	-1.8623	-1.0855	-0.9428	-0.516	-0.0057	-0.021	0.0294	0.2204	0.2483	-0.0028	-0.9886
347.6562	-0.7672	-1.0155	-0.7605	-0.9749	-0.5554	-0.1069	0.23	0.0817	0.2471	0.4121	0.1704	0.3532	0.4852	-0.208	-1.2977	-2.0816	-1.2407	-0.8674	-1.3873	-1.8271	-1.0889	-0.9713	-0.4742	-0.0412	-0.0107	0.0317	0.1948	0.2465	0.0082	-0.8088
351.5625	-0.7223	-1.0557	-0.7587	-0.994	-0.5792	-0.1889	0.176	0.0073	0.2009	0.3693	0.1443	0.3284	0.4092	-0.2269	-1.1762	-2.0167	-1.2055	-0.8198	-1.3772	-1.7651	-1.0645	-0.9799	-0.4484	-0.0689	-0.0013	0.0322	0.1698	0.2458	0.0167	-0.6307
355.4688	-0.6663	-1.0714	-0.7419	-0.9966	-0.5891	-0.2547	0.1308	-0.0517	0.1638	0.3354	0.1275	0.3102	0.3446	-0.2279	-1.036	-1.925	-1.1418	-0.76	-1.3337	-1.6792	-1.0181	-0.9685	-0.4357	-0.0909	0.0048	0.0272	0.1425	0.2416	0.0227	-0.4674
359.375	-0.6014	-1.0582	-0.715	-0.9834	-0.5892	-0.3033	0.0905	-0.0956	0.1323	0.3045	0.1155	0.2961	0.2888	-0.2184	-0.8887	-1.8095	-1.05	-0.6912	-1.2582	-1.5758	-0.9584	-0.9403	-0.433	-0.1102	0.0054	0.0151	0.1113	0.2304	0.0242	-0.3313
363.2812	-0.5332	-1.0187	-0.688	-0.9608	-0.5864	-0.3403	0.0506	-0.1272	0.103	0.2707	0.104	0.2842	0.238	-0.207	-0.7489	-1.6762	-0.9351	-0.6191	-1.1577	-1.4631	-0.8951	-0.9019	-0.4384	-0.1294	-0.0011	-0.0035	0.076	0.2114	0.0174	-0.2324
367.1875	-0.4698	-0.9607	-0.6735	-0.9382	-0.5874	-0.3748	0.0077	-0.1505	0.0727	0.2299	0.0905	0.2737	0.189	-0.2009	-0.6317	-1.5334	-0.8051	-0.5505	-1.043	-1.3486	-0.8358	-0.8602	-0.4511	-0.15	-0.0141	-0.0262	0.0385	0.1859	-0.0024	-0.1781
371.0938	-0.4205	-0.8938	-0.6824	-0.9233	-0.5961	-0.4163	-0.0392	-0.17	0.04	0.1805	0.0739	0.2649	0.1409	-0.2034	-0.5491	-1.3895	-0.6692	-0.4911	-0.9253	-1.2373	-0.7843	-0.8208	-0.4708	-0.1715	-0.0313	-0.0491	0.0022	0.1575	-0.0392	-0.1714
375	-0.3931	-0.8267	-0.7199	-0.9198	-0.6122	-0.4708	-0.0882	-0.1897	0.0048	0.1245	0.0548	0.2586	0.0957	-0.2132	-0.5068	-1.2515	-0.5364	-0.4438	-0.8142	-1.1308	-0.7389	-0.7861	-0.4957	-0.1913	-0.0487	-0.068	-0.028	0.1311	-0.0945	-0.2105
378.9062	-0.3911	-0.7655	-0.7834	-0.9266	-0.6315	-0.5397	-0.1353	-0.2124	-0.0313	0.0667	0.0349	0.2563	0.0585	-0.2243	-0.5022	-1.1242	-0.4136	-0.4084	-0.7153	-1.0269	-0.6937	-0.7546	-0.5223	-0.2053	-0.0617	-0.079	-0.047	0.1118	-0.1658	-0.2884
382.8125	-0.4121	-0.7138	-0.8624	-0.9394	-0.6477	-0.6195	-0.1751	-0.2391	-0.0654	0.0134	0.0167	0.2585	0.0355	-0.2281	-0.5252	-1.0099	-0.3058	-0.3812	-0.6304	-0.9221	-0.6411	-0.7217	-0.5449	-0.2086	-0.066	-0.0795	-0.0506	0.104	-0.2462	-0.3934
386.7188	-0.4483	-0.6727	-0.941	-0.9527	-0.6549	-0.7029	-0.2027	-0.2688	-0.0944	-0.029	0.0019	0.265	0.0323	-0.2161	-0.5601	-0.909	-0.2155	-0.3565	-0.558	-0.8132	-0.5739	-0.6811	-0.5559	-0.1969	-0.0582	-0.0687	-0.0359	0.1098	-0.3256	-0.5103
390.625	-0.4877	-0.6407	-1.0022	-0.9614	-0.6491	-0.7808	-0.2145	-0.2991	-0.1148	-0.0555	-0.0079	0.2748	0.0518	-0.1822	-0.5904	-0.8202	-0.1439	-0.3286	-0.495	-0.6989	-0.4885	-0.6275	-0.5472	-0.167	-0.0367	-0.0475	-0.0025	0.1292	-0.3928	-0.6228
394.5312	-0.5181	-0.6137	-1.0321	-0.9617	-0.6289	-0.8432	-0.2091	-0.3261	-0.1237	-0.0633	-0.012	0.286	0.0933	-0.1245	-0.6023	-0.7416	-0.0905	-0.2928	-0.4381	-0.5806	-0.3854	-0.5574	-0.5116	-0.118	-0.0018	-0.0181	0.0481	0.1598	-0.4379	-0.7157
398.4375	-0.5296	-0.5859	-1.0234	-0.9511	-0.5947	-0.881	-0.1874	-0.3457	-0.1194	-0.0522	-0.0102	0.2968	0.1524	-0.046	-0.588	-0.6705	-0.0536	-0.2465	-0.3854	-0.4624	-0.2699	-0.4708	-0.4452	-0.0517	0.045	0.0165	0.112	0.1974	-0.4549	-0.7774
402.3438	-0.5176	-0.5506	-0.9759	-0.9282	-0.5485	-0.8868	-0.1521	-0.3543	-0.1019	-0.0249	-0.0032	0.3057	0.2215	0.0456	-0.5471	-0.6046	-0.0308	-0.1905	-0.3363	-0.3496	-0.1506	-0.3714	-0.3488	0.0273	0.1004	0.0526	0.1836	0.2369	-0.4426	-0.802
406.25	-0.4836	-0.5021	-0.8964	-0.893	-0.4929	-0.8569	-0.108	-0.3502	-0.0735	0.0134	0.008	0.3113	0.2909	0.1392	-0.4856	-0.5416	-0.0194	-0.1287	-0.2927	-0.248	-0.0382	-0.2667	-0.2295	0.1117	0.1603	0.0865	0.2559	0.2726	-0.4055	-0.789
410.1562	-0.435	-0.4383	-0.7963	-0.8466	-0.4313	-0.7921	-0.061	-0.3337	-0.0385	0.0558	0.0214	0.3128	0.351	0.2223	-0.4133	-0.4805	-0.0168	-0.0674	-0.2585	-0.1625	0.0565	-0.1668	-0.1006	0.1926	0.2191	0.1146	0.3214	0.2995	-0.3521	-0.7425
414.0625	-0.3826	-0.3614	-0.6885	-0.7915	-0.3675	-0.699	-0.0179	-0.3078	-0.0034	0.0945	0.0343	0.3099	0.3934	0.2835	-0.341	-0.4214	-0.0219	-0.0144	-0.2392	-0.0971	0.1242	-0.0828	0.0205	0.2606	0.2706	0.1336	0.3734	0.3137	-0.2927	-0.6693
417.9688	-0.3379	-0.2787	-0.5851	-0.7315	-0.3061	-0.5889	0.0151	-0.2778	0.0247	0.1225	0.0434	0.3024	0.4126	0.314	-0.2774	-0.3659	-0.0344	0.0226	-0.2406	-0.0541	0.1585	-0.0252	0.1158	0.308	0.3081	0.1414	0.4065	0.3133	-0.237	-0.5767
421.875	-0.3095	-0.2016	-0.4953	-0.6723	-0.2525	-0.476	0.033	-0.2498	0.0395	0.1345	0.0454	0.2906	0.4068	0.3097	-0.228	-0.3169	-0.0549	0.0381	-0.2665	-0.0348	0.156	-0.0018	0.1702	0.3294	0.3259	0.1377	0.4185	0.2986	-0.1916	-0.4717
425.7812	-0.3009	-0.1438	-0.4244	-0.6206	-0.2114	-0.3746	0.0331	-0.2297	0.0359	0.1281	0.0373	0.2752	0.3779	0.2712	-0.1947	-0.2781	-0.0832	0.0298	-0.3165	-0.0394	0.1171	-0.0157	0.1756	0.3238	0.3215	0.1239	0.4106	0.2722	-0.1595	-0.3611
429.6875	-0.3096	-0.117	-0.3742	-0.5822	-0.1865	-0.2951	0.0156	-0.2217	0.0122	0.1039	0.0175	0.2569	0.3309	0.2042	-0.1775	-0.2535	-0.1173	-0.0008	-0.3843	-0.0671	0.0457	-0.064	0.1324	0.2941	0.2963	0.1032	0.3871	0.2382	-0.1395	-0.2523
433.5938	-0.3272	-0.1278	-0.344	-0.5599	-0.178	-0.2423	-0.0162	-0.2277	-0.0302	0.0651	-0.0142	0.2369	0.2732	0.1177	-0.1748	-0.2456	-0.1532	-0.0477	-0.4582	-0.1157	-0.0511	-0.1384	0.05	0.247	0.2568	0.08	0.355	0.2018	-0.1271	-0.1531
437.5	-0.3428	-0.1743	-0.3311	-0.5518	-0.1825	-0.214	-0.0566	-0.2462	-0.0865	0.0176	-0.0555	0.2164	0.213	0.0225	-0.184	-0.2549	-0.1846	-0.1018	-0.5224	-0.1813	-0.1632	-0.2256	-0.0548	0.1913	0.213	0.0587	0.3221	0.168	-0.1156	-0.0712
441.4062	-0.3458	-0.2453	-0.3319	-0.5509	-0.1933	-0.2018	-0.0981	-0.2727	-0.1485	-0.0312	-0.1021	0.1967	0.158	-0.0703	-0.2014	-0.2792	-0.2047	-0.1519	-0.5612	-0.2577	-0.2789	-0.3098	-0.1605	0.1365	0.1761	0.0427	0.2954	0.1411	-0.0981	-0.0126
445.3125	-0.3294	-0.3228	-0.3413	-0.5476	-0.2012	-0.1944	-0.1329	-0.3002	-0.2062	-0.0736	-0.1477	0.1798	0.1141	-0.1514	-0.2221	-0.3143	-0.2076	-0.1872	-0.5629	-0.3377	-0.3864	-0.3759	-0.2452	0.0907	0.1554	0.0334	0.2796	0.1238	-0.0686	0.02
449.2188	-0.2932	-0.3862	-0.3533	-0.5329	-0.1975	-0.1802	-0.1542	-0.3205	-0.249	-0.1024	-0.1848	0.1675	0.0847	-0.2145	-0.2404	-0.3546	-0.1902	-0.1992	-0.5234	-0.4137	-0.4758	-0.412	-0.2912	0.0592	0.1558	0.0303	0.2763	0.1169	-0.0241	0.0282
453.125	-0.243	-0.4183	-0.3606	-0.5021	-0.1762	-0.1511	-0.1578	-0.3262	-0.2679	-0.1129	-0.2067	0.1611	0.0699	-0.257	-0.2513	-0.3956	-0.1541	-0.185	-0.4475	-0.4794	-0.541	-0.4123	-0.2885	0.0437	0.1762	0.0307	0.2832	0.1193	0.0347	0.0171
457.0312	-0.1894	-0.4108	-0.3563	-0.4574	-0.1363	-0.1038	-0.1435	-0.3128	-0.2579	-0.1036	-0.209	0.1612	0.0663	-0.2802	-0.2525	-0.435	-0.1056	-0.1476	-0.3483	-0.5322	-0.5811	-0.3784	-0.2377	0.0415	0.2103	0.0308	0.2951	0.1278	0.1037	-0.0063
460.9375	-0.1437	-0.3672	-0.335	-0.4081	-0.0825	-0.0409	-0.1147	-0.2802	-0.2191	-0.0776	-0.1905	0.1666	0.068	-0.2891	-0.2455	-0.4737	-0.056	-0.0965	-0.2442	-0.573	-0.6006	-0.3189	-0.1487	0.0466	0.2479	0.0268	0.3048	0.1381	0.1758	-0.0349
464.8438	-0.1148	-0.3031	-0.2951	-0.3683	-0.0246	0.0295	-0.0788	-0.2329	-0.1575	-0.0413	-0.1545	0.1745	0.0669	-0.2911	-0.2353	-0.5164	-0.0192	-0.0455	-0.1557	-0.607	-0.6085	-0.2483	-0.0397	0.0508	0.2776	0.0157	0.3048	0.1453	0.2436	-0.0631
468.75	-0.1067	-0.2413	-0.2404	-0.3532	0.0244	0.0961	-0.0449	-0.1794	-0.0833	-0.0042	-0.1082	0.1807	0.055	-0.2951	-0.2295	-0.5693	-0.0097	-0.0104	-0.1017	-0.6419	-0.616	-0.1841	0.0674	0.0456	0.2901	-0.0044	0.2891	0.1448	0.3007	-0.0876
472.6562	-0.1186	-0.2048	-0.1798	-0.3737	0.0516	0.1468	-0.0224	-0.1298	-0.0095	0.0239	-0.0608	0.1801	0.0259	-0.3088	-0.2361	-0.6388	-0.0397	-0.0049	-0.0965	-0.6856	-0.6339	-0.1438	0.1508	0.024	0.28	-0.0334	0.2539	0.1329	0.3431	-0.1075
476.5625	-0.1466	-0.2092	-0.1263	-0.433	0.0477	0.1725	-0.0184	-0.0937	0.0512	0.0351	-0.0223	0.168	-0.0238	-0.3376	-0.2614	-0.7283	-0.1155	-0.0377	-0.1473	-0.7436	-0.6695	-0.1416	0.1931	-0.0177	0.2473	-0.0699	0.1993	0.108	0.3682	-0.1236
480.4688	-0.1851	-0.2568	-0.093	-0.5243	0.0102	0.1696	-0.0363	-0.0779	0.0895	0.0249	-0.0008	0.1418	-0.0932	-0.3822	-0.3081	-0.8365	-0.2357	-0.1104	-0.2525	-0.8167	-0.7247	-0.1849	0.1842	-0.0788	0.1973	-0.1109	0.1293	0.0708	0.3748	-0.1377
484.375	-0.2286	-0.3357	-0.0894	-0.6313	-0.0553	0.1415	-0.0749	-0.0848	0.1007	-0.0066	-0.0008	0.1012	-0.1768	-0.4389	-0.3749	-0.9558	-0.3899	-0.2166	-0.4016	-0.8999	-0.7946	-0.2725	0.1231	-0.1539	0.1395	-0.1526	0.051	0.0247	0.3627	-0.151
488.2812	-0.2722	-0.4232	-0.1176	-0.732	-0.1354	0.098	-0.1284	-0.1129	0.0859	-0.0548	-0.0221	0.0494	-0.2652	-0.4989	-0.4553	-1.0733	-0.5601	-0.3429	-0.5769	-0.9826	-0.8691	-0.3947	0.018	-0.2338	0.0848	-0.1906	-0.0261	-0.025	0.3336	-0.1625
492.1875	-0.3113	-0.4926	-0.171	-0.8034	-0.2124	0.0524	-0.1881	-0.1568	0.0509	-0.1122	-0.0603	-0.0076	-0.3469	-0.5511	-0.5392	-1.1731	-0.7234	-0.4714	-0.756	-1.051	-0.9345	-0.5349	-0.1153	-0.3074	0.0436	-0.2207	-0.0923	-0.0714	0.2917	-0.1679
496.0938	-0.3419	-0.5215	-0.2355	-0.8278	-0.2683	0.0179	-0.2439	-0.2096	0.0045	-0.1696	-0.1075	-0.0617	-0.4102	-0.5839	-0.6138	-1.2398	-0.8559	-0.583	-0.9155	-1.0912	-0.9769	-0.6725	-0.2557	-0.3639	0.0231	-0.2392	-0.1392	-0.1077	0.2443	-0.1604
500	-0.3597	-0.4984	-0.2931	-0.7967	-0.2896	0.0042	-0.2872	-0.2636	-0.0441	-0.2188	-0.1544	-0.1043	-0.4455	-0.5879	-0.6658	-1.2614	-0.9371	-0.66	-1.034	-1.0926	-0.9859	-0.786	-0.3804	-0.3949	0.0264	-0.2438	-0.1611	-0.1277	0.2012	-0.1321
503.9062	-0.3605	-0.4247	-0.3271	-0.7126	-0.2702	0.0152	-0.3119	-0.3128	-0.0868	-0.2533	-0.1921	-0.1279	-0.4467	-0.5578	-0.6847	-1.2329	-0.9535	-0.6897	-1.095	-1.0502	-0.956	-0.8568	-0.4675	-0.3955	0.052	-0.2339	-0.1561	-0.1278	0.1724	-0.077
507.8125	-0.34	-0.3137	-0.3265	-0.5882	-0.2124	0.0482	-0.3158	-0.3534	-0.1185	-0.2698	-0.2142	-0.1277	-0.4124	-0.4934	-0.6641	-1.1563	-0.9009	-0.666	-1.0887	-0.9657	-0.8883	-0.8719	-0.5011	-0.3658	0.0948	-0.2108	-0.126	-0.1071	0.1659	0.0066
511.7188	-0.2951	-0.1864	-0.2884	-0.443	-0.1264	0.0954	-0.301	-0.3839	-0.1372	-0.2683	-0.2175	-0.1029	-0.3467	-0.4	-0.6033	-1.0409	-0.785	-0.5906	-1.0143	-0.847	-0.7895	-0.8265	-0.4737	-0.31	0.1471	-0.1779	-0.0764	-0.0683	0.1852	0.1146
515.625	-0.2249	-0.0658	-0.2187	-0.2995	-0.0271	0.1456	-0.273	-0.4053	-0.1444	-0.2518	-0.2027	-0.0566	-0.2581	-0.2869	-0.5073	-0.9011	-0.6209	-0.4727	-0.8802	-0.7064	-0.6705	-0.7247	-0.388	-0.236	0.2008	-0.14	-0.0156	-0.0168	0.2282	0.2373
519.5312	-0.132	0.0285	-0.1292	-0.1786	0.0691	0.1872	-0.2395	-0.4203	-0.1437	-0.2256	-0.1738	0.0045	-0.1584	-0.1656	-0.3852	-0.7533	-0.4292	-0.3271	-0.7031	-0.5577	-0.5437	-0.5788	-0.256	-0.1539	0.2481	-0.1032	0.0469	0.0401	0.2879	0.3619
523.4375	-0.0221	0.0853	-0.0344	-0.0952	0.1489	0.2113	-0.2084	-0.4322	-0.1398	-0.1958	-0.1369	0.0714	-0.0603	-0.0475	-0.2488	-0.6118	-0.2317	-0.1707	-0.5046	-0.4136	-0.4204	-0.4064	-0.0954	-0.0737	0.2837	-0.0731	0.1023	0.0944	0.3549	0.4748
527.3438	0.096	0.1038	0.0527	-0.0552	0.205	0.2143	-0.1854	-0.4437	-0.1371	-0.1677	-0.0989	0.1356	0.0255	0.0589	-0.1093	-0.4865	-0.046	-0.0184	-0.306	-0.2824	-0.3083	-0.226	0.0745	-0.004	0.3042	-0.0545	0.1439	0.1393	0.4195	0.565
531.25	0.2125	0.0931	0.124	-0.0556	0.2372	0.1981	-0.1729	-0.4566	-0.1382	-0.1448	-0.0653	0.1901	0.0923	0.1493	0.0239	-0.3807	0.1178	0.119	-0.1238	-0.1676	-0.2104	-0.0538	0.2364	0.0498	0.3087	-0.0498	0.1682	0.1702	0.4745	0.626
535.1562	0.3182	0.0685	0.1771	-0.0853	0.2517	0.1693	-0.1694	-0.4709	-0.1434	-0.128	-0.0396	0.2315	0.1381	0.2237	0.1445	-0.2921	0.2577	0.2362	0.033	-0.0679	-0.1256	0.0982	0.377	0.0852	0.2979	-0.0587	0.1755	0.1855	0.5166	0.6566
539.0625	0.405	0.0471	0.2144	-0.1291	0.2577	0.1363	-0.1706	-0.4858	-0.1513	-0.116	-0.0228	0.2593	0.1656	0.2853	0.2484	-0.2152	0.3776	0.3322	0.1617	0.0203	-0.0502	0.2229	0.4873	0.1031	0.2742	-0.0788	0.1687	0.1862	0.5459	0.6605
542.9688	0.467	0.0422	0.2405	-0.1714	0.2645	0.1065	-0.1709	-0.5	-0.1591	-0.1065	-0.0142	0.2757	0.1798	0.3384	0.3334	-0.1439	0.4833	0.4079	0.2631	0.1012	0.0197	0.3162	0.5611	0.1058	0.2409	-0.106	0.1521	0.1749	0.5652	0.6446
546.875	0.5014	0.0604	0.2587	-0.1997	0.2789	0.0848	-0.1653	-0.5127	-0.1642	-0.097	-0.012	0.2835	0.1866	0.3867	0.398	-0.0744	0.5787	0.4645	0.3386	0.1774	0.0864	0.3765	0.5946	0.0962	0.2015	-0.1362	0.1295	0.155	0.5785	0.6179
550.7812	0.5086	0.1006	0.2696	-0.2066	0.3035	0.0729	-0.1507	-0.5236	-0.1646	-0.0858	-0.0145	0.2853	0.1901	0.4325	0.442	-0.0058	0.664	0.5021	0.3888	0.2495	0.1502	0.4035	0.5861	0.0768	0.1598	-0.1661	0.1037	0.1294	0.5893	0.5889
554.6875	0.4938	0.1559	0.2709	-0.1902	0.3373	0.07	-0.1265	-0.5329	-0.1596	-0.0723	-0.0204	0.2823	0.1925	0.4759	0.4664	0.0606	0.7369	0.5211	0.4145	0.3172	0.21	0.3997	0.5371	0.0499	0.1188	-0.1938	0.0759	0.1	0.5998	0.5642
558.5938	0.4665	0.217	0.259	-0.1531	0.3769	0.075	-0.0943	-0.5413	-0.1498	-0.0569	-0.0289	0.275	0.1942	0.5169	0.4744	0.123	0.7947	0.5228	0.4189	0.3808	0.265	0.371	0.453	0.0175	0.0806	-0.2187	0.0464	0.0682	0.6105	0.5475
562.5	0.4392	0.2763	0.2321	-0.1004	0.4189	0.0876	-0.0564	-0.5485	-0.1362	-0.0405	-0.0389	0.2632	0.1949	0.5554	0.4711	0.181	0.8373	0.511	0.4094	0.4427	0.316	0.3271	0.344	-0.0177	0.0467	-0.2408	0.0158	0.0349	0.6204	0.5395
566.4062	0.4256	0.3308	0.1924	-0.0371	0.4617	0.1096	-0.0152	-0.5534	-0.1201	-0.0237	-0.0491	0.2476	0.1948	0.5929	0.4626	0.2369	0.8676	0.4918	0.3973	0.5077	0.3663	0.2803	0.2239	-0.0516	0.0183	-0.2601	-0.0141	0.0013	0.6272	0.5384
570.3125	0.4359	0.3824	0.1468	0.0337	0.5057	0.1444	0.028	-0.5536	-0.1021	-0.0063	-0.0572	0.2302	0.1952	0.6325	0.4557	0.2955	0.8916	0.4729	0.3941	0.582	0.4211	0.2432	0.1089	-0.0795	-0.0034	-0.2759	-0.0398	-0.0302	0.6282	0.5412
574.2188	0.4748	0.4363	0.1062	0.111	0.5531	0.195	0.0724	-0.546	-0.0822	0.0124	-0.0604	0.2144	0.1989	0.6778	0.4562	0.3625	0.9153	0.4617	0.409	0.6711	0.486	0.2251	0.0146	-0.0965	-0.0171	-0.2865	-0.0567	-0.0563	0.6214	0.5451
578.125	0.5397	0.4982	0.0826	0.1951	0.6059	0.2626	0.118	-0.5279	-0.0602	0.0334	-0.0563	0.2047	0.209	0.732	0.4686	0.4426	0.9433	0.464	0.4451	0.7779	0.5655	0.2298	-0.0473	-0.0981	-0.0218	-0.2896	-0.0596	-0.0729	0.6059	0.5482
582.0312	0.6221	0.5703	0.0869	0.2855	0.665	0.345	0.1646	-0.4982	-0.0359	0.0578	-0.0429	0.2054	0.2282	0.7965	0.4956	0.5382	0.9779	0.4825	0.4992	0.9015	0.6604	0.2547	-0.0705	-0.0821	-0.0163	-0.2826	-0.0446	-0.0758	0.5834	0.5501
585.9375	0.7113	0.6506	0.1256	0.3796	0.7284	0.4362	0.2112	-0.4575	-0.0097	0.0859	-0.0203	0.2192	0.2574	0.8698	0.537	0.6478	1.0192	0.5163	0.5634	1.0361	0.7681	0.2927	-0.0562	-0.0484	0.0001	-0.2638	-0.0098	-0.0621	0.5584	0.5523
589.8438	0.7977	0.7333	0.199	0.4722	0.7912	0.5272	0.2558	-0.4085	0.0172	0.1166	0.0098	0.2464	0.295	0.9479	0.5901	0.7669	1.0663	0.5619	0.6278	1.1729	0.8821	0.3346	-0.0111	0.0001	0.0277	-0.2332	0.0431	-0.0312	0.5381	0.5566
593.75	0.8763	0.811	0.3	0.557	0.8471	0.6072	0.2952	-0.356	0.0424	0.1475	0.0432	0.2838	0.3369	1.0242	0.6495	0.8885	1.1179	0.6138	0.6839	1.3008	0.9932	0.3723	0.0542	0.0578	0.066	-0.1928	0.1089	0.0146	0.5313	0.5644
597.6562	0.9465	0.8779	0.415	0.628	0.8888	0.6662	0.3251	-0.306	0.0625	0.1744	0.0745	0.3253	0.3765	1.0911	0.709	1.004	1.1721	0.6664	0.7265	1.4092	1.0912	0.4013	0.1284	0.1176	0.1139	-0.1469	0.1797	0.0698	0.5458	0.5757
601.5625	1.0113	0.9312	0.5261	0.6814	0.9106	0.6968	0.3408	-0.2644	0.0741	0.1922	0.0979	0.3632	0.4067	1.1411	0.7633	1.1049	1.2267	0.7149	0.7543	1.4889	1.1667	0.421	0.2024	0.1714	0.1692	-0.1014	0.2458	0.1265	0.5867	0.589
605.4688	1.0746	0.97	0.6158	0.7151	0.909	0.6965	0.3379	-0.2359	0.0742	0.196	0.1084	0.3894	0.4206	1.1676	0.8094	1.1839	1.2789	0.7563	0.7696	1.5344	1.2121	0.4336	0.2696	0.2115	0.2279	-0.0632	0.2974	0.1758	0.6544	0.6023
609.375	1.1386	0.9948	0.6714	0.7289	0.8837	0.6678	0.3134	-0.2227	0.0617	0.1822	0.1027	0.3973	0.4129	1.1664	0.8477	1.2358	1.3262	0.7893	0.7763	1.5433	1.2226	0.4427	0.3264	0.2322	0.2845	-0.0389	0.3264	0.2089	0.745	0.6141
613.2812	1.2022	1.0062	0.6882	0.7232	0.8365	0.6173	0.266	-0.2243	0.0372	0.1491	0.0801	0.3832	0.3807	1.1356	0.8814	1.2584	1.3667	0.8144	0.7797	1.5169	1.1968	0.4514	0.3719	0.23	0.3323	-0.034	0.3273	0.2193	0.8508	0.6241
617.1875	1.2604	1.0048	0.6701	0.6984	0.771	0.5542	0.1968	-0.2374	0.0035	0.098	0.0425	0.3466	0.3238	1.0759	0.9153	1.2526	1.4009	0.8335	0.785	1.46	1.1363	0.4617	0.4073	0.2043	0.364	-0.0522	0.2982	0.2033	0.9614	0.633
621.0938	1.3061	0.9917	0.6275	0.6549	0.6919	0.4881	0.1092	-0.2571	-0.0348	0.0326	-0.0058	0.2904	0.2446	0.9904	0.953	1.2227	1.4315	0.8493	0.7971	1.3791	1.0453	0.4741	0.4358	0.1572	0.3735	-0.0941	0.2407	0.1611	1.065	0.641
625	1.3316	0.9687	0.5736	0.5933	0.6039	0.4265	0.0085	-0.2783	-0.0732	-0.0416	-0.0594	0.2201	0.147	0.8836	0.9947	1.1746	1.4622	0.8639	0.8187	1.2819	0.9303	0.4867	0.4603	0.0926	0.3571	-0.1575	0.16	0.0968	1.1504	0.6475
628.9062	1.3316	0.9375	0.5208	0.5141	0.5112	0.3745	-0.0988	-0.2975	-0.1074	-0.1182	-0.1125	0.1431	0.0361	0.7612	1.0361	1.1148	1.4958	0.8773	0.8487	1.175	0.7979	0.4947	0.4818	0.0147	0.315	-0.2369	0.0634	0.0174	1.2079	0.6507
632.8125	1.3046	0.9003	0.4787	0.4194	0.4172	0.3331	-0.2065	-0.3138	-0.1354	-0.1916	-0.1602	0.0673	-0.0828	0.6285	1.069	1.0491	1.5325	0.8869	0.8816	1.0637	0.6547	0.4916	0.4991	-0.072	0.2519	-0.3244	-0.0405	-0.0679	1.232	0.649
636.7188	1.254	0.8596	0.4526	0.3129	0.3249	0.2998	-0.3091	-0.3285	-0.157	-0.2574	-0.1993	-0.0001	-0.2046	0.4909	1.0845	0.9822	1.5697	0.8889	0.9093	0.9512	0.5064	0.4711	0.5091	-0.163	0.1761	-0.4109	-0.1426	-0.1496	1.2221	0.6417
640.625	1.1873	0.8195	0.4437	0.2015	0.2367	0.2694	-0.4029	-0.3454	-0.1738	-0.3131	-0.2282	-0.053	-0.3241	0.3535	1.0761	0.9179	1.6035	0.8801	0.9232	0.8397	0.3583	0.4298	0.5095	-0.2534	0.0985	-0.4865	-0.2338	-0.2183	1.183	0.63
644.5312	1.1154	0.7861	0.4497	0.0946	0.1549	0.2352	-0.4856	-0.3684	-0.1889	-0.3584	-0.2474	-0.0875	-0.4363	0.2219	1.0432	0.86	1.6305	0.8601	0.9181	0.7315	0.2156	0.3698	0.5	-0.3372	0.0304	-0.5428	-0.3064	-0.2667	1.1239	0.6165
648.4375	1.0503	0.767	0.4666	0.003	0.0817	0.1908	-0.5565	-0.4007	-0.2057	-0.3945	-0.2591	-0.1024	-0.5364	0.1018	0.9913	0.8123	1.6493	0.832	0.8941	0.6297	0.0838	0.2979	0.4831	-0.4081	-0.0188	-0.5733	-0.3543	-0.2906	1.0563	0.6047
652.3438	1.0033	0.7691	0.4894	-0.063	0.0187	0.1315	-0.6161	-0.4437	-0.2271	-0.424	-0.2663	-0.0987	-0.6197	-0.0011	0.9307	0.779	1.6612	0.8013	0.8564	0.539	-0.0313	0.2246	0.463	-0.4603	-0.0438	-0.5752	-0.3739	-0.2889	0.9914	0.5977
656.25	0.9825	0.797	0.513	-0.0961	-0.0325	0.0561	-0.6654	-0.4963	-0.2549	-0.4499	-0.2723	-0.0799	-0.6819	-0.0812	0.8733	0.7639	1.6689	0.7744	0.8136	0.4648	-0.1237	0.1607	0.4435	-0.4899	-0.0438	-0.5494	-0.3652	-0.2645	0.9382	0.5981
660.1562	0.991	0.8505	0.533	-0.0932	-0.0704	-0.033	-0.7055	-0.5551	-0.2892	-0.4751	-0.2798	-0.0505	-0.7196	-0.1342	0.8292	0.7702	1.6746	0.7556	0.7738	0.4132	-0.188	0.1137	0.4257	-0.4958	-0.0227	-0.5009	-0.3307	-0.2229	0.902	0.6068
664.0625	1.0262	0.9243	0.5452	-0.0564	-0.0939	-0.1295	-0.7368	-0.6152	-0.328	-0.5013	-0.2903	-0.0155	-0.7305	-0.1569	0.8052	0.7996	1.679	0.7462	0.7421	0.3892	-0.2197	0.0863	0.4066	-0.48	0.0115	-0.4373	-0.2761	-0.1713	0.8843	0.6236
667.9688	1.0809	1.0094	0.5461	0.0077	-0.102	-0.2241	-0.7587	-0.6709	-0.3675	-0.5284	-0.3032	0.021	-0.7131	-0.1479	0.8038	0.8519	1.6804	0.744	0.7188	0.3968	-0.216	0.0754	0.38	-0.4474	0.0487	-0.3682	-0.2086	-0.1174	0.8828	0.6475
671.875	1.1448	1.0948	0.5333	0.0888	-0.0939	-0.3068	-0.7696	-0.7166	-0.4021	-0.5542	-0.3161	0.0564	-0.6674	-0.1071	0.8253	0.9251	1.6756	0.7452	0.7002	0.4375	-0.1757	0.0744	0.3382	-0.4044	0.0789	-0.3028	-0.1356	-0.0675	0.8934	0.6773
675.7812	1.2074	1.1706	0.5062	0.1755	-0.0694	-0.3684	-0.7668	-0.7481	-0.4256	-0.5744	-0.325	0.0898	-0.5945	-0.036	0.8688	1.0155	1.6618	0.7464	0.681	0.5106	-0.1001	0.0752	0.2754	-0.3576	0.0935	-0.2491	-0.0641	-0.0263	0.9109	0.7126
679.6875	1.2604	1.2301	0.4659	0.2575	-0.0294	-0.403	-0.7475	-0.7631	-0.4322	-0.5836	-0.3258	0.1217	-0.4966	0.0621	0.934	1.1188	1.6387	0.7461	0.6573	0.6129	0.0074	0.0712	0.19	-0.3125	0.0866	-0.212	0.0007	0.0043	0.9308	0.7536
683.5938	1.2996	1.2711	0.4167	0.3269	0.0247	-0.409	-0.7094	-0.7618	-0.4186	-0.5764	-0.3148	0.154	-0.3776	0.183	1.0204	1.2301	1.6108	0.7465	0.6294	0.7392	0.1414	0.0596	0.0862	-0.2721	0.0564	-0.1931	0.0559	0.0252	0.9497	0.801
687.5	1.3251	1.2954	0.365	0.3799	0.0911	-0.389	-0.6517	-0.747	-0.3841	-0.5488	-0.2901	0.1885	-0.2424	0.3213	1.1275	1.3454	1.5868	0.7525	0.6025	0.8832	0.2954	0.0417	-0.0262	-0.237	0.0047	-0.1904	0.1005	0.0391	0.9661	0.8552
691.4062	1.3407	1.3082	0.3191	0.4166	0.1678	-0.3491	-0.5751	-0.7236	-0.3315	-0.4989	-0.2518	0.2269	-0.0964	0.4715	1.2526	1.4619	1.5785	0.7709	0.5858	1.0387	0.4628	0.0233	-0.1337	-0.2054	-0.063	-0.1991	0.1356	0.0502	0.9796	0.9157
695.3125	1.3523	1.3173	0.2871	0.4415	0.2534	-0.2965	-0.4821	-0.6967	-0.2663	-0.4277	-0.2021	0.2699	0.0551	0.629	1.39	1.5786	1.5977	0.8077	0.5895	1.2013	0.6386	0.0125	-0.2212	-0.1739	-0.1384	-0.2129	0.1633	0.0625	0.9907	0.9797
699.2188	1.3656	1.3319	0.2758	0.4619	0.3475	-0.2378	-0.3764	-0.6712	-0.1954	-0.3385	-0.1446	0.3173	0.2079	0.7906	1.5311	1.6967	1.6535	0.8673	0.6231	1.369	0.8194	0.0189	-0.2751	-0.1385	-0.2118	-0.2254	0.1865	0.079	0.9996	1.0424
703.125	1.3842	1.3615	0.2889	0.4876	0.4508	-0.1775	-0.2624	-0.6499	-0.1259	-0.2365	-0.0839	0.3673	0.3585	0.9541	1.6648	1.819	1.7508	0.9505	0.693	1.5424	1.0042	0.0513	-0.2863	-0.0958	-0.274	-0.2314	0.2079	0.101	1.0055	1.0972
707.0312	1.4101	1.4145	0.3272	0.5279	0.5647	-0.1166	-0.1448	-0.6333	-0.0635	-0.1279	-0.0244	0.4177	0.5047	1.1188	1.7802	1.949	1.8886	1.0549	0.8023	1.7234	1.1931	0.1164	-0.251	-0.0435	-0.3169	-0.228	0.2299	0.1277	1.0065	1.1376
710.9375	1.4437	1.4974	0.388	0.5908	0.6907	-0.0531	-0.0275	-0.6192	-0.0114	-0.0185	0.0306	0.4659	0.6447	1.2839	1.8688	2.0901	2.0603	1.1755	0.9498	1.9145	1.3864	0.218	-0.172	0.0196	-0.3351	-0.2144	0.2543	0.1574	1.0006	1.159
714.8438	1.4847	1.6132	0.4661	0.6812	0.8299	0.0173	0.0869	-0.6037	0.0303	0.0872	0.0797	0.5096	0.7773	1.4485	1.9268	2.2442	2.2548	1.3054	1.1301	2.1164	1.5836	0.3556	-0.0571	0.0931	-0.3257	-0.1917	0.283	0.1877	0.9872	1.1608
718.75	1.533	1.7599	0.5547	0.7994	0.9809	0.0989	0.1968	-0.5823	0.0639	0.1858	0.1233	0.5474	0.9009	1.6106	1.9558	2.4106	2.4585	1.4379	1.3341	2.3272	1.7824	0.5245	0.0835	0.176	-0.2891	-0.1624	0.3173	0.2166	0.9673	1.1463
722.6562	1.587	1.9298	0.646	0.9405	1.1397	0.1939	0.3009	-0.5509	0.0931	0.2757	0.163	0.5785	1.0138	1.7667	1.9618	2.5852	2.6566	1.5665	1.5498	2.5417	1.978	0.7163	0.2393	0.266	-0.2285	-0.1295	0.3578	0.2426	0.9442	1.122
726.5625	1.6431	2.1084	0.7318	1.0939	1.2982	0.3005	0.398	-0.5075	0.1216	0.3554	0.2004	0.6024	1.1133	1.912	1.9533	2.7597	2.8349	1.6862	1.7637	2.7509	2.1636	0.9197	0.4011	0.3601	-0.1511	-0.0961	0.4038	0.2647	0.922	1.0951
730.4688	1.6943	2.2763	0.8045	1.2447	1.446	0.4124	0.486	-0.453	0.151	0.4233	0.2363	0.6189	1.1955	2.0398	1.9384	2.9224	2.9815	1.7919	1.9621	2.9434	2.3304	1.1215	0.5606	0.4537	-0.0665	-0.0653	0.4532	0.2819	0.9043	1.071
734.375	1.7315	2.413	0.8577	1.3773	1.5718	0.5206	0.5616	-0.391	0.1809	0.4771	0.2695	0.6271	1.2565	2.1433	1.9223	3.0593	3.0861	1.8785	2.1313	3.1065	2.4691	1.3073	0.7088	0.5408	0.0143	-0.0393	0.5019	0.2934	0.8926	1.0516
738.2812	1.7455	2.5017	0.8873	1.4791	1.6669	0.6164	0.6214	-0.3273	0.2085	0.5137	0.2974	0.6267	1.2921	2.2158	1.9059	3.1563	3.1417	1.9403	2.2594	3.2285	2.5714	1.463	0.8358	0.6145	0.0813	-0.0196	0.5448	0.2986	0.8854	1.0354
742.1875	1.7304	2.5329	0.8923	1.5432	1.7267	0.6934	0.6622	-0.2683	0.2297	0.5304	0.3157	0.6174	1.3001	2.2528	1.8854	3.2022	3.1453	1.9717	2.3377	3.3003	2.6312	1.577	0.932	0.6684	0.128	-0.0068	0.5767	0.2968	0.8792	1.0176
746.0938	1.6866	2.5054	0.8741	1.5684	1.7515	0.7499	0.6822	-0.2199	0.2402	0.5251	0.3203	0.6	1.2802	2.2522	1.8535	3.1898	3.0994	1.9692	2.3636	3.3171	2.6456	1.6426	0.9913	0.6978	0.1525	-0.0007	0.5932	0.288	0.8691	0.9921
750	1.6206	2.4254	0.8372	1.5583	1.7455	0.7872	0.681	-0.1865	0.2368	0.4972	0.3076	0.5755	1.2345	2.215	1.8006	3.1177	3.0124	1.9327	2.3416	3.2783	2.6153	1.6599	1.014	0.7006	0.1571	-0.0005	0.5919	0.2728	0.8508	0.9524
753.9062	1.5429	2.3037	0.7879	1.5183	1.7148	0.8089	0.6597	-0.1704	0.2178	0.448	0.276	0.5459	1.1671	2.1452	1.7178	2.9899	2.8969	1.8659	2.283	3.1876	2.544	1.6357	1.0078	0.6778	0.1471	-0.0054	0.5725	0.2521	0.8212	0.8943
757.8125	1.4641	2.1536	0.7335	1.4547	1.6663	0.8193	0.6208	-0.1718	0.1839	0.3808	0.226	0.513	1.0834	2.0485	1.5997	2.8156	2.7674	1.7757	2.2024	3.0528	2.438	1.581	0.9853	0.6328	0.1293	-0.0143	0.5365	0.2269	0.7797	0.8178
761.7188	1.3907	1.9888	0.6814	1.3744	1.6064	0.8233	0.5684	-0.1888	0.1378	0.3008	0.1608	0.4788	0.9893	1.9326	1.4476	2.6079	2.6364	1.6711	2.1137	2.8842	2.3057	1.5086	0.9598	0.5709	0.11	-0.0267	0.4875	0.1984	0.7275	0.7276
765.625	1.3228	1.8219	0.6376	1.2847	1.5412	0.8261	0.5076	-0.2174	0.0845	0.2149	0.0861	0.4454	0.8907	1.8061	1.2696	2.3821	2.5114	1.5607	2.0257	2.6946	2.157	1.429	0.9411	0.4989	0.0944	-0.0425	0.4296	0.1678	0.6668	0.6331
769.5312	1.2538	1.6635	0.6055	1.1939	1.4765	0.8344	0.4448	-0.2517	0.0307	0.1315	0.0096	0.4149	0.7931	1.6779	1.0808	2.1533	2.393	1.4514	1.9402	2.4974	2.0023	1.3488	0.9322	0.424	0.0855	-0.062	0.3668	0.136	0.6004	0.5454
773.4375	1.1716	1.5228	0.5851	1.1114	1.4183	0.8556	0.3872	-0.2846	-0.0159	0.0591	-0.0607	0.3892	0.7012	1.5565	0.9004	1.9355	2.2754	1.3475	1.8525	2.3055	1.8518	1.2704	0.9288	0.3529	0.0831	-0.0865	0.3025	0.1037	0.53	0.4751
777.3438	1.0622	1.4074	0.5734	1.0482	1.3728	0.8975	0.3417	-0.3084	-0.0479	0.0058	-0.1172	0.3703	0.6188	1.4494	0.7487	1.7393	2.1487	1.2509	1.7536	2.13	1.7148	1.1925	0.9217	0.2916	0.0847	-0.1175	0.2386	0.0709	0.4562	0.4292
781.25	0.9135	1.3239	0.566	1.0149	1.3457	0.9671	0.3142	-0.3162	-0.0591	-0.0224	-0.1541	0.3601	0.5486	1.3617	0.6425	1.5711	2.0027	1.1618	1.6344	1.9791	1.598	1.1124	0.8999	0.2443	0.0858	-0.1564	0.176	0.0378	0.3783	0.4104
785.1562	0.7182	1.2757	0.5581	1.0194	1.3412	1.0689	0.3079	-0.3036	-0.0462	-0.023	-0.1688	0.3594	0.4918	1.2956	0.591	1.4326	1.8301	1.0793	1.4888	1.8564	1.5047	1.027	0.8547	0.2131	0.0821	-0.2039	0.1144	0.0045	0.2954	0.4169
789.0625	0.4764	1.2611	0.5466	1.0632	1.3597	1.2027	0.3227	-0.2699	-0.0099	0.0023	-0.1625	0.368	0.4471	1.2495	0.5934	1.32	1.629	1.0013	1.3153	1.7599	1.4338	0.9344	0.7824	0.1973	0.0705	-0.2596	0.0532	-0.0291	0.2067	0.4437
792.9688	0.1964	1.2718	0.5302	1.1393	1.3969	1.3628	0.354	-0.219	0.0448	0.0472	-0.14	0.3838	0.4112	1.218	0.6382	1.2253	1.4026	0.9254	1.1175	1.6828	1.3794	0.8343	0.6856	0.193	0.051	-0.3216	-0.0085	-0.063	0.1126	0.4836
796.875	-0.107	1.294	0.5094	1.2329	1.4438	1.5374	0.394	-0.1583	0.1092	0.102	-0.1093	0.4033	0.3788	1.193	0.7058	1.1373	1.1592	0.8486	0.9037	1.6143	1.3327	0.7278	0.5727	0.1945	0.0257	-0.3872	-0.071	-0.0973	0.0148	0.5291
