time,FP1,F3,F7,FC3,C3,C5,P3,P7,PO7,PO3,O1,Oz,Pz,CPz,FP2,Fz,F4,F8,FC4,FCz,Cz,C4,C6,P4,P8,PO8,PO4,O2,HEOG_left,HEOG_right
-199.2188,0.2988,-2.9357,-1.3176,-1.614,-1.4264,-1.4263,-0.7778,-0.2356,-0.3064,-0.5106,-0.0855,-0.0207,-1.1904,-1.6472,-1.8198,-2.4764,-2.3834,-2.0737,-2.6122,-2.1511,-1.8013,-1.6444,-1.4104,-0.7348,-0.2185,-0.0705,-0.4851,-0.4885,-0.9942,-1.2005
-195.3125,-0.3111,-2.4085,-1.2606,-1.3426,-1.158,-1.1795,-0.4051,-0.0525,0.0304,-0.1114,0.1698,0.1961,-0.7676,-1.4012,-1.7636,-2.1628,-1.9972,-1.8414,-2.283,-1.9125,-1.5703,-1.4431,-1.2598,-0.545,-0.2208,0.0427,-0.2677,-0.2524,-0.9823,-1.1257
-191.4062,-0.8467,-1.9132,-1.1941,-1.0873,-0.9011,-0.9406,-0.0603,0.1211,0.3351,0.2505,0.4006,0.3868,-0.3704,-1.1566,-1.6969,-1.8636,-1.6465,-1.6275,-1.9797,-1.6836,-1.3481,-1.2582,-1.1248,-0.3717,-0.2333,0.1313,-0.0738,-0.0449,-0.9559,-1.0421
-187.5,-1.2507,-1.474,-1.1102,-0.8598,-0.6677,-0.7174,0.2306,0.2739,0.5778,0.5413,0.5839,0.5282,-0.0211,-0.9137,-1.6043,-1.5879,-1.3551,-1.4431,-1.717,-1.4684,-1.1402,-1.0972,-1.0122,-0.2279,-0.2615,0.1763,0.0772,0.1109,-0.9,-0.9404
-183.5938,-1.4816,-1.1069,-1.0002,-0.6669,-0.4661,-0.5158,0.4489,0.3958,0.737,0.7374,0.7032,0.6047,0.2634,-0.674,-1.4717,-1.3402,-1.1339,-1.2897,-1.4989,-1.2671,-0.9488,-0.9614,-0.9211,-0.1208,-0.3047,0.1682,0.173,0.2018,-0.8029,-0.813
-179.6875,-1.5207,-0.8183,-0.8564,-0.5097,-0.3008,-0.3394,0.5843,0.4782,0.8024,0.8278,0.7502,0.6102,0.4732,-0.4408,-1.2891,-1.1201,-0.9791,-1.1598,-1.3186,-1.0767,-0.7734,-0.846,-0.8432,-0.0516,-0.3563,0.1087,0.2095,0.2254,-0.6585,-0.6559
-175.7812,-1.3754,-0.6045,-0.6753,-0.3854,-0.1734,-0.1901,0.6349,0.5152,0.7751,0.8141,0.7245,0.5474,0.6041,-0.2204,-1.0537,-0.9238,-0.8744,-1.0405,-1.1614,-0.8927,-0.6125,-0.7421,-0.7652,-0.0162,-0.405,0.0091,0.1907,0.1892,-0.4687,-0.4707
-171.875,-1.0792,-0.4546,-0.4615,-0.2891,-0.0842,-0.0694,0.6061,0.5043,0.6664,0.7083,0.6329,0.4263,0.6561,-0.0217,-0.7731,-0.7466,-0.797,-0.9181,-1.0106,-0.7121,-0.4664,-0.6401,-0.6736,-0.008,-0.4391,-0.113,0.1265,0.1071,-0.2446,-0.2659
-167.9688,-0.6863,-0.3541,-0.229,-0.2165,-0.0333,0.0205,0.5087,0.4467,0.4948,0.5295,0.4873,0.2614,0.6326,0.1439,-0.4656,-0.586,-0.7247,-0.7832,-0.8533,-0.5357,-0.3384,-0.5336,-0.56,-0.0206,-0.449,-0.2386,0.03,-0.0039,-0.0063,-0.0567
-164.0625,-0.2629,-0.2899,-0.0005,-0.1659,-0.0216,0.0768,0.3569,0.3476,0.2825,0.3012,0.3027,0.0691,0.5397,0.2635,-0.1587,-0.4434,-0.6423,-0.6338,-0.6847,-0.3702,-0.2357,-0.4221,-0.4247,-0.049,-0.431,-0.3511,-0.0844,-0.1276,0.2199,0.1368
-160.1562,0.1244,-0.2523,0.1968,-0.138,-0.0496,0.0964,0.167,0.2157,0.053,0.0479,0.0961,-0.1334,0.3861,0.3253,0.1159,-0.3251,-0.5455,-0.4763,-0.5103,-0.2268,-0.1674,-0.3119,-0.2779,-0.091,-0.3875,-0.4391,-0.2035,-0.2508,0.4057,0.2925
-156.25,0.419,-0.2362,0.338,-0.135,-0.1162,0.078,-0.0433,0.0628,-0.1715,-0.2067,-0.1155,-0.3299,0.1838,0.3203,0.3282,-0.2403,-0.441,-0.3235,-0.3431,-0.1195,-0.1424,-0.2141,-0.138,-0.1456,-0.3263,-0.4968,-0.3161,-0.3637,0.527,0.3919
-152.3438,0.5837,-0.2387,0.4058,-0.1581,-0.2166,0.0243,-0.2562,-0.0971,-0.3716,-0.4413,-0.3155,-0.5057,-0.052,0.2451,0.456,-0.1981,-0.3428,-0.1918,-0.2007,-0.0609,-0.1658,-0.1423,-0.027,-0.2121,-0.2583,-0.5235,-0.4132,-0.4595,0.5684,0.4238
-148.4375,0.6048,-0.2571,0.3957,-0.2056,-0.3409,-0.0577,-0.4547,-0.2489,-0.5317,-0.6384,-0.4888,-0.6481,-0.3041,0.1032,0.4891,-0.204,-0.267,-0.0968,-0.0993,-0.0591,-0.2369,-0.1083,0.0351,-0.2881,-0.1941,-0.5214,-0.4888,-0.5337,0.527,0.3875
-144.5312,0.4923,-0.2867,0.316,-0.2715,-0.4749,-0.1566,-0.6237,-0.3783,-0.6408,-0.7855,-0.6231,-0.7479,-0.5548,-0.0941,0.4305,-0.257,-0.2274,-0.0498,-0.0503,-0.1154,-0.3486,-0.1192,0.0356,-0.3697,-0.1412,-0.4944,-0.5394,-0.5833,0.4122,0.2929
-140.625,0.2761,-0.3208,0.1863,-0.3463,-0.602,-0.2582,-0.7515,-0.4732,-0.6932,-0.8759,-0.7099,-0.7995,-0.788,-0.3286,0.296,-0.3499,-0.2313,-0.0541,-0.0575,-0.2238,-0.4887,-0.1753,-0.0272,-0.4508,-0.1032,-0.4472,-0.5644,-0.606,0.2438,0.1587
-136.7188,-0.0011,-0.3516,0.0321,-0.4188,-0.7059,-0.3474,-0.8303,-0.5249,-0.6884,-0.9085,-0.7449,-0.802,-0.9905,-0.5772,0.1107,-0.4694,-0.2784,-0.1044,-0.1168,-0.3713,-0.6413,-0.2696,-0.1433,-0.5245,-0.0788,-0.3846,-0.5657,-0.6008,0.0482,0.0084
-132.8125,-0.2923,-0.3723,-0.1207,-0.4777,-0.7734,-0.4108,-0.8567,-0.5288,-0.6306,-0.8871,-0.7275,-0.7587,-1.1524,-0.8144,-0.0961,-0.5995,-0.3613,-0.1869,-0.217,-0.5405,-0.7896,-0.3886,-0.2929,-0.5839,-0.0638,-0.3122,-0.5473,-0.5679,-0.146,-0.1334
-128.9062,-0.5543,-0.3782,-0.2507,-0.5143,-0.7963,-0.4387,-0.8311,-0.4856,-0.5277,-0.8183,-0.661,-0.6766,-1.2665,-1.0157,-0.296,-0.7231,-0.4672,-0.2824,-0.342,-0.7113,-0.9174,-0.5144,-0.45,-0.6229,-0.0525,-0.2355,-0.5136,-0.5087,-0.3126,-0.2457
-125,-0.7547,-0.3671,-0.3443,-0.5231,-0.7718,-0.4257,-0.7571,-0.4001,-0.3903,-0.71,-0.5513,-0.5644,-1.3278,-1.1593,-0.4658,-0.8244,-0.5789,-0.3693,-0.4717,-0.863,-1.0105,-0.6269,-0.5871,-0.6365,-0.0391,-0.16,-0.4687,-0.4261,-0.4313,-0.314
-121.0938,-0.8755,-0.3385,-0.3966,-0.5019,-0.702,-0.3712,-0.6407,-0.2818,-0.2304,-0.5701,-0.4068,-0.4321,-1.3321,-1.2283,-0.5895,-0.8896,-0.6775,-0.4274,-0.5852,-0.9763,-1.0562,-0.7068,-0.6794,-0.6208,-0.0197,-0.0899,-0.415,-0.3241,-0.4897,-0.3315
-117.1875,-0.9126,-0.2926,-0.4093,-0.451,-0.5921,-0.279,-0.4902,-0.1436,-0.0616,-0.4064,-0.2383,-0.289,-1.276,-1.2112,-0.6575,-0.9076,-0.7443,-0.4412,-0.6618,-1.0338,-1.0446,-0.7371,-0.708,-0.573,0.008,-0.0277,-0.3528,-0.2076,-0.4845,-0.2996
-113.2812,-0.873,-0.2302,-0.3881,-0.3725,-0.4493,-0.1566,-0.3161,-0.0006,0.1018,-0.2268,-0.0586,-0.1441,-1.1573,-1.1033,-0.6649,-0.8706,-0.7634,-0.4019,-0.6845,-1.0226,-0.9687,-0.7061,-0.6628,-0.4913,0.0448,0.0269,-0.28,-0.082,-0.4204,-0.2268
-109.375,-0.7706,-0.1524,-0.3397,-0.2697,-0.282,-0.014,-0.13,0.1313,0.2456,-0.0404,0.1181,-0.0049,-0.9758,-0.9069,-0.6102,-0.7746,-0.7243,-0.3075,-0.6413,-0.9351,-0.8255,-0.6082,-0.5429,-0.3755,0.09,0.0763,-0.1933,0.0471,-0.309,-0.126
-105.4688,-0.6216,-0.0606,-0.2688,-0.1468,-0.0991,0.1368,0.0554,0.2381,0.3575,0.1426,0.2775,0.122,-0.7349,-0.6319,-0.4947,-0.6201,-0.6221,-0.1624,-0.5269,-0.7704,-0.6177,-0.445,-0.3569,-0.2272,0.1431,0.1249,-0.0889,0.1746,-0.1661,-0.0116
-101.5625,-0.442,0.0429,-0.1777,-0.0092,0.0897,0.2835,0.228,0.309,0.4285,0.3112,0.4071,0.2315,-0.4427,-0.2956,-0.3232,-0.4121,-0.4586,0.0238,-0.3437,-0.5351,-0.3536,-0.2253,-0.1208,-0.0502,0.2035,0.1773,0.0357,0.2957,-0.0088,0.1034
-97.6562,-0.2457,0.1557,-0.067,0.1371,0.275,0.4146,0.3775,0.3387,0.4543,0.455,0.4976,0.3199,-0.1123,0.0786,-0.1053,-0.1601,-0.2408,0.2372,-0.1014,-0.2428,-0.0473,0.0358,0.1434,0.1485,0.2705,0.2374,0.1801,0.4062,0.1464,0.2088
-93.75,-0.0438,0.275,0.0625,0.2859,0.448,0.5214,0.4962,0.3273,0.4359,0.5648,0.5442,0.3846,0.2375,0.463,0.1445,0.123,0.0192,0.4611,0.1837,0.0868,0.2821,0.3193,0.4115,0.3585,0.3423,0.3058,0.3396,0.5017,0.2862,0.2989
-89.8438,0.1552,0.3984,0.2081,0.4311,0.6013,0.5991,0.5799,0.2806,0.3786,0.6344,0.5463,0.4242,0.5842,0.8285,0.4076,0.4212,0.3058,0.6772,0.4901,0.4304,0.613,0.6037,0.6603,0.5665,0.4158,0.3796,0.5043,0.5772,0.4016,0.3717
-85.9375,0.3459,0.5241,0.364,0.5678,0.7295,0.6473,0.6277,0.208,0.2912,0.6612,0.5077,0.438,0.9037,1.1476,0.6631,0.7171,0.6009,0.8676,0.794,0.7632,0.9233,0.8682,0.8701,0.7573,0.4852,0.4515,0.6602,0.6268,0.4887,0.429
-82.0312,0.5249,0.6506,0.5212,0.6919,0.8291,0.6695,0.6414,0.1214,0.1839,0.6466,0.4352,0.4265,1.1726,1.3974,0.8904,0.9929,0.8843,1.0169,1.0712,1.0621,1.1923,1.0945,1.0267,0.9151,0.5431,0.5114,0.7908,0.6454,0.5479,0.4741
-78.125,0.6904,0.7753,0.6683,0.7995,0.8977,0.6707,0.6247,0.0323,0.0673,0.5958,0.3378,0.392,1.3713,1.5618,1.0716,1.2315,1.1356,1.1137,1.2999,1.3068,1.4027,1.2679,1.1222,1.026,0.5806,0.5489,0.8799,0.6297,0.5822,0.5105
-74.2188,0.8405,0.8935,0.792,0.8858,0.9337,0.6556,0.5817,-0.0498,-0.0488,0.5168,0.226,0.3387,1.4862,1.6332,1.1936,1.4177,1.3358,1.1523,1.4633,1.4825,1.5417,1.3782,1.1547,1.0791,0.5895,0.5554,0.9151,0.5801,0.5954,0.5399
-70.3125,0.9708,0.9978,0.8796,0.9448,0.9353,0.6275,0.5165,-0.1185,-0.1562,0.4188,0.1101,0.2727,1.5115,1.613,1.2492,1.54,1.4695,1.1334,1.5514,1.5802,1.6027,1.4203,1.1279,1.0695,0.564,0.5269,0.8904,0.5017,0.5899,0.5609
-66.4062,1.0729,1.0785,0.92,0.9705,0.9022,0.5872,0.4329,-0.1712,-0.2487,0.3113,-0.0001,0.2007,1.4495,1.5118,1.2381,1.5925,1.5278,1.0643,1.5621,1.5986,1.5859,1.3944,1.0503,0.9981,0.5023,0.4647,0.8074,0.4034,0.5671,0.5693
-62.5,1.1345,1.1263,0.9068,0.9584,0.8359,0.535,0.335,-0.2083,-0.3226,0.2023,-0.0972,0.1292,1.3105,1.3473,1.1671,1.5762,1.5109,0.9583,1.5013,1.5441,1.4989,1.3058,0.9342,0.8724,0.4074,0.3744,0.6749,0.296,0.527,0.5599
-58.5938,1.1429,1.1347,0.8393,0.9077,0.7412,0.4712,0.2276,-0.2324,-0.3764,0.0979,-0.1761,0.0626,1.1113,1.1419,1.0489,1.4994,1.4279,0.8324,1.3819,1.4301,1.3556,1.1643,0.7939,0.7052,0.2869,0.2641,0.5066,0.1892,0.47,0.5281
-54.6875,1.0896,1.1021,0.7243,0.8225,0.6263,0.3975,0.1165,-0.2464,-0.4106,0.0017,-0.2352,0.003,0.8729,0.9194,0.9004,1.3771,1.296,0.7047,1.2218,1.2751,1.1747,0.9837,0.6438,0.5127,0.1515,0.1427,0.3191,0.0895,0.3977,0.4722
-50.7812,0.9759,1.0327,0.5752,0.711,0.502,0.3175,0.0088,-0.2523,-0.4265,-0.0846,-0.2755,-0.0498,0.6182,0.7016,0.7395,1.228,1.1371,0.5907,1.0418,1.1003,0.9768,0.7807,0.4975,0.3121,0.014,0.0183,0.129,-0.0002,0.3133,0.3942
-46.875,0.8146,0.9353,0.4105,0.5847,0.3807,0.2364,-0.088,-0.2506,-0.4255,-0.1602,-0.2997,-0.0961,0.3694,0.5053,0.5826,1.0719,0.9738,0.5012,0.863,0.9259,0.782,0.5738,0.3664,0.1203,-0.1125,-0.1014,-0.0479,-0.0796,0.2221,0.2998
-42.9688,0.6281,0.8217,0.2504,0.4563,0.2744,0.1597,-0.1662,-0.2397,-0.408,-0.224,-0.3113,-0.1359,0.1456,0.3415,0.443,0.9264,0.8253,0.44,0.7042,0.7691,0.607,0.3815,0.2588,-0.0477,-0.216,-0.2093,-0.1982,-0.1489,0.1305,0.1976
-39.0625,0.4435,0.7048,0.1132,0.338,0.1925,0.0927,-0.2196,-0.2171,-0.3732,-0.2741,-0.3132,-0.1676,-0.0391,0.2136,0.3291,0.804,0.7043,0.4047,0.5793,0.6419,0.4637,0.22,0.1799,-0.1805,-0.2867,-0.2974,-0.3114,-0.207,0.0452,0.0974
-35.1562,0.2861,0.5956,0.0114,0.2394,0.1404,0.0386,-0.2453,-0.1805,-0.32,-0.3082,-0.3078,-0.1884,-0.1773,0.119,0.2445,0.7105,0.616,0.3876,0.4951,0.5498,0.3576,0.1011,0.1311,-0.2705,-0.3183,-0.3579,-0.381,-0.2502,-0.0279,0.008
-31.25,0.1738,0.5025,-0.0493,0.1663,0.1179,-0.0013,-0.2438,-0.1295,-0.2479,-0.3239,-0.2961,-0.1954,-0.2686,0.0499,0.1879,0.6453,0.5574,0.3789,0.4504,0.4921,0.2879,0.0306,0.1105,-0.3154,-0.3095,-0.3834,-0.4049,-0.2728,-0.0847,-0.0636
-27.3438,0.1133,0.4303,-0.0699,0.1201,0.1201,-0.0275,-0.2199,-0.0656,-0.1584,-0.3207,-0.279,-0.1872,-0.3189,-0.0042,0.1552,0.6027,0.5208,0.3696,0.4373,0.4634,0.2493,0.0075,0.1135,-0.3178,-0.264,-0.3689,-0.3859,-0.2689,-0.1227,-0.1131
-23.4375,0.0987,0.3811,-0.0555,0.0986,0.1378,-0.0413,-0.1814,0.0078,-0.0556,-0.2998,-0.2569,-0.1644,-0.3383,-0.053,0.1416,0.5754,0.4965,0.3542,0.4439,0.4557,0.2335,0.0256,0.134,-0.2843,-0.1909,-0.3133,-0.3308,-0.2345,-0.1401,-0.1384
-19.5312,0.1133,0.3555,-0.0128,0.0969,0.1608,-0.0437,-0.1374,0.0857,0.0536,-0.2649,-0.2303,-0.1298,-0.3384,-0.1037,0.1427,0.5571,0.4768,0.3327,0.4577,0.4612,0.232,0.0751,0.1664,-0.2244,-0.1031,-0.22,-0.2494,-0.1695,-0.1356,-0.1384
-15.625,0.1351,0.3528,0.0522,0.1096,0.1798,-0.0357,-0.0965,0.1623,0.1603,-0.2215,-0.2004,-0.0878,-0.3297,-0.1588,0.1553,0.5448,0.4586,0.3102,0.4693,0.4742,0.2382,0.1452,0.206,-0.1486,-0.0147,-0.0978,-0.1529,-0.0785,-0.1078,-0.1128
-11.7188,0.1425,0.3721,0.1348,0.1315,0.1886,-0.0178,-0.0653,0.2318,0.255,-0.1755,-0.1682,-0.043,-0.3194,-0.217,0.1765,0.539,0.4436,0.2955,0.4735,0.4917,0.2484,0.2264,0.2502,-0.0662,0.0611,0.0411,-0.0529,0.0294,-0.0559,-0.0622
-7.8125,0.1209,0.411,0.231,0.1585,0.1851,0.0092,-0.0471,0.2886,0.3288,-0.132,-0.1351,0.0012,-0.3105,-0.2738,0.2034,0.5423,0.4369,0.2977,0.4698,0.5137,0.2618,0.3104,0.2974,0.0149,0.1141,0.1819,0.0406,0.1424,0.0191,0.0111
-3.9062,0.0684,0.4652,0.3361,0.1872,0.171,0.0438,-0.042,0.3282,0.3755,-0.0942,-0.1022,0.0434,-0.3025,-0.3242,0.2322,0.5571,0.444,0.3228,0.4607,0.5408,0.279,0.3905,0.3459,0.0888,0.1384,0.3098,0.1189,0.2484,0.1134,0.1023
0,-0.0024,0.5278,0.4438,0.2135,0.1501,0.0838,-0.0474,0.3479,0.392,-0.063,-0.0705,0.0843,-0.2928,-0.3639,0.2588,0.5833,0.4676,0.3711,0.4493,0.573,0.3006,0.4604,0.3926,0.1504,0.1321,0.4119,0.175,0.3366,0.2201,0.2037
3.9062,-0.0652,0.5891,0.5472,0.2331,0.1265,0.1261,-0.059,0.3474,0.3789,-0.0374,-0.0406,0.1252,-0.2782,-0.3906,0.2792,0.617,0.5062,0.435,0.4381,0.6082,0.3253,0.5139,0.4324,0.1951,0.0961,0.4779,0.2031,0.3988,0.3302,0.3059
7.8125,-0.0852,0.6381,0.6393,0.2413,0.1036,0.1679,-0.0724,0.3287,0.34,-0.015,-0.0134,0.1668,-0.2569,-0.4042,0.2916,0.6514,0.554,0.5011,0.4276,0.6425,0.3505,0.545,0.4592,0.2179,0.0323,0.5011,0.1983,0.4304,0.4345,0.3993
11.7188,-0.0288,0.6649,0.7155,0.235,0.0842,0.2073,-0.083,0.2965,0.2818,0.0072,0.0102,0.2082,-0.2281,-0.4056,0.2971,0.6793,0.6032,0.553,0.4178,0.672,0.3725,0.5493,0.468,0.2149,-0.0563,0.4792,0.1579,0.43,0.5263,0.4764
15.625,0.1252,0.6645,0.7752,0.2153,0.0717,0.2443,-0.0865,0.2579,0.2128,0.0328,0.0302,0.2471,-0.1924,-0.3951,0.3013,0.696,0.647,0.5771,0.409,0.6946,0.3889,0.5259,0.4575,0.1842,-0.1662,0.4144,0.0819,0.4,0.6031,0.534
19.5312,0.3763,0.6393,0.8219,0.1888,0.0712,0.2813,-0.0786,0.221,0.143,0.0654,0.0477,0.2804,-0.1497,-0.3715,0.3141,0.7016,0.6824,0.5681,0.4032,0.7121,0.4004,0.479,0.4315,0.1281,-0.2923,0.314,-0.0253,0.3463,0.6673,0.5738
23.4375,0.6981,0.6006,0.8634,0.1678,0.0904,0.3223,-0.055,0.1949,0.0829,0.1092,0.0656,0.3059,-0.0993,-0.3304,0.3494,0.7022,0.7105,0.5318,0.4043,0.7301,0.4115,0.4175,0.3994,0.0541,-0.428,0.1895,-0.1546,0.2775,0.7259,0.6021
27.3438,1.0428,0.5665,0.9095,0.1682,0.1381,0.3725,-0.0122,0.1873,0.0421,0.1672,0.0877,0.3231,-0.0396,-0.2655,0.4219,0.7077,0.7357,0.4857,0.4171,0.7576,0.4297,0.3539,0.373,-0.0266,-0.5649,0.0554,-0.2934,0.204,0.7881,0.6286
31.25,1.3531,0.5587,0.9693,0.206,0.2226,0.4367,0.0513,0.2035,0.0281,0.2405,0.1178,0.3332,0.0315,-0.17,0.5434,0.7298,0.7637,0.4551,0.446,0.804,0.4642,0.3021,0.3646,-0.0998,-0.694,-0.0734,-0.427,0.1359,0.8632,0.6634
35.1562,1.5788,0.5967,1.0494,0.2939,0.3487,0.5182,0.1341,0.2447,0.0445,0.3274,0.1587,0.3391,0.1153,-0.0387,0.7195,0.7789,0.8,0.4666,0.4946,0.8776,0.5233,0.2752,0.3833,-0.1514,-0.8065,-0.183,-0.5413,0.0816,0.9573,0.715
39.0625,1.6908,0.6942,1.1521,0.4373,0.5159,0.6178,0.2313,0.3071,0.0903,0.4223,0.2105,0.3439,0.2112,0.1296,0.9471,0.862,0.85,0.5415,0.5658,0.9834,0.6138,0.2843,0.4345,-0.1693,-0.8945,-0.2632,-0.6245,0.0471,1.0719,0.7876
42.9688,1.6893,0.8549,1.2755,0.6335,0.7175,0.7332,0.3348,0.3819,0.1594,0.5163,0.2703,0.3503,0.3163,0.3305,1.2143,0.9824,0.9191,0.6897,0.6626,1.1233,0.7394,0.3382,0.5192,-0.1454,-0.9518,-0.3074,-0.6689,0.0352,1.2023,0.8798
46.875,1.6019,1.0716,1.4134,0.8706,0.9403,0.8582,0.434,0.4561,0.2408,0.5984,0.3324,0.3597,0.4254,0.5531,1.5016,1.1394,1.0133,0.9071,0.788,1.2952,0.9004,0.4426,0.6345,-0.0764,-0.9731,-0.3127,-0.6711,0.0463,1.338,0.9844
50.7812,1.4732,1.3262,1.5554,1.1282,1.1651,0.9818,0.5172,0.5135,0.3193,0.6562,0.3876,0.3715,0.5308,0.7802,1.7848,1.3279,1.1385,1.176,0.9443,1.4929,1.0921,0.5988,0.7749,0.0353,-0.955,-0.2796,-0.6325,0.0783,1.4636,1.0888
54.6875,1.3503,1.5914,1.6867,1.379,1.3684,1.0887,0.5715,0.537,0.3765,0.6777,0.4248,0.3825,0.6226,0.9886,2.0375,1.5382,1.2976,1.4678,1.1297,1.7052,1.3037,0.8014,0.9317,0.1811,-0.8956,-0.211,-0.5596,0.1274,1.5612,1.1779
58.5938,1.2693,1.8349,1.7879,1.5922,1.5238,1.1592,0.5839,0.5111,0.3933,0.6519,0.4315,0.3871,0.6888,1.1515,2.2344,1.7551,1.4878,1.7479,1.3357,1.9148,1.5172,1.0364,1.0932,0.3461,-0.7963,-0.1128,-0.4638,0.1878,1.6134,1.236
62.5,1.2459,2.0229,1.8377,1.7372,1.6055,1.1715,0.5425,0.4244,0.3526,0.5707,0.3961,0.3778,0.7164,1.2417,2.3539,1.9575,1.6976,1.9809,1.5451,2.099,1.7075,1.28,1.2442,0.5096,-0.6629,0.0054,-0.3618,0.2516,1.6053,1.2498
66.4062,1.2735,2.126,1.8165,1.7883,1.5923,1.1057,0.4383,0.2723,0.2433,0.4299,0.309,0.3457,0.6921,1.2359,2.3806,2.1204,1.9065,2.1357,1.7324,2.2316,1.8455,1.5003,1.3673,0.6473,-0.5067,0.1298,-0.2736,0.3082,1.5283,1.2108
70.3125,1.3271,2.1233,1.7106,1.7302,1.4726,0.9482,0.2681,0.0591,0.0627,0.2311,0.166,0.2828,0.6056,1.1203,2.3077,2.2182,2.0868,2.19,1.8677,2.2871,1.9033,1.6621,1.4444,0.7349,-0.3445,0.2433,-0.2209,0.3457,1.3817,1.117
74.2188,1.3719,2.0062,1.5172,1.5608,1.2475,0.697,0.0367,-0.2019,-0.1808,-0.0166,-0.03,0.1846,0.4526,0.8937,2.1383,2.2291,2.2081,2.1333,1.9231,2.246,1.8603,1.7334,1.4599,0.7523,-0.1973,0.3271,-0.2225,0.3523,1.1744,0.9733
78.125,1.3735,1.7811,1.2467,1.2931,0.9332,0.365,-0.2412,-0.4888,-0.4678,-0.2957,-0.2674,0.0517,0.2382,0.5703,1.887,2.1405,2.2436,1.9679,1.8787,2.1,1.7089,1.6922,1.4037,0.6888,-0.0862,0.3645,-0.2904,0.3191,0.9235,0.7914
82.0312,1.3067,1.4686,0.9225,0.9536,0.5593,-0.0204,-0.5415,-0.774,-0.7693,-0.5815,-0.5259,-0.1081,-0.0208,0.1778,1.578,1.9532,2.176,1.7098,1.729,1.8553,1.4586,1.533,1.2739,0.5465,-0.0287,0.3446,-0.426,0.2433,0.6532,0.5882
85.9375,1.161,1.1019,0.578,0.5788,0.1643,-0.4205,-0.833,-1.027,-1.0509,-0.8442,-0.7785,-0.2799,-0.2969,-0.2455,1.243,1.6825,2.0028,1.3866,1.4855,1.5334,1.1352,1.2684,1.0781,0.341,-0.0343,0.2659,-0.6183,0.1299,0.3906,0.3835
89.8438,0.9429,0.7205,0.2505,0.2089,-0.2104,-0.7922,-1.0823,-1.2191,-1.2782,-1.0536,-0.9957,-0.444,-0.5552,-0.6571,0.9156,1.3575,1.7385,1.0354,1.1762,1.1692,0.7777,0.9283,0.8339,0.0995,-0.1022,0.1372,-0.845,-0.0078,0.1614,0.1978
93.75,0.6736,0.3642,-0.0257,-0.1185,-0.5279,-1.0968,-1.26,-1.3274,-1.4225,-1.1848,-1.1505,-0.5797,-0.7602,-1.0167,0.6267,1.0154,1.4128,0.6975,0.8406,0.8046,0.4304,0.5545,0.5657,-0.1445,-0.2208,-0.0233,-1.0762,-0.1507,-0.0139,0.0486
97.6562,0.3838,0.065,-0.2266,-0.3747,-0.7614,-1.3066,-1.3462,-1.3388,-1.4666,-1.2228,-1.2237,-0.6692,-0.8829,-1.2933,0.3988,0.6953,1.0652,0.4116,0.5212,0.4812,0.135,0.1917,0.3013,-0.3574,-0.3703,-0.1912,-1.2798,-0.2776,-0.1241,-0.0523
101.5625,0.1067,-0.1573,-0.3425,-0.5444,-0.8978,-1.4101,-1.3346,-1.2528,-1.4079,-1.166,-1.2076,-0.7017,-0.9073,-1.4695,0.2428,0.4301,0.7371,0.2069,0.2551,0.2326,-0.0783,-0.1207,0.0659,-0.512,-0.5265,-0.3412,-1.4279,-0.3703,-0.1681,-0.1006
105.4688,-0.1285,-0.2974,-0.3791,-0.6267,-0.9384,-1.4119,-1.2339,-1.0823,-1.2591,-1.0271,-1.1085,-0.6766,-0.8334,-1.544,0.1576,0.2414,0.4637,0.0969,0.0662,0.078,-0.1953,-0.3568,-0.1231,-0.5929,-0.6652,-0.4514,-1.5022,-0.4169,-0.1544,-0.0995
109.375,-0.3017,-0.3629,-0.3541,-0.6332,-0.8969,-1.33,-1.0658,-0.8516,-1.0464,-0.8308,-0.945,-0.6027,-0.6771,-1.5302,0.1314,0.1357,0.2678,0.0768,-0.0389,0.0195,-0.2194,-0.5074,-0.2588,-0.5981,-0.767,-0.5078,-1.4964,-0.414,-0.099,-0.0587
113.2812,-0.4035,-0.3703,-0.2919,-0.5842,-0.7954,-1.1905,-0.8613,-0.5927,-0.8048,-0.6094,-0.7457,-0.4977,-0.4672,-1.4527,0.1455,0.1051,0.1553,0.1245,-0.0708,0.043,-0.17,-0.5806,-0.3462,-0.5389,-0.8195,-0.5057,-1.4178,-0.3675,-0.021,0.0088
117.1875,-0.4348,-0.3409,-0.2171,-0.5045,-0.6608,-1.0223,-0.6552,-0.3406,-0.5727,-0.3982,-0.5444,-0.3843,-0.2405,-1.3429,0.1784,0.1285,0.1151,0.205,-0.0537,0.1211,-0.0774,-0.5985,-0.4002,-0.4375,-0.8194,-0.4503,-1.2853,-0.2904,0.0599,0.0887
121.0938,-0.4063,-0.2975,-0.1496,-0.4188,-0.5208,-0.8532,-0.4819,-0.1282,-0.3872,-0.2304,-0.376,-0.2876,-0.0368,-1.2341,0.2085,0.1762,0.1213,0.2769,-0.0207,0.2186,0.022,-0.5924,-0.4423,-0.3233,-0.7729,-0.3558,-1.1267,-0.2009,0.1257,0.1668
125,-0.3376,-0.2621,-0.1027,-0.3503,-0.4026,-0.7073,-0.3712,0.0182,-0.2791,-0.1337,-0.2714,-0.2316,0.1056,-1.1583,0.2158,0.2136,0.1372,0.2992,-0.0078,0.2972,0.091,-0.597,-0.4966,-0.2289,-0.6944,-0.2433,-0.9751,-0.1199,0.1605,0.2294
128.9062,-0.2573,-0.255,-0.0845,-0.3194,-0.331,-0.6044,-0.3459,0.0814,-0.2699,-0.1283,-0.2543,-0.2364,0.1539,-1.1431,0.1815,0.2063,0.1223,0.2387,-0.0484,0.3209,0.0963,-0.6444,-0.5851,-0.1858,-0.6042,-0.138,-0.8644,-0.0678,0.1507,0.2632
132.8125,-0.2015,-0.2938,-0.1004,-0.3432,-0.3272,-0.5593,-0.4203,0.0547,-0.3702,-0.2247,-0.3383,-0.3165,0.0842,-1.2095,0.0887,0.1244,0.0395,0.075,-0.1686,0.2607,0.0124,-0.7595,-0.7242,-0.2198,-0.5244,-0.0658,-0.8248,-0.0623,0.0852,0.2556
136.7188,-0.2091,-0.3926,-0.155,-0.4339,-0.4069,-0.5813,-0.5987,-0.0579,-0.5783,-0.4239,-0.5259,-0.4782,-0.1155,-1.3697,-0.0768,-0.0531,-0.1382,-0.1952,-0.3833,0.098,-0.175,-0.9554,-0.921,-0.347,-0.4754,-0.049,-0.8783,-0.1164,-0.0428,0.1964
140.625,-0.3147,-0.5598,-0.2538,-0.5977,-0.5777,-0.6732,-0.8755,-0.2427,-0.8811,-0.7172,-0.8078,-0.7191,-0.4434,-1.6251,-0.3239,-0.3353,-0.4229,-0.5571,-0.6939,-0.1727,-0.4676,-1.2315,-1.1707,-0.5708,-0.4711,-0.1026,-1.0347,-0.236,-0.2338,0.08
144.5312,-0.5402,-0.7978,-0.4014,-0.8326,-0.8372,-0.8309,-1.2359,-0.479,-1.2554,-1.0875,-1.1648,-1.0278,-0.8841,-1.9664,-0.6538,-0.7188,-0.8105,-0.9806,-1.0881,-0.5433,-0.8539,-1.5738,-1.4576,-0.8817,-0.5171,-0.2315,-1.2902,-0.4198,-0.4797,-0.0919
148.4375,-0.8886,-1.1023,-0.6001,-1.1293,-1.1723,-1.043,-1.6575,-0.7418,-1.6714,-1.5115,-1.5705,-1.3856,-1.4103,-2.3746,-1.059,-1.1882,-1.2835,-1.4262,-1.5429,-0.994,-1.3117,-1.9583,-1.7579,-1.2589,-0.6096,-0.4298,-1.6277,-0.6593,-0.7637,-0.3095
152.3438,-1.342,-1.4626,-0.8465,-1.4717,-1.5613,-1.2925,-2.1136,-1.0059,-2.0963,-1.9628,-1.9954,-1.7692,-1.9874,-2.8245,-1.5237,-1.7189,-1.8151,-1.8525,-2.0291,-1.4968,-1.8121,-2.3563,-2.0453,-1.6743,-0.7373,-0.6819,-2.0202,-0.9399,-1.0627,-0.5561
156.25,-1.865,-1.8626,-1.1299,-1.8399,-1.9766,-1.559,-2.5766,-1.2486,-2.4983,-2.4146,-2.4102,-2.1543,-2.5776,-3.2881,-2.0262,-2.2812,-2.3751,-2.2254,-2.5164,-2.0204,-2.3243,-2.7401,-2.2972,-2.0973,-0.8835,-0.9652,-2.435,-1.2435,-1.3507,-0.8102
160.1562,-2.4118,-2.2824,-1.4316,-2.2129,-2.3902,-1.8219,-3.0208,-1.4532,-2.8504,-2.8426,-2.7897,-2.5184,-3.1454,-3.7391,-2.5415,-2.8445,-2.9345,-2.5243,-2.9782,-2.535,-2.8201,-3.0881,-2.4992,-2.4998,-1.0305,-1.2543,-2.8393,-1.5503,-1.6051,-1.051
164.0625,-2.9345,-2.6989,-1.7282,-2.5715,-2.7775,-2.0629,-3.4252,-1.61,-3.1327,-3.2267,-3.1146,-2.8432,-3.6612,-4.1549,-3.0456,-3.3812,-3.4682,-2.745,-3.3949,-3.0164,-3.2771,-3.387,-2.647,-2.8596,-1.1622,-1.525,-3.2047,-1.8409,-1.8109,-1.2622
167.9688,-3.3919,-3.0887,-1.9957,-2.8995,-3.12,-2.2688,-3.7739,-1.7157,-3.3336,-3.5517,-3.3721,-3.1155,-4.1032,-4.5184,-3.517,-3.8687,-3.9566,-2.898,-3.7541,-3.4471,-3.6796,-3.6318,-2.7457,-3.1622,-1.2676,-1.7576,-3.5109,-2.0982,-1.9639,-1.4352
171.875,-3.7553,-3.4294,-2.2146,-3.1848,-3.4063,-2.4314,-4.0561,-1.7724,-3.4492,-3.8068,-3.5555,-3.3274,-4.4571,-4.8178,-3.9385,-4.291,-4.3849,-3.0033,-4.0499,-3.8162,-4.0177,-3.824,-2.8059,-3.4005,-1.3413,-1.9393,-3.7464,-2.3081,-2.0697,-1.57
175.7812,-4.0114,-3.7019,-2.3736,-3.4182,-3.6303,-2.5476,-4.2641,-1.7856,-3.4825,-3.9849,-3.6631,-3.4751,-4.714,-5.0452,-4.2968,-4.6369,-4.7418,-3.082,-4.2803,-4.1171,-4.2847,-3.9675,-2.8394,-3.5727,-1.384,-2.0644,-3.9078,-2.46,-2.1412,-1.6727
179.6875,-4.1614,-3.8926,-2.4705,-3.5928,-3.7891,-2.6179,-4.3928,-1.7614,-3.4411,-4.0815,-3.6966,-3.5574,-4.8685,-5.1963,-4.5819,-4.8983,-5.018,-3.1498,-4.4448,-4.3444,-4.4744,-4.0659,-2.8552,-3.6797,-1.4006,-2.1332,-3.9969,-2.5469,-2.1929,-1.7528
183.5938,-4.217,-3.9936,-2.5101,-3.703,-3.8805,-2.644,-4.4383,-1.7062,-3.3357,-4.0941,-3.6602,-3.575,-4.9168,-5.269,-4.7861,-5.0679,-5.2048,-3.2114,-4.5415,-4.4915,-4.5794,-4.1193,-2.8564,-3.7226,-1.3984,-2.1505,-4.0183,-2.5659,-2.2361,-1.8182
187.5,-4.1942,-4.0032,-2.5005,-3.7435,-3.9013,-2.6281,-4.3983,-1.6261,-3.1786,-4.0219,-3.5598,-3.5295,-4.8569,-5.2631,-4.9026,-5.1382,-5.2933,-3.2606,-4.5666,-4.5491,-4.5908,-4.1237,-2.8397,-3.7013,-1.3848,-2.1231,-3.9764,-2.5177,-2.2753,-1.8728
191.4062,-4.1082,-3.9249,-2.4498,-3.7096,-3.847,-2.5713,-4.2726,-1.5267,-2.9823,-3.8668,-3.4033,-3.4243,-4.689,-5.1804,-4.9253,-5.1006,-5.2749,-3.2826,-4.5142,-4.5067,-4.4996,-4.0714,-2.7972,-3.6146,-1.366,-2.0587,-3.8751,-2.4074,-2.3062,-1.9146
195.3125,-3.9703,-3.7654,-2.3627,-3.5975,-3.7128,-2.4734,-4.0642,-1.4136,-2.7584,-3.6333,-3.1994,-3.2646,-4.4172,-5.0232,-4.8484,-4.9479,-5.1428,-3.2598,-4.3781,-4.3541,-4.2987,-3.9532,-2.7185,-3.4613,-1.3466,-1.9656,-3.7174,-2.2445,-2.3173,-1.9368
199.2188,-3.7861,-3.5342,-2.2397,-3.4057,-3.4959,-2.3334,-3.7799,-1.2923,-2.5166,-3.329,-2.9577,-3.0581,-4.0503,-4.7942,-4.6675,-4.6756,-4.8941,-3.1765,-4.1537,-4.0854,-3.9861,-3.761,-2.5945,-3.2425,-1.3298,-1.8522,-3.5069,-2.0417,-2.2934,-1.93
203.125,-3.5563,-3.2428,-2.0778,-3.1364,-3.1976,-2.1504,-3.4302,-1.1673,-2.2641,-2.9645,-2.6872,-2.8155,-3.6024,-4.4958,-4.3823,-4.286,-4.5318,-3.0232,-3.8412,-3.7018,-3.5669,-3.4913,-2.4205,-2.963,-1.3186,-1.7279,-3.2494,-1.8141,-2.2197,-1.8856
207.0312,-3.2771,-2.9045,-1.8734,-2.797,-2.8255,-1.9259,-3.0292,-1.0425,-2.0061,-2.5534,-2.3965,-2.5488,-3.0923,-4.1308,-3.9992,-3.7902,-4.0672,-2.7988,-3.4469,-3.2143,-3.0549,-3.1468,-2.1977,-2.6325,-1.3169,-1.6031,-2.9545,-1.5774,-2.0865,-1.7983
210.9375,-2.9438,-2.5348,-1.625,-2.401,-2.3949,-1.6649,-2.5939,-0.9203,-1.7464,-2.1118,-2.0935,-2.2714,-2.5427,-3.7036,-3.5338,-3.2091,-3.5201,-2.5109,-2.9852,-2.6438,-2.4723,-2.7378,-1.9337,-2.2657,-1.3299,-1.4897,-2.6365,-1.3467,-1.8926,-1.6684
214.8438,-2.5534,-2.1506,-1.3362,-1.968,-1.928,-1.3784,-2.1439,-0.8027,-1.4892,-1.6584,-1.7866,-1.9966,-1.9789,-3.2224,-3.0115,-2.5731,-2.9187,-2.1745,-2.4772,-2.0204,-1.8481,-2.2814,-1.6421,-1.8816,-1.3635,-1.3994,-2.3148,-1.1351,-1.6459,-1.5019
218.75,-2.1086,-1.769,-1.0167,-1.5228,-1.4526,-1.0831,-1.7003,-0.6915,-1.2402,-1.2139,-1.4855,-1.737,-1.4278,-2.7011,-2.4663,-1.9187,-2.2964,-1.8094,-1.9502,-1.3803,-1.2161,-1.8004,-1.3401,-1.502,-1.4235,-1.3431,-2.0121,-0.9533,-1.3619,-1.3092
222.6562,-1.6215,-1.4064,-0.6831,-1.093,-0.9997,-0.8011,-1.2846,-0.5892,-1.007,-0.8003,-1.2015,-1.5047,-0.9164,-2.1599,-1.9367,-1.2854,-1.6894,-1.4379,-1.4346,-0.7625,-0.6114,-1.3207,-1.0461,-1.1497,-1.5137,-1.3286,-1.7516,-0.8094,-1.0612,-1.1032
226.5625,-1.1151,-1.0769,-0.3566,-0.7061,-0.5997,-0.5566,-0.9173,-0.4993,-0.7991,-0.4387,-0.9476,-1.3103,-0.4698,-1.6259,-1.4611,-0.7112,-1.1322,-1.0823,-0.9611,-0.2047,-0.0678,-0.869,-0.7778,-0.8459,-1.6345,-1.3594,-1.5542,-0.7087,-0.7655,-0.897
230.4688,-0.6235,-0.7918,-0.0609,-0.3864,-0.2792,-0.3729,-0.6168,-0.4265,-0.6264,-0.1477,-0.7366,-1.1628,-0.1094,-1.1304,-1.0727,-0.2283,-0.6551,-0.7634,-0.5577,0.2602,0.3849,-0.4706,-0.5503,-0.6081,-1.7818,-1.4334,-1.434,-0.6538,-0.4952,-0.7029
234.375,-0.1883,-0.56,0.1818,-0.1512,-0.0579,-0.2679,-0.3974,-0.3759,-0.4976,0.0598,-0.5792,-1.0683,0.1497,-0.7057,-0.7954,0.1387,-0.2812,-0.499,-0.2474,0.6063,0.7229,-0.1474,-0.375,-0.4486,-1.9472,-1.5431,-1.3965,-0.6443,-0.2676,-0.5318
238.2812,0.1478,-0.3879,0.3542,-0.0097,0.0543,-0.2505,-0.2675,-0.3522,-0.4191,0.1781,-0.4825,-1.0289,0.3008,-0.3811,-0.6405,0.3757,-0.0248,-0.303,-0.0451,0.8176,0.9307,0.0844,-0.2588,-0.3723,-2.1191,-1.6764,-1.4379,-0.6763,-0.0956,-0.3929
242.1875,0.3483,-0.2797,0.4473,0.0382,0.0577,-0.3186,-0.2291,-0.358,-0.3933,0.2091,-0.4486,-1.0415,0.3464,-0.1788,-0.6062,0.4791,0.1103,-0.1843,0.0437,0.8883,1.0017,0.2159,-0.2034,-0.377,-2.2841,-1.8188,-1.546,-0.7429,0.0131,-0.2928
246.0938,0.3904,-0.2378,0.4613,0.0008,-0.038,-0.4585,-0.2773,-0.3929,-0.4182,0.1618,-0.4746,-1.0981,0.2969,-0.1107,-0.6788,0.4556,0.1305,-0.1457,0.0243,0.8237,0.9389,0.2461,-0.206,-0.4537,-2.4291,-1.9553,-1.7028,-0.8343,0.0564,-0.2352
250,0.2697,-0.2614,0.4049,-0.1084,-0.2152,-0.6479,-0.4011,-0.4535,-0.488,0.0497,-0.553,-1.1869,0.1689,-0.1775,-0.8354,0.3211,0.0516,-0.1835,-0.0888,0.6383,0.7542,0.1824,-0.2592,-0.5879,-2.5434,-2.0732,-1.8883,-0.9391,0.0384,-0.2198
253.9062,0.0002,-0.3472,0.2925,-0.2731,-0.4529,-0.8599,-0.5853,-0.5331,-0.5936,-0.1117,-0.6735,-1.2943,-0.0183,-0.3688,-1.0484,0.0972,-0.1046,-0.288,-0.2752,0.3538,0.4666,0.0382,-0.3531,-0.763,-2.6198,-2.1632,-2.083,-1.0458,-0.0318,-0.2422
257.8125,-0.3881,-0.4897,0.1417,-0.4779,-0.7301,-1.069,-0.8126,-0.624,-0.7241,-0.3077,-0.8246,-1.4079,-0.2462,-0.6659,-1.2902,-0.1918,-0.3143,-0.4441,-0.5122,-0.0045,0.0989,-0.1694,-0.477,-0.9628,-2.6555,-2.2209,-2.271,-1.1448,-0.1408,-0.2943
261.7188,-0.8547,-0.682,-0.0301,-0.7108,-1.0289,-1.2564,-1.0662,-0.718,-0.8683,-0.5267,-0.9949,-1.5189,-0.4998,-1.0449,-1.5375,-0.523,-0.5563,-0.6334,-0.7806,-0.4119,-0.3252,-0.4238,-0.6217,-1.1742,-2.6524,-2.2467,-2.4414,-1.23,-0.2737,-0.3657
265.625,-1.3554,-0.9167,-0.2074,-0.9641,-1.3372,-1.4125,-1.3315,-0.8081,-1.0159,-0.7602,-1.1746,-1.6236,-0.7693,-1.4799,-1.7737,-0.8772,-0.8153,-0.8358,-1.0667,-0.8468,-0.7844,-0.7108,-0.7807,-1.3889,-2.6162,-2.2453,-2.5888,-1.2992,-0.4159,-0.445
269.5312,-1.8471,-1.1855,-0.3769,-1.2333,-1.6478,-1.5377,-1.5973,-0.8889,-1.159,-1.003,-1.3564,-1.7241,-1.049,-1.9464,-1.9898,-1.2408,-1.0828,-1.0317,-1.3644,-1.2926,-1.2609,-1.0207,-0.9507,-1.6032,-2.5556,-2.224,-2.7124,-1.3547,-0.5543,-0.5209
273.4375,-2.2918,-1.4783,-0.5282,-1.5146,-1.9569,-1.639,-1.8557,-0.9565,-1.2918,-1.2513,-1.5356,-1.8264,-1.3367,-2.4223,-2.1833,-1.6048,-1.3564,-1.2045,-1.6727,-1.7373,-1.7407,-1.3472,-1.1306,-1.8167,-2.4809,-2.192,-2.8153,-1.4019,-0.6788,-0.5829
277.3438,-2.6596,-1.7831,-0.6542,-1.8033,-2.262,-1.7271,-2.102,-1.0091,-1.4117,-1.5022,-1.7101,-1.9385,-1.6311,-2.8891,-2.3561,-1.9639,-1.6373,-1.3426,-1.9933,-2.1724,-2.2121,-1.6859,-1.3202,-2.0305,-2.402,-2.158,-2.9027,-1.448,-0.782,-0.6223
281.25,-2.9292,-2.0866,-0.7523,-2.0926,-2.5599,-1.8125,-2.3341,-1.0467,-1.5187,-1.7523,-1.8801,-2.0684,-1.9303,-3.3316,-2.513,-2.3147,-1.9278,-1.4415,-2.3272,-2.5916,-2.6654,-2.0323,-1.5189,-2.2455,-2.3282,-2.1302,-2.9807,-1.5005,-0.86,-0.6339
285.1562,-3.0904,-2.3764,-0.8257,-2.375,-2.8462,-1.9038,-2.5524,-1.0714,-1.616,-1.9982,-2.0478,-2.2216,-2.2312,-3.7383,-2.6598,-2.6551,-2.229,-1.5048,-2.6722,-2.9897,-3.0917,-2.3803,-1.725,-2.4612,-2.2676,-2.1149,-3.0555,-1.5662,-0.9125,-0.6169
289.0625,-3.146,-2.6434,-0.8829,-2.6439,-3.1163,-2.0066,-2.7593,-1.0877,-1.7092,-2.2364,-2.2165,-2.4005,-2.5292,-4.1,-2.8018,-2.9828,-2.5384,-1.5435,-3.0217,-3.3621,-3.4833,-2.7215,-1.935,-2.6756,-2.2267,-2.117,-3.133,-1.6504,-0.943,-0.5768
292.9688,-3.1128,-2.8834,-0.9364,-2.8948,-3.3659,-2.124,-2.9585,-1.1025,-1.8061,-2.4642,-2.3894,-2.6032,-2.8187,-4.41,-2.9419,-3.2952,-2.849,-1.5729,-3.3649,-3.705,-3.8339,-3.0455,-2.1443,-2.8849,-2.2099,-2.1392,-3.2181,-1.7556,-0.9585,-0.5238
296.875,-3.0219,-3.0965,-0.9997,-3.1261,-3.5916,-2.2574,-3.1536,-1.124,-1.915,-2.6789,-2.5683,-2.8239,-3.0931,-4.664,-3.08,-3.588,-3.1491,-1.608,-3.6874,-4.0144,-4.1389,-3.3402,-2.3462,-3.0843,-2.2192,-2.1819,-3.3133,-1.8811,-0.9681,-0.472
300.7812,-2.9143,-3.2848,-1.0848,-3.3368,-3.7906,-2.4061,-3.3466,-1.1608,-2.0421,-2.8781,-2.7523,-3.0531,-3.3446,-4.8594,-3.212,-3.8554,-3.4229,-1.659,-3.9733,-4.287,-4.3952,-3.5932,-2.5328,-3.2678,-2.2534,-2.2432,-3.418,-2.0225,-0.9808,-0.4352
304.6875,-2.8326,-3.4499,-1.199,-3.525,-3.9604,-2.5668,-3.5362,-1.2196,-2.1901,-3.0578,-2.9368,-3.2788,-3.5648,-4.9959,-3.3303,-4.0895,-3.6532,-1.7289,-4.207,-4.5186,-4.601,-3.793,-2.695,-3.429,-2.3081,-2.319,-3.5281,-2.1717,-1.0037,-0.4243
308.5938,-2.8109,-3.5898,-1.3438,-3.6859,-4.0978,-2.7332,-3.7163,-1.304,-2.3557,-3.2126,-3.113,-3.4876,-3.7446,-5.0754,-3.4261,-4.2813,-3.8239,-1.8138,-4.3757,-4.7053,-4.7549,-3.9306,-2.8239,-3.5619,-2.3766,-2.4038,-3.6367,-2.3185,-1.0405,-0.4446
312.5,-2.8645,-3.6985,-1.5136,-3.8127,-4.1987,-2.8947,-3.8766,-1.4125,-2.5298,-3.3349,-3.2691,-3.6668,-3.8756,-5.1014,-3.4914,-4.4224,-3.9233,-1.9046,-4.4714,-4.8427,-4.8559,-4.0008,-2.913,-3.6621,-2.4521,-2.492,-3.7357,-2.4519,-1.0907,-0.4951
316.4062,-2.9849,-3.7676,-1.6956,-3.8969,-4.2587,-3.037,-4.0034,-1.5378,-2.6982,-3.4154,-3.3913,-3.806,-3.9513,-5.0789,-3.5219,-4.5062,-3.9477,-1.9911,-4.4926,-4.9272,-4.9032,-4.0041,-2.9595,-3.7275,-2.529,-2.5792,-3.818,-2.5629,-1.1502,-0.5693
320.3125,-3.1424,-3.7888,-1.8708,-3.9314,-4.2735,-3.1443,-4.0823,-1.6676,-2.8438,-3.4453,-3.4664,-3.8983,-3.969,-5.013,-3.518,-4.5297,-3.902,-2.0639,-4.4453,-4.9561,-4.8966,-3.9463,-2.9656,-3.7592,-2.6043,-2.6629,-3.8795,-2.6459,-1.2117,-0.6565
324.2188,-3.2946,-3.7564,-2.0169,-3.9117,-4.2407,-3.2014,-4.1014,-1.7868,-2.9504,-3.4179,-3.4854,-3.9414,-3.9305,-4.9087,-3.4849,-4.4941,-3.7996,-2.1168,-4.3419,-4.9286,-4.8371,-3.8385,-2.938,-3.7613,-2.6777,-2.7422,-3.9198,-2.6996,-1.2668,-0.7444
328.125,-3.3995,-3.6689,-2.1121,-3.8371,-4.1605,-3.197,-4.0541,-1.8805,-3.0062,-3.3318,-3.4449,-3.9379,-3.8432,-4.7707,-3.4303,-4.4042,-3.6596,-2.1465,-4.1992,-4.8464,-4.7276,-3.6952,-2.8864,-3.7395,-2.7501,-2.8167,-3.9415,-2.7265,-1.3072,-0.8211
332.0312,-3.4277,-3.5306,-2.1392,-3.7116,-4.0369,-3.1274,-3.9418,-1.9368,-3.0062,-3.1924,-3.3499,-3.8944,-3.7198,-4.6047,-3.3621,-4.2685,-3.5035,-2.1531,-4.0361,-4.7145,-4.5739,-3.5325,-2.8219,-3.7007,-2.8231,-2.8857,-3.9485,-2.7316,-1.327,-0.8775
335.9375,-3.3701,-3.3521,-2.0897,-3.5443,-3.8787,-2.9979,-3.7753,-1.9498,-2.9536,-3.0128,-3.2124,-3.8203,-3.5768,-4.4191,-3.2866,-4.0986,-3.3524,-2.1389,-3.8705,-4.5422,-4.3855,-3.3673,-2.7558,-3.6519,-2.8971,-2.9472,-3.9451,-2.7205,-1.3247,-0.9096
339.8438,-3.2388,-3.1506,-1.966,-3.3494,-3.6991,-2.8235,-3.5736,-1.9203,-2.859,-2.8129,-3.0506,-3.7272,-3.4331,-4.226,-3.2075,-3.9094,-3.2243,-2.1079,-3.7186,-4.3437,-4.1765,-3.2155,-2.6985,-3.5999,-2.9717,-2.9986,-3.9343,-2.6984,-1.3037,-0.9185
343.75,-3.0611,-2.949,-1.7814,-3.1459,-3.5152,-2.6272,-3.3619,-1.856,-2.7383,-2.6168,-2.8856,-3.6263,-3.3077,-4.0415,-3.1266,-3.7192,-3.1326,-2.0656,-3.5928,-4.1375,-3.9645,-3.0913,-2.6586,-3.5509,-3.0456,-3.0366,-3.9182,-2.669,-1.2717,-0.9107
347.6562,-2.8702,-2.7728,-1.558,-2.9556,-3.3459,-2.4365,-3.1671,-1.7692,-2.6096,-2.4487,-2.7374,-3.5284,-3.2161,-3.8835,-3.0458,-3.5479,-3.0852,-2.0181,-3.5016,-3.9453,-3.7696,-3.0059,-2.6419,-3.5099,-3.1164,-3.0584,-3.8979,-2.6342,-1.2387,-0.8954
351.5625,-2.696,-2.6457,-1.3236,-2.801,-3.2089,-2.2777,-3.0126,-1.6746,-2.4896,-2.3288,-2.6219,-3.4416,-3.1687,-3.7684,-2.9685,-3.4152,-3.084,-1.9728,-3.4489,-3.7889,-3.6108,-2.9661,-2.6512,-3.4804,-3.181,-3.0618,-3.8737,-2.5943,-1.2142,-0.8818
355.4688,-2.5603,-2.584,-1.1072,-2.7006,-3.1183,-2.1717,-2.9146,-1.5859,-2.3909,-2.2692,-2.5478,-3.3713,-3.1687,-3.7087,-2.901,-3.3375,-3.1251,-1.9379,-3.4341,-3.6869,-3.5039,-2.9736,-2.6854,-3.4637,-3.2351,-3.0454,-3.8448,-2.5483,-1.205,-0.8761
359.375,-2.4755,-2.5928,-0.935,-2.6662,-3.0819,-2.13,-2.8793,-1.5134,-2.3199,-2.2726,-2.5162,-3.3194,-3.2118,-3.7106,-2.8514,-3.325,-3.1996,-1.9221,-3.4528,-3.6517,-3.4587,-3.0248,-2.7402,-3.4584,-3.2731,-3.0084,-3.8095,-2.4941,-1.2135,-0.8805
363.2812,-2.4465,-2.6656,-0.8266,-2.6999,-3.1007,-2.1533,-2.9026,-1.4636,-2.2773,-2.3316,-2.5209,-3.2845,-3.2873,-3.7735,-2.8284,-3.3797,-3.2956,-1.9327,-3.498,-3.6873,-3.4779,-3.1111,-2.8088,-3.461,-3.2882,-2.95,-3.7652,-2.4292,-1.2385,-0.8929
367.1875,-2.4722,-2.7861,-0.793,-2.7937,-3.1689,-2.2323,-2.9722,-1.4389,-2.2593,-2.4318,-2.5513,-3.2624,-3.3806,-3.8912,-2.838,-3.4949,-3.4002,-1.9737,-3.5612,-3.7885,-3.5569,-3.2202,-2.8819,-3.4664,-3.2736,-2.8699,-3.7087,-2.3514,-1.2756,-0.9086
371.0938,-2.5476,-2.9332,-0.8356,-2.9319,-3.2756,-2.3506,-3.071,-1.4384,-2.2594,-2.5543,-2.5943,-3.2472,-3.4755,-4.0528,-2.8812,-3.6558,-3.5017,-2.0439,-3.6333,-3.9418,-3.6844,-3.338,-2.9498,-3.4691,-3.2241,-2.7685,-3.637,-2.2595,-1.3192,-0.9227
375,-2.6636,-3.0865,-0.9467,-3.0943,-3.407,-2.4883,-3.1804,-1.459,-2.2707,-2.6802,-2.6376,-3.2328,-3.5564,-4.2448,-2.9531,-3.8424,-3.591,-2.136,-3.7056,-4.127,-3.8435,-3.45,-3.0027,-3.4642,-3.1376,-2.6475,-3.5481,-2.1542,-1.364,-0.9318
378.9062,-2.8074,-3.2304,-1.1119,-3.2606,-3.5479,-2.6265,-3.2834,-1.4959,-2.2873,-2.7926,-2.6712,-3.2143,-3.6105,-4.4516,-3.0428,-4.0314,-3.6619,-2.2382,-3.7694,-4.3206,-4.0137,-3.543,-3.0322,-3.4477,-3.0162,-2.5104,-3.4422,-2.0386,-1.4056,-0.9353
382.8125,-2.9627,-3.3558,-1.3113,-3.4136,-3.6835,-2.7495,-3.3664,-1.5426,-2.3044,-2.8794,-2.6892,-3.1887,-3.6284,-4.6568,-3.1356,-4.2001,-3.7106,-2.3366,-3.8164,-4.4983,-4.1726,-3.6059,-3.0316,-3.4173,-2.8673,-2.363,-3.3213,-1.918,-1.4416,-0.9356
386.7188,-3.1115,-3.4592,-1.5227,-3.5404,-3.7996,-2.8461,-3.4199,-1.5918,-2.3187,-2.9331,-2.6894,-3.1556,-3.6043,-4.8437,-3.2157,-4.3285,-3.7355,-2.4185,-3.8386,-4.6382,-4.2985,-3.6304,-2.9978,-3.3722,-2.7021,-2.2135,-3.1899,-1.7996,-1.4706,-0.937
390.625,-3.2351,-3.5412,-1.7239,-3.6337,-3.8841,-2.9104,-3.4388,-1.6353,-2.3276,-2.9515,-2.6737,-3.1167,-3.5364,-4.9969,-3.2708,-4.4027,-3.7365,-2.4756,-3.8295,-4.7236,-4.3728,-3.6121,-2.9312,-3.3129,-2.5353,-2.0714,-3.0546,-1.6918,-1.4929,-0.9444
394.5312,-3.3163,-3.604,-1.8954,-3.6907,-3.9276,-2.9411,-3.422,-1.6661,-2.3296,-2.9367,-2.6466,-3.0755,-3.4273,-5.1035,-3.2944,-4.4162,-3.7159,-2.5059,-3.786,-4.7452,-4.3838,-3.5514,-2.8375,-3.2422,-2.3824,-1.9468,-2.9233,-1.6027,-1.51,-0.9622
398.4375,-3.3413,-3.6492,-2.0228,-3.713,-3.9253,-2.941,-3.3722,-1.6796,-2.3239,-2.8939,-2.6142,-3.0366,-3.2841,-5.1553,-3.2877,-4.3712,-3.6783,-2.5133,-3.71,-4.7024,-4.3284,-3.4539,-2.7271,-3.1643,-2.2583,-1.8495,-2.8044,-1.5397,-1.5235,-0.9924
402.3438,-3.3031,-3.6772,-2.0987,-3.7051,-3.8776,-2.9157,-3.2949,-1.6744,-2.31,-2.8308,-2.5828,-3.0041,-3.1176,-5.1495,-3.2586,-4.2773,-3.6306,-2.5063,-3.6084,-4.6032,-4.213,-3.3302,-2.6144,-3.0848,-2.1748,-1.787,-2.7059,-1.5081,-1.535,-1.034
406.25,-3.2034,-3.686,-2.1222,-3.6729,-3.7902,-2.8721,-3.1977,-1.6525,-2.2874,-2.7555,-2.5573,-2.9813,-2.9412,-5.0891,-3.2187,-4.1494,-3.5803,-2.4936,-3.4926,-4.4621,-4.0525,-3.1946,-2.5152,-3.0095,-2.139,-1.7639,-2.633,-1.5102,-1.5448,-1.0825
410.1562,-3.0541,-3.6713,-2.099,-3.6222,-3.6729,-2.8173,-3.0886,-1.6187,-2.2557,-2.6758,-2.5403,-2.9693,-2.7676,-4.9812,-3.1794,-4.0032,-3.5335,-2.4821,-3.3757,-4.2971,-3.8663,-3.0623,-2.4422,-2.9432,-2.1524,-1.7803,-2.5878,-1.5448,-1.5515,-1.1309
414.0625,-2.8764,-3.6282,-2.0384,-3.5578,-3.5379,-2.7572,-2.9755,-1.5795,-2.2151,-2.5983,-2.5316,-2.9679,-2.6072,-4.8357,-3.1476,-3.8525,-3.4933,-2.4742,-3.2691,-4.1261,-3.675,-2.9461,-2.4027,-2.888,-2.2102,-1.8317,-2.5677,-1.6073,-1.5519,-1.1706
417.9688,-2.6964,-3.5535,-1.952,-3.483,-3.3975,-2.6956,-2.8656,-1.5419,-2.1674,-2.5286,-2.5296,-2.9748,-2.4664,-4.6624,-3.1229,-3.7059,-3.4587,-2.4684,-3.1807,-3.9632,-3.4953,-2.8539,-2.3961,-2.8432,-2.3019,-1.9094,-2.5669,-1.6904,-1.5421,-1.1941
421.875,-2.5394,-3.4484,-1.8509,-3.4007,-3.2629,-2.6344,-2.7646,-1.5121,-2.116,-2.4708,-2.5317,-2.9874,-2.3474,-4.4699,-3.0967,-3.5668,-3.4244,-2.4598,-3.113,-3.8173,-3.3383,-2.7872,-2.4143,-2.8055,-2.4129,-2.0013,-2.5773,-1.785,-1.5172,-1.1959
425.7812,-2.4236,-3.3199,-1.7443,-3.3139,-3.1433,-2.574,-2.6774,-1.495,-2.0666,-2.4284,-2.5362,-3.0025,-2.25,-4.2653,-3.0552,-3.4337,-3.3823,-2.4419,-3.0633,-3.6911,-3.2083,-2.7416,-2.4439,-2.7707,-2.5264,-2.0942,-2.5908,-1.882,-1.473,-1.1737
429.6875,-2.356,-3.18,-1.6387,-3.2261,-3.0448,-2.514,-2.608,-1.4932,-2.026,-2.4039,-2.5422,-3.0176,-2.1732,-4.055,-2.9839,-3.302,-3.3226,-2.4074,-3.0248,-3.5821,-3.1043,-2.7085,-2.469,-2.7347,-2.6257,-2.1754,-2.6009,-1.9728,-1.4065,-1.1278
433.5938,-2.331,-3.0435,-1.5384,-3.1408,-2.9713,-2.4543,-2.5598,-1.5069,-2.0011,-2.3995,-2.5507,-3.0311,-2.1183,-3.8462,-2.8729,-3.1672,-3.237,-2.3507,-2.9889,-3.4845,-3.0222,-2.678,-2.4752,-2.6961,-2.6963,-2.2348,-2.6043,-2.0505,-1.3168,-1.0604
437.5,-2.3324,-2.9237,-1.4458,-3.0615,-2.9244,-2.3956,-2.5358,-1.5341,-1.9974,-2.4164,-2.5638,-3.0427,-2.0891,-3.6481,-2.7216,-3.0266,-3.1206,-2.2694,-2.9483,-3.3927,-2.9578,-2.642,-2.4525,-2.6565,-2.7281,-2.2663,-2.6004,-2.1108,-1.2058,-0.9753
441.4062,-2.3389,-2.8295,-1.3625,-2.9909,-2.9041,-2.3404,-2.5383,-1.5718,-2.0183,-2.4555,-2.5838,-3.0527,-2.0924,-3.4724,-2.5392,-2.8815,-2.9746,-2.1666,-2.8993,-3.3031,-2.9093,-2.5972,-2.3978,-2.6207,-2.716,-2.2677,-2.5914,-2.1517,-1.0792,-0.877
445.3125,-2.3311,-2.7637,-1.2896,-2.9308,-2.9089,-2.2917,-2.5687,-1.6165,-2.0645,-2.5165,-2.6125,-3.0615,-2.1351,-3.3322,-2.3433,-2.7383,-2.8071,-2.0514,-2.8438,-3.2165,-2.878,-2.5462,-2.3161,-2.5951,-2.6608,-2.2405,-2.5811,-2.1735,-0.9457,-0.7712
449.2188,-2.2973,-2.7224,-1.228,-2.8817,-2.9355,-2.2527,-2.6261,-1.6649,-2.1337,-2.5974,-2.6499,-3.0689,-2.2214,-3.2392,-2.1549,-2.6069,-2.6328,-1.9381,-2.7889,-3.1374,-2.8671,-2.4968,-2.2194,-2.5857,-2.5679,-2.1887,-2.5731,-2.1775,-0.8167,-0.6641
453.125,-2.2378,-2.6964,-1.1783,-2.8429,-2.9786,-2.2251,-2.7063,-1.7145,-2.2215,-2.6937,-2.6937,-3.0729,-2.3493,-3.2011,-1.9938,-2.4985,-2.4699,-1.8428,-2.7445,-3.0729,-2.88,-2.4592,-2.1238,-2.5959,-2.4467,-2.1176,-2.5697,-2.1651,-0.7038,-0.5628
457.0312,-2.164,-2.674,-1.1403,-2.8127,-3.0306,-2.2081,-2.8018,-1.7629,-2.3217,-2.7982,-2.7398,-3.0703,-2.5086,-3.2182,-1.874,-2.4216,-2.336,-1.7787,-2.7201,-3.0293,-2.9166,-2.442,-2.0447,-2.6244,-2.3093,-2.0332,-2.5713,-2.1381,-0.6176,-0.4739
460.9375,-2.0939,-2.6437,-1.1137,-2.7884,-3.0817,-2.1984,-2.9014,-1.8078,-2.4272,-2.9015,-2.7834,-3.0573,-2.6808,-3.2823,-1.8014,-2.3798,-2.2436,-1.7522,-2.7204,-3.0093,-2.9715,-2.4486,-1.9925,-2.665,-2.1686,-1.9406,-2.5754,-2.0978,-0.5647,-0.4029
464.8438,-2.0457,-2.5977,-1.0977,-2.7674,-3.1208,-2.1907,-2.9917,-1.8468,-2.5306,-2.9929,-2.8197,-3.0307,-2.8418,-3.3772,-1.7729,-2.3693,-2.1963,-1.7606,-2.7435,-3.0102,-3.0333,-2.475,-1.9694,-2.7075,-2.0365,-1.8447,-2.5772,-2.0463,-0.5469,-0.3533
468.75,-2.031,-2.5336,-1.0905,-2.7474,-3.1369,-2.1793,-3.059,-1.8772,-2.6245,-3.0621,-2.8453,-2.9891,-2.9656,-3.48,-1.7785,-2.3796,-2.1884,-1.7929,-2.78,-3.0231,-3.0857,-2.5101,-1.9694,-2.7396,-1.9228,-1.7489,-2.5702,-1.9858,-0.5606,-0.3262
472.6562,-2.0516,-2.4549,-1.0886,-2.7259,-3.1203,-2.1591,-3.091,-1.8961,-2.7017,-3.1001,-2.8577,-2.9331,-3.0299,-3.5656,-1.8038,-2.3959,-2.2055,-1.8328,-2.815,-3.0351,-3.1109,-2.538,-1.98,-2.7493,-1.834,-1.656,-2.5476,-1.9194,-0.5982,-0.3207
476.5625,-2.0983,-2.3692,-1.0863,-2.7,-3.0643,-2.1269,-3.0792,-1.9006,-2.7559,-3.1006,-2.8558,-2.8657,-3.0205,-3.6097,-1.8334,-2.4018,-2.2288,-1.8633,-2.8325,-3.0312,-3.093,-2.542,-1.9866,-2.7281,-1.7734,-1.5685,-2.5038,-1.851,-0.6496,-0.334
480.4688,-2.1541,-2.2846,-1.0753,-2.6652,-2.9659,-2.0817,-3.0204,-1.8886,-2.782,-3.061,-2.8394,-2.7919,-2.9338,-3.5934,-1.8537,-2.3834,-2.2391,-1.8726,-2.8186,-2.998,-3.0213,-2.5085,-1.9769,-2.6719,-1.7417,-1.4892,-2.4365,-1.7851,-0.7044,-0.3622
484.375,-2.1988,-2.2063,-1.0462,-2.6159,-2.8262,-2.0244,-2.917,-1.859,-2.7772,-2.9828,-2.8089,-2.7179,-2.7775,-3.5058,-1.8547,-2.3316,-2.2211,-1.8565,-2.7653,-2.9265,-2.8922,-2.4302,-1.9434,-2.5824,-1.7375,-1.4217,-2.3469,-1.7267,-0.7533,-0.4003
488.2812,-2.2149,-2.1345,-0.9904,-2.5461,-2.6505,-1.9576,-2.7765,-1.8128,-2.7418,-2.8707,-2.7653,-2.65,-2.5677,-3.3457,-1.8309,-2.2435,-2.1649,-1.8197,-2.6715,-2.8141,-2.7107,-2.3072,-1.885,-2.466,-1.7576,-1.3698,-2.2406,-1.68,-0.7887,-0.4423
492.1875,-2.1919,-2.0636,-0.9026,-2.4509,-2.4476,-1.8841,-2.6109,-1.7537,-2.6797,-2.7318,-2.7102,-2.5934,-2.3253,-3.1216,-1.7818,-2.1223,-2.0675,-1.7728,-2.5428,-2.6645,-2.4883,-2.1469,-1.806,-2.332,-1.7974,-1.3376,-2.1263,-1.648,-0.8052,-0.4811
496.0938,-2.1283,-1.9838,-0.7825,-2.3284,-2.2292,-1.8068,-2.4342,-1.6881,-2.5978,-2.5745,-2.6456,-2.5511,-2.0715,-2.8505,-1.7113,-1.976,-1.9319,-1.7291,-2.3895,-2.4876,-2.2418,-1.9625,-1.7143,-2.1911,-1.8511,-1.3278,-2.0142,-1.6313,-0.7999,-0.5097
500,-2.0304,-1.8839,-0.6354,-2.1812,-2.009,-1.7287,-2.2613,-1.6251,-2.5059,-2.4075,-2.5745,-2.5235,-1.8245,-2.5561,-1.6261,-1.8157,-1.7662,-1.6995,-2.2248,-2.2967,-1.99,-1.7701,-1.6193,-2.0534,-1.9113,-1.341,-1.9137,-1.6285,-0.7726,-0.5224
503.9062,-1.9095,-1.7562,-0.4716,-2.0169,-1.8014,-1.6526,-2.106,-1.5749,-2.4152,-2.2396,-2.5006,-2.5087,-1.5973,-2.2659,-1.5336,-1.6541,-1.583,-1.6898,-2.0621,-2.1072,-1.7514,-1.5861,-1.53,-1.927,-1.9707,-1.3752,-1.8319,-1.6357,-0.727,-0.5165
507.8125,-1.7788,-1.5989,-0.3048,-1.8475,-1.6202,-1.582,-1.9797,-1.5465,-2.3364,-2.0786,-2.4285,-2.5026,-1.3976,-2.0076,-1.4398,-1.5037,-1.397,-1.6984,-1.9129,-1.9337,-1.5415,-1.4245,-1.453,-1.8179,-2.0217,-1.4255,-1.7726,-1.6482,-0.6693,-0.4934
511.7188,-1.651,-1.4186,-0.1502,-1.6876,-1.4766,-1.5212,-1.8898,-1.5456,-2.278,-1.9319,-2.3625,-2.5002,-1.2288,-1.8058,-1.3483,-1.3756,-1.2237,-1.7167,-1.7857,-1.7888,-1.3715,-1.2951,-1.392,-1.7294,-2.0586,-1.485,-1.7353,-1.6606,-0.6084,-0.4584
515.625,-1.5365,-1.2292,-0.0221,-1.5524,-1.3783,-1.4741,-1.8385,-1.5725,-2.2434,-1.8045,-2.3063,-2.4964,-1.0915,-1.6783,-1.2604,-1.2787,-1.0772,-1.7312,-1.6855,-1.6813,-1.2476,-1.2025,-1.3472,-1.6626,-2.0772,-1.5453,-1.7164,-1.6682,-0.5539,-0.4204
519.5312,-1.4425,-1.0504,0.068,-1.4551,-1.3286,-1.4443,-1.8231,-1.6209,-2.2304,-1.6997,-2.2611,-2.4871,-0.9849,-1.6334,-1.1774,-1.2194,-0.969,-1.7284,-1.6149,-1.6161,-1.1712,-1.1465,-1.3168,-1.6169,-2.0762,-1.598,-1.7101,-1.667,-0.5157,-0.39
523.4375,-1.3725,-0.904,0.1126,-1.4052,-1.3258,-1.4333,-1.8353,-1.6788,-2.2305,-1.6174,-2.2257,-2.4692,-0.9074,-1.669,-1.1023,-1.201,-0.9076,-1.6993,-1.5754,-1.5943,-1.1401,-1.1242,-1.2982,-1.5904,-2.0567,-1.6364,-1.7103,-1.6549,-0.5017,-0.3778
527.3438,-1.3258,-0.8104,0.1101,-1.4062,-1.3638,-1.4401,-1.8639,-1.7306,-2.2312,-1.555,-2.1961,-2.4414,-0.8578,-1.773,-1.0412,-1.2241,-0.8981,-1.6427,-1.5683,-1.6142,-1.1498,-1.1316,-1.2897,-1.5811,-2.023,-1.6564,-1.7123,-1.6312,-0.5173,-0.3921
531.25,-1.298,-0.784,0.0648,-1.4556,-1.4323,-1.4609,-1.896,-1.7609,-2.2188,-1.5077,-2.1665,-2.4046,-0.8347,-1.9256,-1.0023,-1.2868,-0.9423,-1.5671,-1.5949,-1.6716,-1.1945,-1.1645,-1.2914,-1.587,-1.9817,-1.6576,-1.7138,-1.5978,-0.5639,-0.4372
535.1562,-1.2833,-0.8304,-0.0128,-1.5443,-1.5186,-1.4892,-1.9206,-1.758,-2.1825,-1.4702,-2.1316,-2.3614,-0.8363,-2.1024,-0.9941,-1.3839,-1.0379,-1.4878,-1.6547,-1.7604,-1.2675,-1.2192,-1.3048,-1.6064,-1.9414,-1.6437,-1.7158,-1.5584,-0.6383,-0.5121
539.0625,-1.2756,-0.9441,-0.1075,-1.6583,-1.6084,-1.5168,-1.9301,-1.7173,-2.1183,-1.4379,-2.088,-2.3164,-0.8604,-2.2772,-1.0221,-1.5071,-1.1772,-1.4235,-1.7438,-1.8728,-1.3611,-1.2914,-1.3316,-1.6378,-1.9115,-1.6215,-1.7216,-1.5183,-0.7331,-0.6098
542.9688,-1.2705,-1.1082,-0.2017,-1.7805,-1.6885,-1.5349,-1.9219,-1.6425,-2.0311,-1.4082,-2.0356,-2.2755,-0.9035,-2.4263,-1.086,-1.6447,-1.3464,-1.3899,-1.8533,-1.9988,-1.4668,-1.3752,-1.3713,-1.6791,-1.9005,-1.5991,-1.7358,-1.4833,-0.8372,-0.719
546.875,-1.2662,-1.297,-0.2778,-1.8939,-1.7478,-1.5359,-1.8986,-1.5449,-1.9337,-1.3809,-1.9779,-2.2451,-0.9614,-2.5308,-1.1784,-1.7822,-1.5261,-1.3958,-1.9697,-2.1268,-1.5749,-1.4627,-1.4201,-1.7276,-1.9142,-1.5845,-1.7621,-1.4585,-0.9377,-0.825
550.7812,-1.2641,-1.4795,-0.3217,-1.9835,-1.7795,-1.515,-1.8663,-1.4403,-1.844,-1.3578,-1.921,-2.2304,-1.0286,-2.5791,-1.2855,-1.9029,-1.6925,-1.4402,-2.0758,-2.2436,-1.6753,-1.5439,-1.4706,-1.7796,-1.955,-1.5832,-1.8026,-1.4473,-1.0211,-0.9122
554.6875,-1.2681,-1.6247,-0.3249,-2.038,-1.7804,-1.4712,-1.8326,-1.3455,-1.7799,-1.3413,-1.8722,-2.2347,-1.0985,-2.568,-1.3881,-1.9902,-1.8206,-1.5128,-2.1533,-2.3358,-1.7582,-1.6078,-1.5131,-1.8307,-2.021,-1.5972,-1.8564,-1.45,-1.0761,-0.9671
558.5938,-1.2832,-1.7061,-0.2861,-2.0507,-1.7514,-1.407,-1.8043,-1.2745,-1.7547,-1.333,-1.8379,-2.2577,-1.164,-2.5023,-1.4651,-2.0287,-1.888,-1.5963,-2.1859,-2.391,-1.8148,-1.6438,-1.5376,-1.8758,-2.1067,-1.6252,-1.9197,-1.4644,-1.0947,-0.9802
562.5,-1.3136,-1.7064,-0.2108,-2.0203,-1.6956,-1.3281,-1.7857,-1.2357,-1.7739,-1.3331,-1.8224,-2.2953,-1.2178,-2.393,-1.4965,-2.0073,-1.879,-1.6713,-2.1622,-2.3994,-1.8389,-1.6441,-1.5362,-1.91,-2.2037,-1.6624,-1.9861,-1.4855,-1.0743,-0.9487
566.4062,-1.3594,-1.6208,-0.1101,-1.9507,-1.6187,-1.2417,-1.7774,-1.2313,-1.8335,-1.3395,-1.8272,-2.3402,-1.2526,-2.2557,-1.4682,-1.9216,-1.7882,-1.7212,-2.0787,-2.3563,-1.8278,-1.6045,-1.5051,-1.9286,-2.3026,-1.7023,-2.0473,-1.5064,-1.0185,-0.8772
570.3125,-1.4157,-1.4593,0.0021,-1.8514,-1.5283,-1.1563,-1.7769,-1.2578,-1.9217,-1.3488,-1.851,-2.383,-1.2626,-2.1074,-1.3756,-1.7756,-1.6229,-1.7366,-1.9404,-2.2632,-1.7831,-1.5259,-1.4452,-1.9277,-2.3936,-1.7375,-2.0944,-1.5196,-0.9372,-0.7777
574.2188,-1.471,-1.2455,0.1111,-1.7364,-1.4333,-1.0805,-1.7794,-1.3079,-2.0216,-1.3573,-1.8909,-2.4143,-1.244,-1.9641,-1.2255,-1.5821,-1.4018,-1.7164,-1.7614,-2.1284,-1.7106,-1.4141,-1.3617,-1.9048,-2.468,-1.7613,-2.1189,-1.5183,-0.8456,-0.6677
578.125,-1.5084,-1.0138,0.2033,-1.6224,-1.3442,-1.0231,-1.7797,-1.3728,-2.1154,-1.3621,-1.9431,-2.4275,-1.196,-1.8388,-1.0357,-1.3613,-1.1526,-1.667,-1.5616,-1.9661,-1.6191,-1.2796,-1.2632,-1.8588,-2.5185,-1.7687,-2.1153,-1.4984,-0.7611,-0.5672
582.0312,-1.508,-0.8025,0.2675,-1.5255,-1.2711,-0.992,-1.7736,-1.4445,-2.1881,-1.3621,-2.0046,-2.4205,-1.1214,-1.7401,-0.8317,-1.1365,-0.9058,-1.5985,-1.3633,-1.7937,-1.5187,-1.135,-1.1591,-1.791,-2.5399,-1.7582,-2.0825,-1.4601,-0.7009,-0.495
585.9375,-1.4517,-0.6463,0.296,-1.4575,-1.2225,-0.9934,-1.7594,-1.5166,-2.23,-1.3587,-2.0731,-2.3968,-1.0265,-1.6713,-0.6408,-0.9301,-0.6882,-1.52,-1.1863,-1.6285,-1.4188,-0.9939,-1.0584,-1.7056,-2.5302,-1.7315,-2.0252,-1.4086,-0.6785,-0.4648
589.8438,-1.3291,-0.5687,0.2858,-1.4235,-1.2031,-1.0295,-1.7379,-1.5851,-2.239,-1.3553,-2.1472,-2.365,-0.9196,-1.6306,-0.486,-0.7584,-0.5175,-1.4374,-1.044,-1.484,-1.3259,-0.8673,-0.9681,-1.6091,-2.4908,-1.6939,-1.9537,-1.3537,-0.701,-0.4831
593.75,-1.1427,-0.5762,0.2396,-1.4212,-1.213,-1.0979,-1.7124,-1.6489,-2.2201,-1.3562,-2.2258,-2.3369,-0.8094,-1.6113,-0.3803,-0.6283,-0.3984,-1.3514,-0.9397,-1.3671,-1.2423,-0.762,-0.892,-1.5098,-2.4267,-1.6532,-1.8815,-1.3077,-0.7677,-0.5481
597.6562,-0.9097,-0.6583,0.1659,-1.4411,-1.2473,-1.1908,-1.6877,-1.7088,-2.184,-1.3662,-2.3077,-2.3241,-0.7032,-1.6036,-0.3235,-0.5367,-0.3231,-1.2597,-0.8665,-1.2768,-1.166,-0.6787,-0.8303,-1.416,-2.3461,-1.6174,-1.8225,-1.2829,-0.8699,-0.6501
601.5625,-0.6595,-0.79,0.0781,-1.4701,-1.2968,-1.2963,-1.6682,-1.767,-2.1449,-1.3887,-2.3911,-2.3349,-0.6056,-1.5968,-0.3031,-0.4717,-0.2742,-1.1593,-0.8094,-1.2046,-1.0917,-0.6125,-0.7802,-1.3348,-2.2588,-1.5932,-1.7877,-1.2875,-0.992,-0.774
605.4688,-0.4282,-0.9384,-0.008,-1.4941,-1.3502,-1.3999,-1.6572,-1.8256,-2.1168,-1.4248,-2.473,-2.3715,-0.5184,-1.5819,-0.2978,-0.4166,-0.2302,-1.0483,-0.7498,-1.1375,-1.0125,-0.5549,-0.7364,-1.2701,-2.1747,-1.5838,-1.7819,-1.3241,-1.1141,-0.9013
609.375,-0.2492,-1.0706,-0.0771,-1.5012,-1.3953,-1.4873,-1.6549,-1.8852,-2.1105,-1.4723,-2.5497,-2.4295,-0.4413,-1.5542,-0.2841,-0.355,-0.1711,-0.9271,-0.6706,-1.0617,-0.9226,-0.4959,-0.6921,-1.2223,-2.1014,-1.5878,-1.8025,-1.388,-1.2159,-1.0131
613.2812,-0.1449,-1.16,-0.1173,-1.4836,-1.4216,-1.5466,-1.6593,-1.9447,-2.1313,-1.5266,-2.6168,-2.4984,-0.3735,-1.514,-0.2432,-0.2755,-0.084,-0.7979,-0.5612,-0.9665,-0.8187,-0.4271,-0.6408,-1.1881,-2.0423,-1.5986,-1.8398,-1.4677,-1.2797,-1.093
617.1875,-0.1206,-1.1916,-0.1219,-1.4387,-1.4216,-1.5702,-1.666,-2.0009,-2.1784,-1.5807,-2.6701,-2.5642,-0.3141,-1.4658,-0.1667,-0.1745,0.0344,-0.6642,-0.4194,-0.8474,-0.7016,-0.3439,-0.5771,-1.1611,-1.996,-1.6053,-1.8785,-1.5474,-1.2947,-1.1295
621.0938,-0.1627,-1.1641,-0.091,-1.3694,-1.3926,-1.5563,-1.6705,-2.0502,-2.2457,-1.6272,-2.7063,-2.6127,-0.2638,-1.4171,-0.0586,-0.0572,0.1766,-0.5307,-0.2521,-0.7081,-0.5764,-0.2464,-0.4989,-1.1335,-1.9558,-1.5944,-1.9013,-1.6094,-1.2588,-1.1178
625,-0.2429,-1.0895,-0.0307,-1.2842,-1.3375,-1.5092,-1.6693,-2.0889,-2.3235,-1.6591,-2.7236,-2.6327,-0.2243,-1.3755,0.066,0.0631,0.326,-0.4039,-0.0731,-0.5596,-0.4516,-0.1395,-0.4077,-1.0978,-1.9119,-1.5526,-1.8926,-1.6382,-1.1791,-1.0607
628.9062,-0.3271,-0.9888,0.0473,-1.1955,-1.2647,-1.4386,-1.6611,-2.1145,-2.4004,-1.6717,-2.722,-2.6185,-0.1985,-1.348,0.1859,0.1687,0.4607,-0.2923,0.099,-0.418,-0.3381,-0.0317,-0.3096,-1.0479,-1.8533,-1.4699,-1.8417,-1.6229,-1.0703,-0.9682
632.8125,-0.3865,-0.8868,0.1281,-1.1175,-1.1865,-1.3583,-1.6467,-2.1265,-2.4658,-1.6624,-2.7028,-2.5702,-0.1892,-1.3396,0.2799,0.2417,0.5584,-0.2062,0.2458,-0.3013,-0.2471,0.0664,-0.2136,-0.981,-1.7715,-1.342,-1.746,-1.5595,-0.9518,-0.8561
636.7188,-0.4062,-0.8051,0.1967,-1.0623,-1.1163,-1.2829,-1.6287,-2.1264,-2.5108,-1.6309,-2.6683,-2.4931,-0.1991,-1.3533,0.3329,0.2688,0.6016,-0.1554,0.352,-0.2241,-0.1878,0.1452,-0.1295,-0.898,-1.6627,-1.1723,-1.6108,-1.451,-0.8429,-0.7426
640.625,-0.3888,-0.7564,0.2414,-1.0371,-1.065,-1.2249,-1.6094,-2.1173,-2.5292,-1.5783,-2.6206,-2.3959,-0.2293,-1.3894,0.3394,0.2449,0.5824,-0.1464,0.4091,-0.1948,-0.1653,0.1984,-0.0647,-0.8032,-1.5294,-0.9711,-1.4492,-1.3062,-0.7591,-0.6443
644.5312,-0.3509,-0.7429,0.2574,-1.0419,-1.0384,-1.1917,-1.5902,-2.103,-2.5181,-1.5068,-2.5611,-2.2886,-0.2791,-1.4455,0.3047,0.1748,0.5041,-0.1788,0.4172,-0.2127,-0.1793,0.2243,-0.0225,-0.7038,-1.3804,-0.7549,-1.2786,-1.138,-0.708,-0.5726
648.4375,-0.3144,-0.7569,0.2486,-1.0696,-1.0358,-1.1842,-1.5704,-2.0872,-2.4777,-1.4186,-2.4906,-2.1797,-0.3456,-1.5164,0.2425,0.0724,0.3808,-0.2445,0.3844,-0.2685,-0.2237,0.2258,-0.0016,-0.6088,-1.2294,-0.5433,-1.1185,-0.9605,-0.6888,-0.5312
652.3438,-0.2982,-0.7851,0.2267,-1.1082,-1.0506,-1.1975,-1.5476,-2.0723,-2.411,-1.3164,-2.4089,-2.0755,-0.4233,-1.5952,0.1713,-0.0425,0.2345,-0.3283,0.3246,-0.3465,-0.288,0.2091,0.003,-0.5275,-1.0924,-0.3559,-0.9866,-0.7873,-0.6929,-0.5162
656.25,-0.3106,-0.8133,0.2087,-1.1437,-1.0726,-1.2225,-1.5182,-2.059,-2.3224,-1.2032,-2.3153,-1.9789,-0.5048,-1.6739,0.1099,-0.1487,0.0897,-0.4122,0.2534,-0.4282,-0.3596,0.1812,-0.0027,-0.4684,-0.9847,-0.209,-0.8965,-0.6297,-0.706,-0.5176
660.1562,-0.3474,-0.8306,0.2109,-1.1642,-1.0908,-1.2489,-1.479,-2.0458,-2.2175,-1.0831,-2.2098,-1.8901,-0.5814,-1.7451,0.0733,-0.228,-0.0311,-0.4797,0.1851,-0.4967,-0.4262,0.1476,-0.0134,-0.4377,-0.9181,-0.1134,-0.8548,-0.496,-0.7122,-0.522
664.0625,-0.3953,-0.8308,0.2441,-1.1623,-1.0966,-1.2685,-1.4288,-2.0298,-2.1016,-0.9609,-2.0933,-1.807,-0.6442,-1.8031,0.0698,-0.2686,-0.112,-0.5201,0.1295,-0.5393,-0.4778,0.1116,-0.0264,-0.4381,-0.8984,-0.073,-0.861,-0.3913,-0.6976,-0.5168
667.9688,-0.4375,-0.8125,0.3097,-1.136,-1.0854,-1.2768,-1.369,-2.0084,-1.9803,-0.8431,-1.9689,-1.7278,-0.6855,-1.8444,0.0995,-0.2661,-0.1457,-0.5307,0.0918,-0.5498,-0.5077,0.0742,-0.0411,-0.4678,-0.925,-0.0843,-0.9072,-0.3174,-0.6531,-0.4926
671.875,-0.4596,-0.777,0.3992,-1.0883,-1.0573,-1.274,-1.3038,-1.9807,-1.8594,-0.7369,-1.8426,-1.6519,-0.6997,-1.8681,0.1548,-0.2232,-0.1332,-0.5153,0.0731,-0.5276,-0.5124,0.0357,-0.0579,-0.5205,-0.9904,-0.1383,-0.9799,-0.274,-0.5762,-0.4453
675.7812,-0.4541,-0.7266,0.4963,-1.0252,-1.0157,-1.264,-1.2397,-1.9482,-1.7458,-0.6496,-1.7229,-1.581,-0.6843,-1.8745,0.2225,-0.1469,-0.0819,-0.4812,0.0722,-0.4766,-0.4909,-0.0028,-0.0768,-0.5862,-1.0818,-0.2217,-1.0622,-0.259,-0.4713,-0.3756
679.6875,-0.422,-0.662,0.5821,-0.9532,-0.9661,-1.2527,-1.1837,-1.9156,-1.6468,-0.5869,-1.6202,-1.5192,-0.6401,-1.8654,0.2883,-0.0462,-0.0024,-0.4352,0.0876,-0.4027,-0.4439,-0.0382,-0.0962,-0.6524,-1.184,-0.3202,-1.1367,-0.2695,-0.3477,-0.2884
683.5938,-0.3724,-0.5833,0.6404,-0.8778,-0.9144,-1.2456,-1.1422,-1.8889,-1.5696,-0.5522,-1.5444,-1.472,-0.5718,-1.843,0.341,0.0698,0.094,-0.3809,0.1182,-0.3129,-0.3735,-0.0655,-0.1134,-0.7068,-1.2825,-0.4204,-1.188,-0.3022,-0.2171,-0.191
687.5,-0.3199,-0.4904,0.6615,-0.8036,-0.8665,-1.247,-1.1196,-1.8747,-1.5203,-0.5456,-1.5035,-1.4446,-0.4872,-1.8096,0.3756,0.1925,0.1966,-0.3195,0.1627,-0.2144,-0.2835,-0.0793,-0.1251,-0.7397,-1.3664,-0.512,-1.2058,-0.3537,-0.0911,-0.0916
691.4062,-0.2801,-0.3857,0.6434,-0.7352,-0.8277,-1.2587,-1.118,-1.8786,-1.5021,-0.564,-1.502,-1.4407,-0.3969,-1.7683,0.3938,0.3138,0.2962,-0.2515,0.2185,-0.1146,-0.1805,-0.0758,-0.1298,-0.7468,-1.4313,-0.5892,-1.1867,-0.4204,0.0208,0.0011
695.3125,-0.2653,-0.2761,0.5905,-0.678,-0.8027,-1.2803,-1.1376,-1.9033,-1.5153,-0.6027,-1.5397,-1.4615,-0.3129,-1.7224,0.4021,0.4244,0.3844,-0.1799,0.2805,-0.022,-0.0735,-0.0557,-0.1282,-0.7301,-1.4797,-0.6512,-1.1345,-0.4991,0.1121,0.0788
699.2188,-0.2805,-0.1731,0.5113,-0.6385,-0.795,-1.31,-1.1764,-1.9489,-1.5567,-0.6556,-1.6123,-1.5055,-0.2461,-1.6755,0.4075,0.514,0.4533,-0.1118,0.3406,0.0545,0.0262,-0.024,-0.1239,-0.6973,-1.5203,-0.7021,-1.0597,-0.587,0.1792,0.1337
703.125,-0.3215,-0.0917,0.4169,-0.6227,-0.8057,-1.3442,-1.231,-2.0115,-1.62,-0.7172,-1.7119,-1.5683,-0.2049,-1.6303,0.4148,0.5721,0.4956,-0.0582,0.3887,0.1065,0.1077,0.01,-0.1223,-0.6599,-1.5649,-0.7493,-0.9769,-0.6816,0.2211,0.1599
707.0312,-0.3754,-0.0464,0.3194,-0.634,-0.8329,-1.3778,-1.2961,-2.0843,-1.6967,-0.7832,-1.828,-1.6436,-0.1925,-1.588,0.4239,0.5901,0.5053,-0.0317,0.4148,0.128,0.1632,0.0362,-0.1292,-0.6294,-1.6243,-0.8009,-0.9017,-0.7807,0.2391,0.1541
710.9375,-0.4235,-0.0472,0.231,-0.6709,-0.8708,-1.4042,-1.3651,-2.1577,-1.7771,-0.8504,-1.9492,-1.7239,-0.2067,-1.5472,0.4302,0.5637,0.4786,-0.043,0.4115,0.118,0.1898,0.0464,-0.1487,-0.6144,-1.7043,-0.8637,-0.8476,-0.882,0.2356,0.1164
714.8438,-0.4464,-0.0977,0.1621,-0.7262,-0.9107,-1.4164,-1.4308,-2.2212,-1.8514,-0.9171,-2.0641,-1.8015,-0.24,-1.5045,0.4258,0.4941,0.4143,-0.0982,0.3757,0.0801,0.1914,0.0375,-0.1825,-0.6179,-1.8034,-0.9403,-0.8231,-0.9827,0.2136,0.0501
718.75,-0.43,-0.1942,0.119,-0.7894,-0.9433,-1.4078,-1.4861,-2.2648,-1.9109,-0.9826,-2.163,-1.8702,-0.2824,-1.4562,0.4012,0.3872,0.314,-0.1976,0.3088,0.0223,0.1766,0.0114,-0.2288,-0.6381,-1.9126,-1.0288,-0.8309,-1.0794,0.1749,-0.0403
722.6562,-0.371,-0.3286,0.1011,-0.8497,-0.9614,-1.3747,-1.5258,-2.2808,-1.949,-1.047,-2.2394,-1.9257,-0.3243,-1.4004,0.347,0.2512,0.1809,-0.3356,0.2159,-0.0466,0.1558,-0.0258,-0.2844,-0.6696,-2.0178,-1.123,-0.8692,-1.169,0.1196,-0.1509
726.5625,-0.2812,-0.4911,0.0999,-0.9003,-0.9626,-1.3186,-1.5482,-2.2649,-1.9623,-1.1114,-2.2905,-1.9673,-0.3607,-1.3401,0.2537,0.0936,0.0193,-0.5034,0.103,-0.1199,0.1373,-0.0674,-0.3452,-0.7075,-2.1045,-1.2147,-0.9335,-1.2494,0.0449,-0.2799
730.4688,-0.1873,-0.6732,0.0991,-0.9407,-0.9513,-1.247,-1.556,-2.2175,-1.9504,-1.1779,-2.3181,-1.9976,-0.3932,-1.2841,0.1134,-0.0812,-0.166,-0.691,-0.0249,-0.1952,0.1235,-0.1087,-0.4084,-0.7494,-2.1613,-1.2962,-1.0192,-1.3208,-0.0534,-0.4287
734.375,-0.1278,-0.8684,0.0782,-0.9772,-0.9385,-1.1735,-1.5565,-2.1431,-1.9167,-1.2492,-2.3275,-2.0219,-0.4314,-1.2471,-0.0793,-0.2717,-0.3697,-0.8896,-0.1648,-0.2756,0.1093,-0.1504,-0.4737,-0.7982,-2.1838,-1.3626,-1.1234,-1.3861,-0.1803,-0.6
738.2812,-0.1443,-1.0724,0.0164,-1.021,-0.9397,-1.1154,-1.5604,-2.0504,-1.8674,-1.3287,-2.3272,-2.0469,-0.4907,-1.2477,-0.3256,-0.4793,-0.5857,-1.0931,-0.3158,-0.3687,0.0826,-0.1983,-0.544,-0.8613,-2.1758,-1.4136,-1.2456,-1.451,-0.3384,-0.796
742.1875,-0.272,-1.2815,-0.1017,-1.0848,-0.9716,-1.0903,-1.58,-1.9505,-1.811,-1.4196,-2.3268,-2.0795,-0.5889,-1.3043,-0.6207,-0.7049,-0.8077,-1.2987,-0.4788,-0.4838,0.027,-0.2632,-0.6249,-0.9493,-2.1482,-1.4531,-1.3873,-1.5228,-0.5265,-1.016
746.0938,-0.5299,-1.4925,-0.2815,-1.1794,-1.0481,-1.1114,-1.6265,-1.8561,-1.7572,-1.5243,-2.3356,-2.1248,-0.7412,-1.4314,-0.9539,-0.9477,-1.0295,-1.5056,-0.6542,-0.6292,-0.0739,-0.3572,-0.7231,-1.0726,-2.1166,-1.489,-1.5506,-1.6089,-0.7384,-1.2545
750,-0.9154,-1.701,-0.5161,-1.3106,-1.1766,-1.1847,-1.7076,-1.7786,-1.7153,-1.6431,-2.3613,-2.1853,-0.9557,-1.6354,-1.3088,-1.2031,-1.2465,-1.7142,-0.8415,-0.809,-0.2317,-0.4903,-0.845,-1.2381,-2.0976,-1.53,-1.7359,-1.7151,-0.9626,-1.5006
753.9062,-1.4024,-1.9019,-0.7868,-1.4777,-1.3557,-1.3065,-1.8251,-1.7272,-1.6928,-1.7743,-2.4082,-2.2604,-1.2291,-1.9108,-1.6661,-1.4626,-1.4558,-1.9236,-1.0374,-1.0214,-0.4495,-0.6665,-0.9931,-1.4455,-2.1041,-1.5835,-1.9402,-1.8431,-1.1842,-1.7398
757.8125,-1.9458,-2.0888,-1.0656,-1.6724,-1.5749,-1.4636,-1.9741,-1.7062,-1.6938,-1.913,-2.4764,-2.3456,-1.5461,-2.2397,-2.0054,-1.7143,-1.6557,-2.1299,-1.2359,-1.2569,-0.7188,-0.8814,-1.1643,-1.6857,-2.1426,-1.6532,-2.1557,-1.9896,-1.3869,-1.9555
761.7188,-2.4873,-2.2543,-1.3201,-1.8799,-1.8148,-1.636,-2.1426,-1.7148,-1.7176,-2.0513,-2.561,-2.4327,-1.8799,-2.5919,-2.3075,-1.9448,-1.8432,-2.3246,-1.4275,-1.4997,-1.0195,-1.1209,-1.3483,-1.9406,-2.2106,-1.7366,-2.3688,-2.1452,-1.5555,-2.1323
765.625,-2.9627,-2.3902,-1.5191,-2.0803,-2.0504,-1.8,-2.3128,-1.747,-1.7586,-2.1786,-2.6521,-2.5109,-2.1962,-2.9284,-2.5557,-2.1403,-2.0122,-2.4941,-1.5996,-1.7284,-1.322,-1.3627,-1.5274,-2.1841,-2.2965,-1.8253,-2.5613,-2.2947,-1.6785,-2.2583
769.5312,-3.3076,-2.488,-1.6385,-2.2515,-2.2546,-1.9334,-2.4637,-1.7935,-1.807,-2.2821,-2.736,-2.5677,-2.4581,-3.2064,-2.7362,-2.2894,-2.1519,-2.6204,-1.7381,-1.92,-1.5913,-1.5788,-1.6789,-2.3864,-2.382,-1.9053,-2.712,-2.4187,-1.75,-2.3267
773.4375,-3.4636,-2.5398,-1.6642,-2.3713,-2.4015,-2.0188,-2.574,-1.8433,-1.8502,-2.3486,-2.7968,-2.5904,-2.6317,-3.3854,-2.839,-2.3837,-2.2471,-2.6828,-1.8285,-2.0532,-1.7931,-1.7409,-1.7781,-2.518,-2.4447,-1.9597,-2.7999,-2.4957,-1.7697,-2.3358
777.3438,-3.3841,-2.5394,-1.5941,-2.4216,-2.4708,-2.0466,-2.626,-1.8865,-1.8751,-2.3658,-2.8192,-2.5681,-2.6912,-3.4333,-2.8586,-2.4195,-2.2812,-2.6622,-1.8587,-2.1121,-1.8996,-1.8249,-1.8038,-2.555,-2.4631,-1.9716,-2.8074,-2.5053,-1.7429,-2.289
781.25,-3.0429,-2.4837,-1.4372,-2.3912,-2.451,-2.0152,-2.6079,-1.9155,-1.8703,-2.3251,-2.7916,-2.4934,-2.6234,-3.3325,-2.7952,-2.3984,-2.2408,-2.545,-1.8215,-2.0889,-1.895,-1.8162,-1.7425,-2.4832,-2.4207,-1.9275,-2.7237,-2.4325,-1.679,-2.1934
785.1562,-2.4412,-2.3742,-1.2101,-2.2785,-2.3418,-1.9306,-2.5176,-1.9263,-1.8292,-2.2239,-2.7087,-2.364,-2.4305,-3.0833,-2.6561,-2.3269,-2.1203,-2.3279,-1.7173,-1.9862,-1.7789,-1.7127,-1.592,-2.3022,-2.3097,-1.8212,-2.5481,-2.2716,-1.5893,-2.0588
789.0625,-1.6125,-2.2183,-0.9343,-2.0934,-2.1551,-1.8048,-2.3628,-1.9188,-1.7514,-2.0678,-2.5737,-2.1852,-2.1306,-2.7057,-2.4563,-2.2164,-1.9254,-2.0205,-1.5546,-1.8164,-1.5662,-1.526,-1.3629,-2.0258,-2.1335,-1.6559,-2.2912,-2.0291,-1.4853,-1.8965
792.9688,-0.6214,-2.0292,-0.6323,-1.8561,-1.9135,-1.6531,-2.161,-1.8964,-1.6437,-1.8706,-2.3986,-1.9693,-1.7556,-2.237,-2.217,-2.0817,-1.6738,-1.6458,-1.3501,-1.6004,-1.2855,-1.2796,-1.0768,-1.6811,-1.9064,-1.4448,-1.9755,-1.7248,-1.377,-1.719
796.875,0.4448,-1.8253,-0.325,-1.5942,-1.6466,-1.4922,-1.9363,-1.8654,-1.5189,-1.6532,-2.2024,-1.7348,-1.3468,-1.7258,-1.9634,-1.939,-1.3933,-1.2375,-1.1264,-1.3641,-0.973,-1.0046,-0.7628,-1.304,-1.6516,-1.2092,-1.6316,-1.3888,-1.272,-1.5388
