time	FP1	F3	F7	FC3	C3	C5	P3	P7	PO7	PO3	O1	Oz	Pz	CPz	FP2	Fz	F4	F8	FC4	FCz	Cz	C4	C6	P4	P8	PO8	PO4	O2	HEOG_left	HEOG_right
-199.2188	-0.5537	-0.7141	-0.7315	-0.8337	-0.8034	-0.2897	-0.2753	0.0676	0.0387	0.0772	-0.1128	-0.06	-0.1879	-0.5028	-0.7491	-0.6564	-0.5943	-0.6465	-0.7042	-0.4869	-0.5012	-0.728	-0.6776	-0.3192	-0.1378	-0.101	-0.1362	-0.2051	-0.7988	-0.496
-195.3125	-0.564	-0.7002	-0.6665	-0.7663	-0.7386	-0.2571	-0.2455	0.1217	0.0645	0.0758	-0.0495	-0.0054	-0.139	-0.4876	-0.7208	-0.6786	-0.672	-0.7249	-0.7989	-0.547	-0.5346	-0.8363	-0.7763	-0.3363	-0.1734	-0.0789	-0.064	-0.1365	-0.7335	-0.5498
-191.4062	-0.5743	-0.6915	-0.6077	-0.7057	-0.6755	-0.2309	-0.2169	0.1668	0.0856	0.0739	0.013	0.0501	-0.0899	-0.4692	-0.6977	-0.7031	-0.7456	-0.7981	-0.8852	-0.6019	-0.5624	-0.9266	-0.8628	-0.3426	-0.1992	-0.049	0.0131	-0.0645	-0.6726	-0.599
-187.5	-0.5828	-0.6896	-0.56	-0.6555	-0.6145	-0.2152	-0.1893	0.1971	0.1002	0.0721	0.0743	0.1067	-0.0415	-0.4456	-0.6813	-0.728	-0.8077	-0.859	-0.9525	-0.6456	-0.5802	-0.9825	-0.9248	-0.3292	-0.2065	-0.0047	0.0984	0.0132	-0.6198	-0.6385
-183.5938	-0.5875	-0.6938	-0.5262	-0.6175	-0.5566	-0.2118	-0.1624	0.2107	0.1085	0.0703	0.1332	0.1629	0.0035	-0.4172	-0.6707	-0.7497	-0.8507	-0.9006	-0.9923	-0.6733	-0.5857	-0.9932	-0.9537	-0.2912	-0.1898	0.0565	0.1919	0.0958	-0.5782	-0.6649
-179.6875	-0.5859	-0.7005	-0.5074	-0.5905	-0.5031	-0.2198	-0.1364	0.2097	0.1128	0.0683	0.1885	0.2157	0.0408	-0.3862	-0.6622	-0.7623	-0.8682	-0.9174	-0.9984	-0.6817	-0.579	-0.9552	-0.945	-0.229	-0.1482	0.1325	0.29	0.18	-0.5497	-0.6771
-175.7812	-0.5757	-0.7038	-0.5018	-0.5709	-0.4549	-0.2358	-0.111	0.1995	0.1167	0.0655	0.2376	0.2608	0.0656	-0.3563	-0.6507	-0.7592	-0.8548	-0.9056	-0.9679	-0.6692	-0.5618	-0.8724	-0.8991	-0.1477	-0.0844	0.2172	0.3859	0.2598	-0.5343	-0.6757
-171.875	-0.5549	-0.6964	-0.5057	-0.5533	-0.412	-0.2546	-0.0861	0.1871	0.1233	0.0611	0.2773	0.2931	0.0739	-0.3309	-0.63	-0.7332	-0.8078	-0.8638	-0.9013	-0.6354	-0.5362	-0.7544	-0.82	-0.0557	-0.0049	0.3022	0.4714	0.3282	-0.5302	-0.6622
-167.9688	-0.5228	-0.6712	-0.5135	-0.5309	-0.3727	-0.2704	-0.0612	0.1785	0.1342	0.0546	0.3038	0.3077	0.0647	-0.3114	-0.5951	-0.6785	-0.7275	-0.7932	-0.802	-0.5808	-0.5032	-0.6143	-0.7148	0.0373	0.0823	0.3786	0.5387	0.378	-0.534	-0.6384
-164.0625	-0.4797	-0.6225	-0.5189	-0.4967	-0.3332	-0.2771	-0.0353	0.1772	0.1482	0.0454	0.3128	0.3009	0.0402	-0.2967	-0.5426	-0.5915	-0.617	-0.6971	-0.676	-0.506	-0.4618	-0.4663	-0.5924	0.1216	0.1685	0.4392	0.5818	0.4037	-0.5406	-0.6057
-160.1562	-0.4275	-0.5474	-0.5161	-0.445	-0.2881	-0.2702	-0.008	0.1829	0.1615	0.0325	0.3001	0.2706	0.006	-0.2828	-0.4718	-0.472	-0.4825	-0.5809	-0.531	-0.4115	-0.4091	-0.3229	-0.4618	0.1894	0.2459	0.4793	0.5972	0.4024	-0.5448	-0.5652
-156.25	-0.3693	-0.4467	-0.5008	-0.3722	-0.2324	-0.2468	0.0209	0.1916	0.1677	0.0146	0.2629	0.217	-0.0299	-0.2638	-0.385	-0.3238	-0.3324	-0.4511	-0.3755	-0.298	-0.341	-0.1935	-0.3318	0.2361	0.3091	0.4974	0.5847	0.374	-0.5421	-0.5173
-152.3438	-0.3094	-0.3255	-0.4715	-0.2787	-0.1631	-0.207	0.0499	0.1968	0.16	-0.0098	0.1999	0.143	-0.059	-0.2338	-0.2872	-0.1553	-0.1771	-0.3154	-0.2186	-0.1679	-0.2542	-0.0838	-0.2094	0.26	0.3551	0.4947	0.5473	0.3218	-0.5294	-0.463
-148.4375	-0.2528	-0.1931	-0.4299	-0.1699	-0.0811	-0.1538	0.0762	0.1911	0.1324	-0.042	0.1132	0.0541	-0.0741	-0.1884	-0.1862	0.021	-0.0279	-0.1818	-0.0697	-0.0257	-0.148	0.0043	-0.1001	0.2631	0.3834	0.4746	0.49	0.2518	-0.5064	-0.4033
-144.5312	-0.2051	-0.0622	-0.3809	-0.0558	0.0078	-0.0929	0.096	0.1692	0.0823	-0.0819	0.0082	-0.0417	-0.0705	-0.1265	-0.0906	0.1896	0.1041	-0.0582	0.0625	0.1208	-0.0258	0.0717	-0.0069	0.2498	0.3959	0.441	0.4194	0.1719	-0.4751	-0.3401
-140.625	-0.1711	0.0529	-0.3316	0.0497	0.0931	-0.0322	0.1054	0.1285	0.011	-0.1276	-0.1061	-0.1352	-0.0471	-0.0511	-0.0095	0.334	0.2088	0.0484	0.1704	0.2601	0.1041	0.1211	0.0692	0.2264	0.3953	0.3981	0.3427	0.0913	-0.4393	-0.2755
-136.7188	-0.1544	0.1382	-0.2895	0.1311	0.1616	0.0198	0.1014	0.0705	-0.0756	-0.1749	-0.2181	-0.2168	-0.0061	0.0309	0.0502	0.439	0.279	0.1328	0.2489	0.3784	0.2291	0.1563	0.1297	0.1994	0.3848	0.3491	0.2663	0.0183	-0.4039	-0.2109
-132.8125	-0.156	0.1828	-0.2606	0.1745	0.1998	0.0551	0.0829	0.0005	-0.1677	-0.218	-0.3154	-0.2783	0.0471	0.1098	0.0841	0.4934	0.3115	0.1925	0.2956	0.4611	0.3337	0.1811	0.1776	0.1741	0.367	0.2961	0.195	-0.0404	-0.3724	-0.1474
-128.9062	-0.1737	0.1813	-0.2473	0.1706	0.197	0.068	0.0511	-0.0743	-0.2539	-0.2503	-0.3867	-0.3147	0.1047	0.1744	0.092	0.4919	0.3075	0.2276	0.312	0.4958	0.4026	0.1989	0.2168	0.1537	0.3433	0.2397	0.1314	-0.0816	-0.3461	-0.085
-125	-0.2018	0.1351	-0.2478	0.1175	0.1484	0.0564	0.0091	-0.1458	-0.3232	-0.2663	-0.4248	-0.3245	0.1582	0.2145	0.0778	0.4367	0.273	0.2417	0.3024	0.4748	0.4235	0.2119	0.2511	0.1385	0.3141	0.1799	0.0755	-0.1054	-0.323	-0.0229
-121.0938	-0.2322	0.0531	-0.2556	0.0217	0.0562	0.0221	-0.0389	-0.2068	-0.3677	-0.2628	-0.4274	-0.3102	0.1994	0.223	0.0489	0.3376	0.2177	0.2406	0.2742	0.3976	0.39	0.221	0.283	0.1264	0.2795	0.1167	0.0254	-0.1152	-0.2979	0.0396
-117.1875	-0.2551	-0.0495	-0.2613	-0.1025	-0.0691	-0.0291	-0.0882	-0.2526	-0.3838	-0.2398	-0.3978	-0.2773	0.222	0.1973	0.0154	0.2105	0.154	0.2319	0.236	0.2723	0.304	0.226	0.3135	0.1134	0.2396	0.0507	-0.0215	-0.1161	-0.2643	0.1027
-113.2812	-0.2616	-0.154	-0.2546	-0.2355	-0.2112	-0.0885	-0.1346	-0.2805	-0.3729	-0.2003	-0.3439	-0.2324	0.2224	0.1401	-0.0121	0.0751	0.0947	0.2237	0.1969	0.1142	0.1754	0.2258	0.3415	0.0958	0.195	-0.0159	-0.0673	-0.1132	-0.2157	0.1657
-109.375	-0.2454	-0.2418	-0.2275	-0.3557	-0.35	-0.1461	-0.1749	-0.29	-0.3397	-0.1499	-0.2758	-0.1821	0.2005	0.0594	-0.0245	-0.0485	0.0509	0.2231	0.1647	-0.0561	0.0207	0.2192	0.3646	0.0705	0.1474	-0.0795	-0.1128	-0.1103	-0.1483	0.2269
-105.4688	-0.2044	-0.2975	-0.1757	-0.4438	-0.4664	-0.1931	-0.2066	-0.2822	-0.2912	-0.0951	-0.2034	-0.1315	0.1597	-0.0333	-0.016	-0.1434	0.0298	0.2344	0.1444	-0.2168	-0.1399	0.205	0.3798	0.0367	0.0991	-0.1356	-0.1567	-0.109	-0.0625	0.2841
-101.5625	-0.1415	-0.3127	-0.1004	-0.487	-0.5455	-0.2233	-0.2289	-0.2589	-0.2344	-0.0422	-0.1348	-0.0839	0.1056	-0.1252	0.0142	-0.1993	0.0333	0.2581	0.1375	-0.3493	-0.2864	0.1828	0.3846	-0.0037	0.0534	-0.1796	-0.1959	-0.1086	0.037	0.3344
-97.6562	-0.0647	-0.2867	-0.0084	-0.4805	-0.5792	-0.2349	-0.2419	-0.2231	-0.1749	0.0037	-0.0744	-0.0405	0.0459	-0.2038	0.0611	-0.2146	0.0571	0.2904	0.1417	-0.4411	-0.4027	0.1532	0.3778	-0.0461	0.0134	-0.2075	-0.2256	-0.1066	0.1416	0.375
-93.75	0.0152	-0.2268	0.0897	-0.4285	-0.5672	-0.2303	-0.2466	-0.1783	-0.1167	0.0398	-0.0235	-0.0008	-0.0116	-0.2595	0.1154	-0.1958	0.0916	0.3237	0.1508	-0.4886	-0.4787	0.1185	0.3605	-0.0834	-0.0173	-0.2167	-0.2404	-0.0992	0.2403	0.4033
-89.8438	0.086	-0.1459	0.1811	-0.3421	-0.5156	-0.2146	-0.2443	-0.1287	-0.0622	0.0657	0.0189	0.0365	-0.0595	-0.2864	0.1647	-0.1563	0.1238	0.3483	0.1567	-0.4959	-0.5114	0.082	0.3356	-0.1077	-0.0355	-0.2059	-0.2354	-0.0824	0.3226	0.4171
-85.9375	0.1371	-0.0595	0.2541	-0.2365	-0.4344	-0.1938	-0.2356	-0.0789	-0.0124	0.0827	0.0551	0.0726	-0.0923	-0.2822	0.1967	-0.1128	0.1402	0.3543	0.1511	-0.4734	-0.504	0.048	0.3075	-0.1115	-0.0391	-0.1758	-0.2073	-0.0536	0.3799	0.4152
-82.0312	0.1623	0.0181	0.3002	-0.1269	-0.3343	-0.1729	-0.2205	-0.0332	0.0317	0.0932	0.0868	0.1082	-0.1067	-0.2485	0.2027	-0.0803	0.131	0.3348	0.1282	-0.4335	-0.4637	0.0209	0.2806	-0.0903	-0.0275	-0.1295	-0.1563	-0.0124	0.4083	0.3977
-78.125	0.1608	0.0769	0.3165	-0.0252	-0.2243	-0.1534	-0.1978	0.0049	0.0693	0.1001	0.115	0.1426	-0.1026	-0.1892	0.1802	-0.0685	0.0928	0.2883	0.087	-0.3871	-0.3994	0.0047	0.2585	-0.044	-0.0029	-0.0728	-0.0868	0.0381	0.4086	0.3668
-74.2188	0.1388	0.1139	0.3065	0.0622	-0.1098	-0.1334	-0.1655	0.0333	0.0999	0.1055	0.1392	0.1737	-0.0826	-0.1102	0.1347	-0.0788	0.0308	0.2198	0.0323	-0.3402	-0.3188	0.0024	0.2432	0.0225	0.0299	-0.0134	-0.0074	0.0919	0.3867	0.3268
-70.3125	0.1074	0.1331	0.2789	0.1352	0.0072	-0.1075	-0.1221	0.0516	0.1231	0.1111	0.1585	0.199	-0.0512	-0.0176	0.0786	-0.1039	-0.0415	0.1405	-0.0252	-0.2927	-0.2272	0.0156	0.235	0.0997	0.0638	0.0393	0.0697	0.1406	0.3522	0.2843
-66.4062	0.0809	0.1438	0.2457	0.1989	0.1275	-0.0693	-0.0668	0.0605	0.1395	0.1177	0.172	0.2155	-0.0141	0.0825	0.0289	-0.1296	-0.1052	0.0663	-0.0716	-0.2396	-0.1268	0.0446	0.2328	0.1757	0.091	0.0765	0.1315	0.1754	0.3164	0.247
-62.5	0.073	0.1576	0.2191	0.2606	0.2519	-0.0132	-0.0008	0.0621	0.1501	0.1253	0.1791	0.2209	0.0235	0.1848	0.0031	-0.1396	-0.1402	0.0137	-0.0922	-0.1731	-0.0178	0.0883	0.235	0.2379	0.104	0.0911	0.1661	0.1887	0.2895	0.2225
-58.5938	0.0937	0.1849	0.2088	0.3272	0.3801	0.0628	0.0727	0.0584	0.1565	0.1331	0.1804	0.2139	0.0573	0.2849	0.0146	-0.1192	-0.1305	-0.0031	-0.0755	-0.0865	0.1004	0.1442	0.2401	0.276	0.0976	0.0793	0.1655	0.1763	0.2796	0.2169
-54.6875	0.1469	0.2319	0.2206	0.4028	0.5089	0.1563	0.1485	0.0509	0.16	0.1401	0.1769	0.1943	0.085	0.379	0.0692	-0.0607	-0.0687	0.0233	-0.0162	0.0232	0.2272	0.2092	0.2474	0.2838	0.0694	0.041	0.1272	0.1383	0.2905	0.2334
-50.7812	0.2299	0.2997	0.2557	0.4874	0.6324	0.2603	0.2205	0.0405	0.1617	0.1445	0.17	0.1634	0.1051	0.4631	0.1632	0.0355	0.0423	0.0921	0.0832	0.1532	0.3592	0.2789	0.2564	0.2598	0.0208	-0.0196	0.0545	0.0785	0.3223	0.2713
-46.875	0.3346	0.3838	0.3113	0.5769	0.7428	0.3647	0.2829	0.0272	0.1615	0.1451	0.1608	0.1229	0.117	0.5333	0.2843	0.1605	0.1888	0.1941	0.2123	0.2957	0.4904	0.3484	0.2671	0.2077	-0.0439	-0.0955	-0.0443	0.0043	0.3721	0.3258
-42.9688	0.4493	0.4767	0.3826	0.6647	0.8318	0.4586	0.3305	0.0108	0.1583	0.1404	0.1491	0.0756	0.1206	0.5855	0.4144	0.2997	0.3501	0.3127	0.3553	0.4394	0.6123	0.4128	0.2786	0.1349	-0.118	-0.1776	-0.1574	-0.0754	0.4344	0.3883
-39.0625	0.5618	0.5693	0.4634	0.7428	0.8922	0.5317	0.3606	-0.0088	0.1499	0.1298	0.1337	0.0242	0.1152	0.6155	0.5338	0.4366	0.5026	0.4284	0.4937	0.5728	0.7154	0.4676	0.2893	0.0514	-0.194	-0.2568	-0.2718	-0.1515	0.5031	0.4478
-35.1562	0.6612	0.6536	0.5473	0.8039	0.9192	0.5766	0.3718	-0.0311	0.1338	0.1126	0.112	-0.0286	0.0999	0.6196	0.6254	0.5563	0.6254	0.5222	0.6107	0.6861	0.7905	0.5093	0.297	-0.0326	-0.265	-0.325	-0.3755	-0.2162	0.5719	0.4927
-31.25	0.7396	0.7229	0.6282	0.8415	0.9103	0.5892	0.3647	-0.0552	0.1079	0.0889	0.0811	-0.0803	0.0732	0.5949	0.6786	0.648	0.7041	0.5801	0.6939	0.7729	0.8305	0.5355	0.299	-0.1084	-0.3256	-0.377	-0.4592	-0.2644	0.6355	0.5134
-27.3438	0.7923	0.7727	0.7004	0.8513	0.8656	0.5689	0.3411	-0.0796	0.0712	0.0592	0.039	-0.1289	0.0338	0.5402	0.6902	0.7063	0.7334	0.5956	0.7374	0.8299	0.8303	0.5455	0.2932	-0.17	-0.3725	-0.4102	-0.5175	-0.2934	0.689	0.5042
-23.4375	0.8178	0.8002	0.7593	0.831	0.7871	0.5182	0.3038	-0.1028	0.0247	0.0244	-0.0141	-0.1719	-0.019	0.456	0.6648	0.7304	0.7168	0.571	0.7419	0.8561	0.7879	0.54	0.279	-0.2146	-0.4042	-0.4242	-0.5486	-0.303	0.7286	0.4649
-19.5312	0.8174	0.8041	0.8012	0.7805	0.6792	0.4419	0.2562	-0.1238	-0.0284	-0.0137	-0.0755	-0.2073	-0.0843	0.3455	0.6128	0.7231	0.6655	0.5167	0.714	0.8517	0.7049	0.5211	0.2578	-0.2423	-0.4207	-0.4209	-0.5544	-0.2953	0.7512	0.4009
-15.625	0.7948	0.7848	0.8242	0.7027	0.5487	0.3469	0.2024	-0.1426	-0.0831	-0.0526	-0.1394	-0.2329	-0.1595	0.215	0.5471	0.6897	0.595	0.4484	0.6645	0.8183	0.5871	0.4923	0.2329	-0.2549	-0.4226	-0.4029	-0.539	-0.2733	0.7549	0.3223
-11.7188	0.7559	0.7449	0.8282	0.6037	0.4047	0.2418	0.1468	-0.1602	-0.134	-0.0896	-0.1984	-0.247	-0.2391	0.0746	0.4809	0.6378	0.5221	0.3836	0.6064	0.7599	0.4452	0.4586	0.2095	-0.2549	-0.4108	-0.3734	-0.508	-0.241	0.7389	0.2418
-7.8125	0.7082	0.6902	0.8152	0.4937	0.2589	0.1367	0.0942	-0.1779	-0.176	-0.1214	-0.2448	-0.2484	-0.3157	-0.062	0.4254	0.5766	0.4621	0.3382	0.5529	0.6842	0.2957	0.4258	0.1938	-0.2443	-0.3864	-0.3359	-0.4668	-0.2022	0.7049	0.1719
-3.9062	0.6608	0.6305	0.7897	0.3869	0.1257	0.0431	0.0492	-0.1971	-0.2053	-0.1447	-0.2721	-0.2364	-0.38	-0.1779	0.3884	0.5177	0.4266	0.3231	0.5157	0.604	0.1599	0.4008	0.1914	-0.2241	-0.3511	-0.2935	-0.4202	-0.1609	0.6568	0.1227
0	0.6235	0.5793	0.7586	0.3005	0.0206	-0.0268	0.0163	-0.2182	-0.2201	-0.1563	-0.2769	-0.2118	-0.4229	-0.2556	0.3743	0.4745	0.4224	0.3425	0.5042	0.5373	0.0619	0.3905	0.2067	-0.1937	-0.3074	-0.2499	-0.3721	-0.1206	0.601	0.1002
3.9062	0.6064	0.5537	0.7307	0.2535	-0.0403	-0.0607	-0.0008	-0.2404	-0.2206	-0.1537	-0.2593	-0.1764	-0.4363	-0.2788	0.3853	0.4616	0.4524	0.3947	0.5249	0.5055	0.0253	0.4015	0.2419	-0.1522	-0.2586	-0.209	-0.3253	-0.0846	0.5463	0.106
7.8125	0.6193	0.572	0.7162	0.2645	-0.0425	-0.0479	-0.0003	-0.2616	-0.209	-0.1356	-0.2231	-0.134	-0.4156	-0.2363	0.4224	0.4937	0.5163	0.4739	0.5819	0.5305	0.0693	0.4394	0.2974	-0.0988	-0.2093	-0.1755	-0.2823	-0.0565	0.5027	0.138
11.7188	0.6705	0.6514	0.7259	0.3488	0.0249	0.0189	0.0179	-0.2788	-0.189	-0.1022	-0.1752	-0.0899	-0.3604	-0.1238	0.4869	0.5836	0.613	0.5729	0.6769	0.631	0.2044	0.5085	0.3719	-0.034	-0.1649	-0.1545	-0.2461	-0.0403	0.4801	0.1921
15.625	0.7659	0.8044	0.7689	0.516	0.1678	0.1429	0.0516	-0.2889	-0.1654	-0.056	-0.1241	-0.0509	-0.2748	0.0546	0.5808	0.7404	0.7415	0.6867	0.8105	0.8184	0.4307	0.611	0.4631	0.0402	-0.1306	-0.1512	-0.22	-0.04	0.4868	0.2635
19.5312	0.9074	1.0358	0.8514	0.7667	0.3847	0.3209	0.0974	-0.2887	-0.1424	-0.0003	-0.078	-0.0232	-0.1667	0.2866	0.7063	0.9666	0.9018	0.8132	0.9816	1.0934	0.7362	0.7462	0.568	0.1204	-0.1106	-0.1689	-0.2072	-0.0588	0.5281	0.3479
23.4375	1.0913	1.3398	0.9744	1.0914	0.6661	0.5434	0.1517	-0.2758	-0.1231	0.0613	-0.0421	-0.0117	-0.0451	0.5542	0.8644	1.2567	1.0935	0.9531	1.1868	1.4449	1.0995	0.9102	0.6829	0.2026	-0.1069	-0.2083	-0.2094	-0.0976	0.6041	0.4411
27.3438	1.3073	1.6985	1.132	1.4693	0.9946	0.7942	0.2119	-0.2482	-0.1079	0.126	-0.0172	-0.0172	0.0812	0.836	1.0528	1.5966	1.3142	1.1081	1.4196	1.8507	1.4919	1.0947	0.803	0.2833	-0.1188	-0.2656	-0.2256	-0.1537	0.7094	0.539
31.25	1.5386	2.0829	1.3111	1.8696	1.3456	1.0514	0.2768	-0.2055	-0.0941	0.1933	0.0011	-0.0361	0.206	1.1109	1.264	1.9634	1.5577	1.2778	1.6695	2.2797	1.8817	1.2882	0.9222	0.3599	-0.1422	-0.3322	-0.2513	-0.2201	0.8323	0.6369
35.1562	1.7638	2.456	1.4917	2.255	1.6897	1.2894	0.3469	-0.1488	-0.0764	0.2647	0.0218	-0.0599	0.3263	1.3609	1.4855	2.3286	1.8132	1.4578	1.9228	2.6969	2.239	1.477	1.0342	0.4314	-0.17	-0.3961	-0.2783	-0.2861	0.9567	0.7287
39.0625	1.9599	2.7783	1.6503	2.5865	1.997	1.4827	0.4227	-0.0816	-0.0484	0.3431	0.0558	-0.0775	0.4416	1.5731	1.7005	2.6619	2.0654	1.6393	2.1639	3.0681	2.5391	1.6477	1.1329	0.4979	-0.1938	-0.4438	-0.2963	-0.339	1.0643	0.8079
42.9688	2.1064	3.0149	1.7639	2.8305	2.2411	1.6097	0.5043	-0.0089	-0.0046	0.4313	0.1127	-0.0774	0.5536	1.7406	1.891	2.9361	2.2974	1.8101	2.378	3.3657	2.7656	1.7902	1.2142	0.5604	-0.205	-0.4634	-0.2946	-0.3668	1.1384	0.868
46.875	2.1889	3.1414	1.814	2.9638	2.403	1.6568	0.5895	0.0629	0.0577	0.5301	0.1973	-0.051	0.6634	1.8622	2.0404	3.1311	2.4924	1.9567	2.553	3.5713	2.9118	1.899	1.2771	0.6199	-0.1973	-0.4476	-0.2653	-0.3613	1.1666	0.9042
50.7812	2.2017	3.1477	1.7907	2.9776	2.474	1.6212	0.6732	0.1274	0.1369	0.6362	0.3072	0.0043	0.7697	1.9406	2.1364	3.236	2.6361	2.0666	2.6806	3.6767	2.9789	1.9734	1.3231	0.6764	-0.168	-0.3961	-0.2061	-0.3203	1.1438	0.9139
54.6875	2.1472	3.0382	1.6935	2.8775	2.4555	1.511	0.7471	0.1795	0.2267	0.7417	0.4325	0.0842	0.8674	1.98	2.172	3.2485	2.7179	2.1297	2.7558	3.6828	2.9738	2.0159	1.3552	0.7275	-0.1193	-0.316	-0.1211	-0.2489	1.0721	0.8971
58.5938	2.0347	2.8295	1.5312	2.6808	2.3569	1.3438	0.8007	0.2154	0.3167	0.8342	0.5569	0.1774	0.9469	1.9832	2.1458	3.1736	2.7312	2.1395	2.7759	3.5958	2.9053	2.0298	1.3754	0.768	-0.0587	-0.2211	-0.0221	-0.1588	0.9598	0.8561
62.5	1.8777	2.546	1.3189	2.4122	2.1929	1.1419	0.8221	0.2335	0.3943	0.8985	0.6612	0.2679	0.9948	1.9501	2.0616	3.0205	2.674	2.094	2.7392	3.425	2.781	2.0164	1.3832	0.7901	0.0027	-0.1285	0.0743	-0.0661	0.8196	0.7954
66.4062	1.6914	2.2153	1.0762	2.0979	1.9792	0.9287	0.8006	0.2337	0.4466	0.9196	0.7268	0.3383	0.9968	1.877	1.9274	2.8008	2.5484	1.995	2.6455	3.1804	2.6054	1.9741	1.3742	0.7846	0.0518	-0.0559	0.149	0.0117	0.6661	0.7201
70.3125	1.4906	1.8644	0.8236	1.7621	1.7305	0.724	0.7285	0.2172	0.4637	0.8866	0.7397	0.3735	0.9411	1.7584	1.7547	2.5278	2.3617	1.8484	2.4959	2.8726	2.3808	1.8983	1.3412	0.7428	0.0768	-0.0173	0.185	0.0594	0.5136	0.6362
74.2188	1.2894	1.5175	0.5807	1.4242	1.4592	0.5413	0.6038	0.1867	0.4406	0.7953	0.6942	0.3643	0.8215	1.5892	1.5575	2.2164	2.126	1.6639	2.2946	2.5135	2.1085	1.7839	1.2758	0.6591	0.0694	-0.0207	0.1706	0.0669	0.3748	0.5492
78.125	1.1006	1.1949	0.3653	1.0997	1.176	0.3878	0.4317	0.1458	0.3794	0.6506	0.594	0.3092	0.6408	1.368	1.3512	1.8835	1.8581	1.454	2.0506	2.1184	1.7923	1.6276	1.172	0.5332	0.0263	-0.0667	0.1021	0.0312	0.2599	0.4642
82.0312	0.9362	0.9137	0.1922	0.8011	0.8911	0.2648	0.2251	0.0993	0.2887	0.467	0.4527	0.2153	0.4117	1.1004	1.1519	1.5493	1.5789	1.2343	1.7779	1.7073	1.4416	1.4319	1.0289	0.3715	-0.0493	-0.149	-0.0152	-0.0434	0.1765	0.3859
85.9375	0.8068	0.6881	0.0726	0.5402	0.6165	0.1707	0.0036	0.0529	0.1834	0.2665	0.2913	0.0971	0.1566	0.8009	0.976	1.2366	1.3122	1.0218	1.4964	1.3057	1.0735	1.2064	0.8533	0.187	-0.1488	-0.2559	-0.1677	-0.1461	0.1293	0.3182
89.8438	0.7217	0.5301	0.013	0.3293	0.3662	0.1022	-0.2095	0.0118	0.0808	0.0756	0.1349	-0.0265	-0.0952	0.493	0.8386	0.9703	1.0824	0.8349	1.2304	0.9436	0.713	0.9686	0.6594	-0.0018	-0.2596	-0.3721	-0.3355	-0.2613	0.12	0.2648
93.75	0.6877	0.449	0.0137	0.1808	0.1565	0.0561	-0.3906	-0.02	-0.0023	-0.0799	0.0077	-0.1349	-0.3112	0.2065	0.7527	0.7751	0.9124	0.6915	1.0057	0.6521	0.391	0.7421	0.4675	-0.1731	-0.3671	-0.4818	-0.4957	-0.371	0.1469	0.229
97.6562	0.7081	0.4505	0.0691	0.1055	0.0039	0.0299	-0.52	-0.0407	-0.0532	-0.179	-0.0705	-0.2091	-0.4609	-0.0263	0.7279	0.6728	0.8209	0.6073	0.8465	0.4595	0.1404	0.5531	0.2997	-0.3052	-0.4576	-0.5705	-0.6255	-0.4574	0.2049	0.2134
101.5625	0.7822	0.536	0.1677	0.1107	-0.0768	0.0214	-0.5843	-0.051	-0.0658	-0.2093	-0.0879	-0.2352	-0.5208	-0.1759	0.7696	0.6786	0.8199	0.5937	0.7716	0.387	-0.009	0.4254	0.1762	-0.3797	-0.5201	-0.6266	-0.706	-0.5055	0.2861	0.2197
105.4688	0.9049	0.7016	0.2939	0.1983	-0.0752	0.0291	-0.5788	-0.0539	-0.0411	-0.1686	-0.0425	-0.2063	-0.4774	-0.2204	0.8777	0.7985	0.9134	0.6564	0.7913	0.4452	-0.0351	0.3767	0.1107	-0.3844	-0.5484	-0.6432	-0.7245	-0.5052	0.3806	0.2482
109.375	1.0674	0.9381	0.4315	0.364	0.0132	0.052	-0.5059	-0.0535	0.0128	-0.0645	0.0582	-0.1231	-0.33	-0.1489	1.0468	1.0275	1.096	0.7932	0.9055	0.6319	0.0726	0.4146	0.1079	-0.3153	-0.5416	-0.6187	-0.6761	-0.4529	0.4783	0.2976
113.2812	1.2574	1.2312	0.5661	0.5974	0.1859	0.0899	-0.3749	-0.0543	0.0836	0.0881	0.1991	0.0057	-0.0896	0.0363	1.2658	1.3492	1.3536	0.9944	1.1037	0.9322	0.3105	0.536	0.163	-0.177	-0.5031	-0.5564	-0.5641	-0.3516	0.5701	0.3646
117.1875	1.4611	1.5622	0.6875	0.8825	0.4325	0.1423	-0.1993	-0.0605	0.1565	0.2693	0.3601	0.1656	0.2222	0.3206	1.5187	1.7371	1.6644	1.2429	1.3658	1.3195	0.6609	0.7274	0.2633	0.0183	-0.4398	-0.4634	-0.3988	-0.2106	0.6489	0.4444
121.0938	1.6633	1.9088	0.7903	1.1988	0.7346	0.2079	0.0046	-0.075	0.2176	0.4576	0.5204	0.3386	0.5764	0.6776	1.7853	2.1566	1.9999	1.5154	1.6641	1.7585	1.0928	0.9665	0.3903	0.2522	-0.3603	-0.3495	-0.1965	-0.0436	0.7099	0.5305
125	1.8483	2.2458	0.8731	1.5217	1.0668	0.2826	0.2178	-0.1004	0.2552	0.6316	0.6605	0.5054	0.9392	1.0726	2.0424	2.5684	2.3281	1.7849	1.9666	2.2083	1.565	1.2257	0.5235	0.5025	-0.2734	-0.2258	0.023	0.1331	0.7506	0.6156
128.9062	2.001	2.5463	0.9364	1.8241	1.3973	0.3588	0.4198	-0.1387	0.2616	0.7716	0.7649	0.6483	1.2754	1.4653	2.2659	2.9325	2.6157	2.0236	2.2404	2.6269	2.0302	1.4751	0.6433	0.745	-0.1878	-0.1031	0.2377	0.3022	0.7698	0.692
132.8125	2.1079	2.7846	0.9814	2.0784	1.6916	0.4263	0.5889	-0.1911	0.233	0.8606	0.8228	0.7526	1.5512	1.8142	2.4331	3.2129	2.8324	2.2062	2.4551	2.9751	2.4407	1.6865	0.7334	0.9552	-0.1113	0.008	0.4256	0.4478	0.7675	0.7523
136.7188	2.1588	2.9387	1.0083	2.2596	1.9161	0.4731	0.7043	-0.2583	0.17	0.8856	0.8289	0.8081	1.7376	2.0818	2.5266	3.3828	2.9549	2.3138	2.5878	3.2217	2.7547	1.8365	0.7828	1.1114	-0.0508	0.0981	0.5666	0.5559	0.7451	0.7907
140.625	2.149	2.9947	1.0173	2.3496	2.0442	0.4894	0.7487	-0.3388	0.0775	0.8392	0.7828	0.8096	1.8139	2.2393	2.5364	3.4288	2.9713	2.337	2.6257	3.3478	2.9424	1.91	0.7875	1.1962	-0.0123	0.1587	0.6447	0.6161	0.7051	0.8038
144.5312	2.081	2.95	1.009	2.3414	2.0615	0.4708	0.7118	-0.4287	-0.0363	0.721	0.6894	0.7567	1.7707	2.2712	2.4634	3.3534	2.8832	2.2778	2.5688	3.3497	2.9904	1.9019	0.7503	1.1994	0.0004	0.1833	0.649	0.6223	0.6523	0.7912
148.4375	1.9655	2.8152	0.9867	2.2416	1.9694	0.4205	0.593	-0.5209	-0.1608	0.5384	0.5571	0.6536	1.6113	2.1779	2.319	3.175	2.7066	2.1497	2.4303	3.2398	2.904	1.8181	0.6812	1.1193	-0.0143	0.1678	0.5756	0.5724	0.5931	0.7562
152.3438	1.8195	2.6134	0.9567	2.0703	1.7854	0.3502	0.4021	-0.6066	-0.2846	0.3064	0.3972	0.5076	1.3517	1.9751	2.1243	2.9255	2.4696	1.9758	2.2347	3.0444	2.7055	1.6738	0.5957	0.963	-0.0545	0.1109	0.4276	0.469	0.5354	0.7063
156.25	1.6645	2.3763	0.9291	1.858	1.5401	0.2781	0.1579	-0.6762	-0.3983	0.0452	0.2212	0.3285	1.0178	1.6909	1.9067	2.6436	2.2075	1.7849	2.0135	2.7985	2.4294	1.4921	0.5129	0.7461	-0.1152	0.0152	0.2152	0.3183	0.4873	0.6523
160.1562	1.5223	2.1386	0.9161	1.6398	1.2707	0.2249	-0.1157	-0.7222	-0.4956	-0.2229	0.0397	0.1266	0.6418	1.3601	1.6947	2.3686	1.9566	1.6069	1.8001	2.5394	2.1159	1.2993	0.4526	0.4901	-0.188	-0.1134	-0.0455	0.1297	0.4554	0.6068
164.0625	1.4105	1.9314	0.9294	1.4485	1.0133	0.2088	-0.3938	-0.7408	-0.5752	-0.4771	-0.1394	-0.088	0.2564	1.0181	1.5127	2.1324	1.7478	1.4671	1.6242	2.2997	1.8032	1.1213	0.4322	0.2192	-0.263	-0.265	-0.3338	-0.0847	0.4436	0.5822
167.9688	1.3392	1.7759	0.9765	1.3076	0.7958	0.2406	-0.655	-0.7328	-0.6399	-0.7012	-0.3115	-0.3061	-0.1092	0.6949	1.3765	1.9546	1.6009	1.3822	1.5061	2.1021	1.521	0.9791	0.4634	-0.0432	-0.3297	-0.4276	-0.6271	-0.3117	0.4518	0.5878
171.875	1.3088	1.68	1.0585	1.2276	0.6329	0.3208	-0.8844	-0.7035	-0.6955	-0.8855	-0.4746	-0.52	-0.4336	0.4108	1.2904	1.8396	1.5216	1.3568	1.4539	1.9561	1.2873	0.8852	0.5494	-0.2778	-0.38	-0.5882	-0.9036	-0.5377	0.476	0.6272
175.7812	1.3105	1.6376	1.1686	1.2043	0.5255	0.4392	-1.0742	-0.6611	-0.7484	-1.0271	-0.6282	-0.7234	-0.7039	0.1755	1.2472	1.7779	1.5017	1.3836	1.4625	1.8592	1.1072	0.842	0.6836	-0.4718	-0.4088	-0.7348	-1.1447	-0.75	0.5091	0.6973
179.6875	1.329	1.6316	1.293	1.2216	0.4623	0.5771	-1.2233	-0.6144	-0.803	-1.1284	-0.7714	-0.9105	-0.9157	-0.0109	1.2311	1.75	1.5222	1.4448	1.5156	1.7997	0.9757	0.8423	0.8501	-0.6197	-0.4158	-0.8577	-1.3373	-0.9379	0.543	0.7881
183.5938	1.3464	1.6389	1.414	1.2567	0.4256	0.7118	-1.3341	-0.5709	-0.8603	-1.195	-0.9015	-1.0758	-1.0708	-0.1546	1.2222	1.7328	1.5577	1.5168	1.5899	1.762	0.8818	0.8717	1.0261	-0.7222	-0.4048	-0.9511	-1.4748	-1.0932	0.5707	0.8847
187.5	1.346	1.636	1.5137	1.2858	0.3962	0.8216	-1.4105	-0.5352	-0.9174	-1.2329	-1.0137	-1.2135	-1.1746	-0.2642	1.2013	1.7049	1.583	1.574	1.6599	1.7311	0.8131	0.9116	1.1851	-0.7848	-0.3831	-1.0133	-1.5568	-1.2106	0.5881	0.9699
191.4062	1.3161	1.6039	1.5771	1.2892	0.359	0.8903	-1.4562	-0.5087	-0.9684	-1.2476	-1.1021	-1.318	-1.2333	-0.3479	1.1538	1.6517	1.5769	1.5943	1.7027	1.6961	0.759	0.9431	1.3019	-0.8156	-0.3599	-1.0465	-1.5885	-1.2881	0.5939	1.0272
195.3125	1.2515	1.5313	1.5949	1.2549	0.3054	0.909	-1.4739	-0.4904	-1.0067	-1.2425	-1.1612	-1.385	-1.2531	-0.4118	1.0719	1.5665	1.5256	1.5617	1.7008	1.6508	0.7122	0.9499	1.356	-0.8235	-0.3442	-1.0559	-1.5791	-1.3269	0.5895	1.0444
199.2188	1.1532	1.4152	1.5638	1.1795	0.2335	0.8767	-1.4661	-0.4781	-1.0274	-1.22	-1.1879	-1.4126	-1.2395	-0.4598	0.955	1.45	1.4237	1.4687	1.6441	1.593	0.6684	0.9201	1.3352	-0.8168	-0.3431	-1.0485	-1.5398	-1.3307	0.5772	1.0148
203.125	1.027	1.26	1.4868	1.0666	0.1464	0.7983	-1.4368	-0.4698	-1.0287	-1.1821	-1.1823	-1.402	-1.1979	-0.4949	0.8078	1.3078	1.273	1.3157	1.5299	1.5217	0.624	0.8472	1.2371	-0.8022	-0.3602	-1.0311	-1.4817	-1.3052	0.5589	0.9386
207.0312	0.8819	1.0753	1.3715	0.9243	0.0498	0.6825	-1.392	-0.4651	-1.0128	-1.1314	-1.1485	-1.3576	-1.1352	-0.5205	0.6386	1.1469	1.0806	1.1108	1.3613	1.4348	0.5749	0.7297	1.0692	-0.7851	-0.3951	-1.0092	-1.4148	-1.2574	0.5352	0.8223
210.9375	0.7278	0.873	1.2287	0.7627	-0.0518	0.5391	-1.3405	-0.465	-0.9845	-1.0718	-1.0931	-1.2865	-1.0603	-0.542	0.4567	0.9731	0.8564	0.8671	1.1454	1.3274	0.5143	0.5706	0.8467	-0.7694	-0.4435	-0.9861	-1.3468	-1.1943	0.5058	0.6773
214.8438	0.5737	0.6645	1.0702	0.5907	-0.1559	0.3776	-1.2926	-0.4715	-0.95	-1.0079	-1.0235	-1.1972	-0.9841	-0.567	0.2706	0.7889	0.611	0.6003	0.8917	1.1921	0.4335	0.3756	0.59	-0.7585	-0.4982	-0.9624	-1.2827	-1.1222	0.4696	0.5172
218.75	0.426	0.4591	0.9072	0.4149	-0.263	0.2061	-1.2582	-0.4864	-0.9142	-0.9442	-0.9466	-1.0978	-0.9187	-0.6038	0.0866	0.5935	0.3541	0.3267	0.6103	1.0199	0.3228	0.1526	0.3205	-0.7546	-0.5506	-0.9362	-1.2248	-1.0458	0.4257	0.3556
222.6562	0.2885	0.2624	0.7481	0.2387	-0.3753	0.0315	-1.244	-0.5104	-0.8796	-0.8844	-0.8674	-0.9954	-0.8752	-0.6604	-0.0914	0.384	0.0934	0.0603	0.3111	0.8032	0.1743	-0.0898	0.0575	-0.7597	-0.5926	-0.9039	-1.1732	-0.968	0.3735	0.2041
226.5625	0.1616	0.0769	0.5984	0.0634	-0.4947	-0.1398	-1.2516	-0.5419	-0.846	-0.8299	-0.7884	-0.8951	-0.8619	-0.7419	-0.2621	0.1567	-0.165	-0.1879	0.0039	0.5387	-0.0154	-0.3419	-0.1842	-0.7743	-0.6178	-0.8615	-1.126	-0.8901	0.3136	0.0709
230.4688	0.0436	-0.0977	0.4608	-0.1109	-0.6215	-0.3014	-1.2766	-0.5771	-0.8108	-0.7806	-0.7104	-0.8007	-0.8823	-0.849	-0.4255	-0.0899	-0.4165	-0.411	-0.3023	0.2289	-0.2438	-0.5944	-0.3956	-0.7982	-0.623	-0.8056	-1.0808	-0.8127	0.2476	-0.0395
234.375	-0.0683	-0.2621	0.3359	-0.2834	-0.7531	-0.447	-1.3101	-0.6103	-0.7712	-0.7351	-0.634	-0.7149	-0.9349	-0.977	-0.5821	-0.3544	-0.6575	-0.6062	-0.5985	-0.116	-0.5014	-0.8375	-0.5735	-0.8302	-0.6086	-0.7353	-1.0359	-0.7368	0.1786	-0.1256
238.2812	-0.1768	-0.417	0.2239	-0.4516	-0.8842	-0.5704	-1.3415	-0.6354	-0.7255	-0.6924	-0.5605	-0.6408	-1.0133	-1.1168	-0.7322	-0.6309	-0.8844	-0.7737	-0.8762	-0.4798	-0.7727	-1.062	-0.7192	-0.868	-0.5786	-0.6529	-0.9909	-0.665	0.1105	-0.1889
242.1875	-0.2831	-0.5611	0.1252	-0.6113	-1.0079	-0.6662	-1.3609	-0.6475	-0.6744	-0.6532	-0.4929	-0.5814	-1.1079	-1.2555	-0.8749	-0.9093	-1.0938	-0.9158	-1.1275	-0.841	-1.0378	-1.2594	-0.8368	-0.9091	-0.54	-0.5644	-0.9476	-0.6013	0.0475	-0.2324
246.0938	-0.3867	-0.6921	0.0407	-0.7564	-1.1169	-0.7309	-1.3629	-0.6435	-0.6211	-0.6203	-0.4359	-0.5401	-1.2067	-1.3788	-1.0085	-1.1773	-1.282	-1.0358	-1.3454	-1.1769	-1.2758	-1.4226	-0.9315	-0.9504	-0.5016	-0.4786	-0.9094	-0.5506	-0.0067	-0.2597
250	-0.4856	-0.8068	-0.0287	-0.8805	-1.2055	-0.7638	-1.3467	-0.6234	-0.5707	-0.5978	-0.3944	-0.5194	-1.2974	-1.4731	-1.1308	-1.4217	-1.4458	-1.1367	-1.5242	-1.4662	-1.4675	-1.5463	-1.0076	-0.9888	-0.4721	-0.4051	-0.8802	-0.5172	-0.0498	-0.2751
253.9062	-0.577	-0.9031	-0.0832	-0.9784	-1.2706	-0.7677	-1.3158	-0.5896	-0.5281	-0.5898	-0.3718	-0.5197	-1.3688	-1.5275	-1.2397	-1.6318	-1.583	-1.2209	-1.6606	-1.6929	-1.5986	-1.6278	-1.0676	-1.0214	-0.4584	-0.3526	-0.8628	-0.5034	-0.0817	-0.2823
257.8125	-0.6587	-0.9811	-0.1241	-1.048	-1.3122	-0.7486	-1.2762	-0.5464	-0.4964	-0.5983	-0.3681	-0.5386	-1.4117	-1.536	-1.3343	-1.8014	-1.6931	-1.2904	-1.7544	-1.849	-1.6628	-1.6672	-1.1122	-1.0451	-0.4636	-0.3264	-0.8577	-0.5081	-0.1044	-0.2847
261.7188	-0.7299	-1.0442	-0.1551	-1.0906	-1.3335	-0.7157	-1.2338	-0.4987	-0.4758	-0.6213	-0.3794	-0.5698	-1.4201	-1.4979	-1.4156	-1.9299	-1.7782	-1.3467	-1.8086	-1.936	-1.6625	-1.6679	-1.1404	-1.0571	-0.4863	-0.3275	-0.8624	-0.5267	-0.1222	-0.2851
265.625	-0.7924	-1.0991	-0.1818	-1.1119	-1.3399	-0.6793	-1.1926	-0.4512	-0.4632	-0.6525	-0.3976	-0.6046	-1.3912	-1.4184	-1.4863	-2.0228	-1.8429	-1.3915	-1.8298	-1.9649	-1.609	-1.6357	-1.1506	-1.0545	-0.5208	-0.3517	-0.8711	-0.5517	-0.1404	-0.2852
269.5312	-0.85	-1.1546	-0.2115	-1.1207	-1.3376	-0.6499	-1.1532	-0.4067	-0.452	-0.6809	-0.412	-0.632	-1.3257	-1.3071	-1.5502	-2.09	-1.893	-1.4264	-1.8271	-1.9538	-1.5199	-1.5779	-1.1414	-1.0345	-0.5575	-0.3906	-0.8756	-0.5739	-0.1654	-0.2862
273.4375	-0.9073	-1.2198	-0.2523	-1.1277	-1.3325	-0.6355	-1.1134	-0.3661	-0.4337	-0.6938	-0.4108	-0.6417	-1.2269	-1.1763	-1.611	-2.1435	-1.9346	-1.4529	-1.8097	-1.9243	-1.4167	-1.5019	-1.1114	-0.9944	-0.585	-0.4328	-0.8668	-0.584	-0.203	-0.2881
277.3438	-0.9689	-1.3018	-0.311	-1.1428	-1.329	-0.6407	-1.0688	-0.3285	-0.4001	-0.6786	-0.3838	-0.6253	-1.1002	-1.0392	-1.6707	-2.1946	-1.9717	-1.4715	-1.7856	-1.8977	-1.32	-1.4137	-1.0597	-0.9313	-0.5917	-0.4656	-0.8359	-0.5743	-0.2575	-0.2903
281.25	-1.0371	-1.4034	-0.3922	-1.1736	-1.3299	-0.6657	-1.0148	-0.2915	-0.345	-0.6263	-0.3247	-0.5782	-0.9524	-0.9077	-1.7288	-2.251	-2.0057	-1.4819	-1.7593	-1.8904	-1.2466	-1.3174	-0.986	-0.843	-0.5683	-0.4769	-0.7764	-0.5393	-0.3303	-0.2915
285.1562	-1.1112	-1.5223	-0.4962	-1.2235	-1.3365	-0.7063	-0.9486	-0.253	-0.2669	-0.534	-0.2333	-0.5008	-0.7909	-0.7913	-1.7819	-2.315	-2.0344	-1.4827	-1.7315	-1.9117	-1.2065	-1.2145	-0.8908	-0.7281	-0.5093	-0.4573	-0.6849	-0.4767	-0.4193	-0.2903
289.0625	-1.1872	-1.6507	-0.6185	-1.2911	-1.3484	-0.7553	-0.87	-0.2117	-0.1697	-0.4058	-0.1156	-0.3983	-0.6233	-0.6962	-1.8244	-2.3837	-2.0532	-1.4727	-1.6996	-1.9621	-1.2024	-1.1055	-0.7763	-0.5877	-0.4144	-0.4014	-0.5621	-0.3877	-0.519	-0.2856
292.9688	-1.2585	-1.7773	-0.7505	-1.3706	-1.3644	-0.8036	-0.7819	-0.1678	-0.0626	-0.2531	0.0172	-0.2802	-0.4572	-0.6253	-1.8503	-2.4498	-2.0568	-1.4512	-1.6599	-2.034	-1.2299	-0.9914	-0.6469	-0.426	-0.2893	-0.3097	-0.4132	-0.2769	-0.6213	-0.2774
296.875	-1.3178	-1.889	-0.8806	-1.4527	-1.3819	-0.8422	-0.6895	-0.1234	0.042	-0.0916	0.1502	-0.1582	-0.2999	-0.5788	-1.8547	-2.5037	-2.0415	-1.4196	-1.6097	-2.1143	-1.2795	-0.8752	-0.51	-0.2515	-0.1448	-0.1885	-0.2482	-0.1522	-0.7168	-0.2671
300.7812	-1.3587	-1.9745	-0.9968	-1.5271	-1.3977	-0.864	-0.5996	-0.0815	0.1306	0.0612	0.2685	-0.045	-0.1592	-0.5554	-1.8358	-2.5367	-2.0067	-1.3818	-1.5496	-2.1873	-1.3397	-0.7637	-0.3765	-0.0774	0.004	-0.0501	-0.0811	-0.024	-0.7968	-0.2576
304.6875	-1.3776	-2.0263	-1.0884	-1.5844	-1.4083	-0.865	-0.5187	-0.0453	0.1922	0.1891	0.359	0.0481	-0.0433	-0.5533	-1.7956	-2.5428	-1.9559	-1.3435	-1.4849	-2.2393	-1.3997	-0.6675	-0.2596	0.0795	0.1402	0.0895	0.0715	0.0952	-0.8553	-0.2525
308.5938	-1.375	-2.0421	-1.149	-1.6181	-1.4105	-0.8449	-0.4523	-0.0173	0.2201	0.2805	0.4129	0.1121	0.0393	-0.5718	-1.7398	-2.5209	-1.8964	-1.3122	-1.425	-2.2614	-1.4522	-0.5999	-0.1735	0.2006	0.2476	0.2127	0.1919	0.193	-0.8896	-0.2557
312.5	-1.3547	-2.0254	-1.1768	-1.6259	-1.4024	-0.8069	-0.4044	0.0013	0.2136	0.329	0.4269	0.142	0.0805	-0.6111	-1.677	-2.4748	-1.8379	-1.2946	-1.3817	-2.2515	-1.4947	-0.5743	-0.1312	0.269	0.3139	0.3038	0.2645	0.2583	-0.9008	-0.2695
316.4062	-1.3237	-1.9841	-1.1755	-1.6102	-1.3836	-0.7573	-0.3779	0.0108	0.1777	0.3342	0.4029	0.1369	0.0742	-0.6722	-1.6169	-2.4125	-1.7902	-1.2958	-1.3664	-2.215	-1.5294	-0.6012	-0.1412	0.2728	0.3322	0.3516	0.2787	0.2837	-0.8936	-0.2945
320.3125	-1.2902	-1.9293	-1.1534	-1.5772	-1.3562	-0.7043	-0.3742	0.012	0.1215	0.3001	0.347	0.1002	0.0173	-0.756	-1.568	-2.3446	-1.7615	-1.3176	-1.3873	-2.163	-1.5623	-0.6849	-0.2059	0.2077	0.3025	0.3519	0.2305	0.2666	-0.875	-0.3287
324.2188	-1.2618	-1.8727	-1.1215	-1.5357	-1.3241	-0.6571	-0.3941	0.0059	0.0555	0.2335	0.2683	0.0385	-0.0887	-0.8621	-1.5364	-2.2819	-1.7563	-1.3582	-1.4473	-2.1096	-1.6009	-0.8221	-0.3208	0.0791	0.2315	0.3078	0.1247	0.2102	-0.8534	-0.3686
328.125	-1.2443	-1.8248	-1.0913	-1.4952	-1.2927	-0.6239	-0.4372	-0.0069	-0.0109	0.1424	0.1769	-0.0389	-0.2371	-0.9878	-1.5243	-2.2333	-1.7747	-1.4126	-1.543	-2.0689	-1.652	-1.0018	-0.4746	-0.0989	0.1311	0.2289	-0.0263	0.1231	-0.8367	-0.4093
332.0312	-1.2401	-1.7924	-1.0726	-1.4642	-1.2677	-0.6109	-0.5019	-0.0264	-0.071	0.0349	0.0824	-0.1218	-0.4155	-1.1269	-1.5299	-2.2041	-1.8127	-1.4739	-1.6653	-2.0513	-1.7192	-1.2067	-0.6511	-0.305	0.016	0.1297	-0.2035	0.0181	-0.8315	-0.4465
335.9375	-1.2483	-1.7778	-1.0712	-1.4478	-1.2539	-0.621	-0.5849	-0.0529	-0.1211	-0.0812	-0.0062	-0.1996	-0.6071	-1.2701	-1.5475	-2.1947	-1.8625	-1.5344	-1.8009	-2.0608	-1.8011	-1.4163	-0.8318	-0.5144	-0.0985	0.0267	-0.3843	-0.0893	-0.8417	-0.4766
339.8438	-1.2648	-1.7781	-1.0882	-1.4476	-1.2541	-0.6537	-0.6808	-0.086	-0.1603	-0.1982	-0.0815	-0.263	-0.7923	-1.4054	-1.5689	-2.2004	-1.9141	-1.5871	-1.9339	-2.0939	-1.8905	-1.6096	-0.9989	-0.7025	-0.1986	-0.0643	-0.5456	-0.1835	-0.8681	-0.4982
343.75	-1.2833	-1.786	-1.1202	-1.4606	-1.2682	-0.7051	-0.7818	-0.1245	-0.1893	-0.3079	-0.1371	-0.3042	-0.9508	-1.5192	-1.5849	-2.2121	-1.9567	-1.6262	-2.0482	-2.1395	-1.975	-1.7683	-1.138	-0.8484	-0.2743	-0.13	-0.6671	-0.2504	-0.9084	-0.5113
347.6562	-1.2963	-1.7914	-1.1602	-1.4806	-1.2932	-0.7685	-0.8778	-0.1656	-0.2092	-0.402	-0.1687	-0.3178	-1.0648	-1.5982	-1.5864	-2.2174	-1.9796	-1.6479	-2.129	-2.1811	-2.0388	-1.8786	-1.2391	-0.9379	-0.3194	-0.1617	-0.734	-0.2799	-0.9576	-0.5176
351.5625	-1.2964	-1.783	-1.1994	-1.4984	-1.3235	-0.8359	-0.9568	-0.2052	-0.2208	-0.472	-0.1731	-0.3012	-1.1204	-1.6308	-1.5661	-2.203	-1.9736	-1.6495	-2.1641	-2.1993	-2.0648	-1.9317	-1.2977	-0.9642	-0.3322	-0.1554	-0.7389	-0.2664	-1.0088	-0.5194
355.4688	-1.2772	-1.7498	-1.2286	-1.504	-1.3507	-0.8982	-1.0062	-0.2383	-0.224	-0.5099	-0.1492	-0.2547	-1.1096	-1.6085	-1.5191	-2.1562	-1.9312	-1.6289	-2.1445	-2.1752	-2.0379	-1.9235	-1.314	-0.9277	-0.3145	-0.1116	-0.6818	-0.2099	-1.0546	-0.5186
359.375	-1.2338	-1.6837	-1.2395	-1.4875	-1.3652	-0.947	-1.0139	-0.2595	-0.2175	-0.5093	-0.0971	-0.1812	-1.0306	-1.5262	-1.4435	-2.0673	-1.848	-1.5846	-2.0651	-2.094	-1.9468	-1.8546	-1.2914	-0.8348	-0.2713	-0.0354	-0.57	-0.1151	-1.0877	-0.5167
363.2812	-1.1633	-1.5798	-1.2264	-1.441	-1.3575	-0.9745	-0.9706	-0.2636	-0.1992	-0.4664	-0.0192	-0.0864	-0.8879	-1.3836	-1.3405	-1.9311	-1.7224	-1.5158	-1.9256	-1.9477	-1.787	-1.7289	-1.236	-0.6959	-0.209	0.065	-0.416	0.0088	-1.1021	-0.5143
367.1875	-1.0655	-1.4383	-1.1863	-1.3597	-1.3191	-0.9748	-0.8723	-0.247	-0.1673	-0.3808	0.0807	0.0221	-0.6915	-1.1847	-1.2144	-1.7479	-1.5571	-1.4228	-1.731	-1.7363	-1.5608	-1.5538	-1.1552	-0.5236	-0.1355	0.1795	-0.2361	0.1498	-1.0944	-0.5118
371.0938	-0.9428	-1.2635	-1.1192	-1.2424	-1.244	-0.9437	-0.721	-0.2075	-0.1202	-0.2564	0.1965	0.1352	-0.4555	-0.938	-1.0721	-1.5237	-1.3587	-1.3082	-1.4912	-1.4684	-1.278	-1.3394	-1.0572	-0.331	-0.0584	0.2968	-0.0476	0.2947	-1.0634	-0.5097
375	-0.7996	-1.0632	-1.0278	-1.0914	-1.1297	-0.8786	-0.5255	-0.1453	-0.0579	-0.1008	0.3206	0.2437	-0.1966	-0.6559	-0.9217	-1.269	-1.1374	-1.177	-1.2213	-1.1592	-0.9544	-1.0983	-0.9495	-0.1308	0.0158	0.4067	0.1335	0.4308	-1.011	-0.5088
378.9062	-0.6428	-0.8473	-0.9165	-0.9118	-0.9775	-0.7795	-0.3006	-0.063	0.0178	0.0747	0.4444	0.3394	0.0676	-0.3541	-0.7714	-0.9975	-0.906	-1.0371	-0.9396	-0.8286	-0.61	-0.8448	-0.8391	0.0659	0.0819	0.5013	0.2947	0.5478	-0.9411	-0.5099
382.8125	-0.4805	-0.6259	-0.7912	-0.7108	-0.7925	-0.6483	-0.0649	0.0344	0.1028	0.2567	0.5586	0.4155	0.3198	-0.0508	-0.6287	-0.7242	-0.6788	-0.898	-0.6657	-0.498	-0.2667	-0.5941	-0.7315	0.2494	0.1375	0.5758	0.4279	0.6389	-0.8592	-0.5138
386.7188	-0.3212	-0.4086	-0.6583	-0.4968	-0.5841	-0.4903	0.1612	0.1396	0.1907	0.4304	0.6541	0.4676	0.5441	0.2346	-0.4998	-0.4635	-0.4694	-0.7696	-0.418	-0.1875	0.0534	-0.3611	-0.631	0.4113	0.182	0.629	0.5301	0.7014	-0.7714	-0.5201
390.625	-0.1737	-0.2031	-0.5244	-0.2794	-0.3645	-0.3137	0.3585	0.2439	0.2738	0.5817	0.7227	0.4934	0.7277	0.4833	-0.3882	-0.2276	-0.2887	-0.6599	-0.2113	0.086	0.3307	-0.1594	-0.5403	0.5449	0.2164	0.663	0.6021	0.7359	-0.6839	-0.5275
394.5312	-0.0454	-0.0157	-0.3957	-0.0687	-0.1485	-0.1296	0.5114	0.3381	0.3441	0.6982	0.7583	0.4928	0.8614	0.679	-0.2955	-0.0257	-0.1439	-0.574	-0.0552	0.3106	0.5496	0.0003	-0.4606	0.6449	0.2429	0.6816	0.6473	0.7459	-0.6017	-0.5335
398.4375	0.0579	0.1488	-0.2777	0.1252	0.049	0.049	0.6103	0.4138	0.395	0.7716	0.758	0.4675	0.9404	0.8103	-0.221	0.1364	-0.0372	-0.5125	0.0475	0.4797	0.7007	0.1111	-0.3921	0.7077	0.2637	0.6892	0.6699	0.7356	-0.5284	-0.5346
402.3438	0.133	0.2872	-0.1743	0.2928	0.2146	0.2092	0.6523	0.4652	0.4228	0.7983	0.7229	0.4208	0.9647	0.8718	-0.1622	0.2571	0.0335	-0.472	0.1	0.5923	0.7811	0.1706	-0.3342	0.7318	0.2801	0.6889	0.6737	0.7093	-0.4661	-0.5274
406.25	0.1786	0.3969	-0.0883	0.426	0.3376	0.3398	0.6416	0.49	0.4271	0.7798	0.6578	0.3569	0.9382	0.8652	-0.1158	0.3378	0.0743	-0.4459	0.1105	0.6518	0.7947	0.181	-0.2859	0.718	0.2923	0.6819	0.6608	0.6703	-0.4154	-0.5092
410.1562	0.1961	0.4763	-0.0207	0.5193	0.412	0.4333	0.5879	0.4898	0.4106	0.7226	0.5709	0.2807	0.8683	0.7978	-0.0783	0.3821	0.0932	-0.4266	0.0903	0.6645	0.7502	0.1484	-0.2462	0.6686	0.2987	0.6667	0.6316	0.6202	-0.3755	-0.4785
414.0625	0.1888	0.5242	0.0287	0.5699	0.4362	0.4868	0.5047	0.4699	0.3777	0.636	0.4716	0.1972	0.7639	0.6812	-0.0463	0.3952	0.0983	-0.4064	0.0511	0.6379	0.6589	0.0818	-0.2144	0.5873	0.2964	0.6397	0.5852	0.5593	-0.3446	-0.4357
417.9688	0.1621	0.5409	0.0616	0.5782	0.4132	0.5025	0.4058	0.4378	0.3334	0.5304	0.369	0.1106	0.6342	0.5286	-0.0175	0.3822	0.0968	-0.38	0.0034	0.5787	0.5327	-0.0082	-0.1904	0.4788	0.2817	0.5964	0.5199	0.4873	-0.3194	-0.3826
421.875	0.1227	0.528	0.081	0.5482	0.3501	0.4868	0.3037	0.401	0.2812	0.4154	0.2697	0.0246	0.4879	0.3533	0.0101	0.3477	0.0936	-0.3448	-0.0453	0.4925	0.3822	-0.1112	-0.1742	0.3483	0.2513	0.5329	0.4341	0.4041	-0.295	-0.322
425.7812	0.0788	0.4896	0.0916	0.487	0.2571	0.4494	0.2075	0.3655	0.2236	0.2986	0.1778	-0.058	0.3327	0.1671	0.0378	0.296	0.0914	-0.3008	-0.0902	0.3835	0.2169	-0.2174	-0.166	0.2019	0.2038	0.4477	0.3278	0.3105	-0.2654	-0.2565
429.6875	0.039	0.4329	0.0991	0.4049	0.147	0.4013	0.1226	0.3341	0.1618	0.185	0.095	-0.1347	0.1753	-0.019	0.0672	0.2317	0.091	-0.2502	-0.1295	0.2559	0.0453	-0.318	-0.1652	0.0469	0.1399	0.3426	0.2031	0.2094	-0.2242	-0.1883
433.5938	0.012	0.368	0.1105	0.3148	0.0343	0.353	0.0512	0.3066	0.0966	0.0782	0.0215	-0.2033	0.0224	-0.1948	0.0998	0.1606	0.0929	-0.1958	-0.1621	0.1163	-0.1225	-0.4057	-0.1703	-0.108	0.064	0.2235	0.0648	0.1055	-0.1655	-0.1185
437.5	0.0053	0.3076	0.1324	0.2312	-0.066	0.3137	-0.0068	0.2808	0.0301	-0.0193	-0.0424	-0.2615	-0.1189	-0.3495	0.1378	0.091	0.0982	-0.1397	-0.1864	-0.025	-0.2745	-0.4735	-0.1778	-0.2529	-0.0169	0.0996	-0.0792	0.0056	-0.0856	-0.0474
441.4062	0.0239	0.2657	0.1708	0.1688	-0.1399	0.2898	-0.0517	0.2534	-0.0342	-0.1043	-0.0957	-0.3069	-0.2406	-0.4718	0.1832	0.0337	0.1092	-0.0822	-0.1994	-0.1533	-0.3959	-0.5153	-0.1826	-0.3769	-0.0936	-0.0176	-0.219	-0.0824	0.0154	0.0256
445.3125	0.07	0.2548	0.2295	0.1402	-0.1761	0.2848	-0.0834	0.2226	-0.0909	-0.1726	-0.1364	-0.3368	-0.3342	-0.5503	0.2378	0.0007	0.1301	-0.0217	-0.1958	-0.2509	-0.4709	-0.5257	-0.1781	-0.4694	-0.1562	-0.1165	-0.3432	-0.1505	0.1332	0.101
449.2188	0.1418	0.2839	0.3096	0.1541	-0.1682	0.299	-0.1008	0.188	-0.1343	-0.2194	-0.1613	-0.3491	-0.3913	-0.5754	0.3023	0.0034	0.1659	0.0444	-0.1692	-0.2999	-0.4855	-0.5009	-0.1576	-0.5214	-0.1959	-0.1871	-0.4411	-0.1922	0.2597	0.1791
453.125	0.2341	0.3557	0.408	0.2126	-0.1165	0.3293	-0.1025	0.1514	-0.1594	-0.2401	-0.1679	-0.3423	-0.4056	-0.5415	0.3761	0.0497	0.221	0.1187	-0.1136	-0.2867	-0.4306	-0.4386	-0.1156	-0.5272	-0.2062	-0.2223	-0.5037	-0.2031	0.3837	0.2592
457.0312	0.3386	0.4655	0.5179	0.3099	-0.0288	0.3697	-0.0882	0.1155	-0.1641	-0.2326	-0.155	-0.3171	-0.3742	-0.4492	0.4566	0.1412	0.2976	0.2022	-0.0255	-0.2059	-0.3062	-0.3398	-0.0491	-0.4851	-0.1843	-0.2196	-0.5253	-0.1827	0.4936	0.339
460.9375	0.4452	0.6008	0.6289	0.4326	0.0797	0.4114	-0.06	0.0828	-0.1497	-0.1985	-0.1241	-0.2759	-0.2993	-0.3065	0.5386	0.2719	0.3939	0.2924	0.0938	-0.0633	-0.1225	-0.2086	0.0414	-0.3988	-0.1315	-0.1808	-0.5048	-0.1344	0.5789	0.4145
464.8438	0.543	0.7427	0.7283	0.5606	0.1889	0.444	-0.0236	0.0548	-0.1219	-0.144	-0.08	-0.2239	-0.189	-0.129	0.6152	0.4276	0.5034	0.3836	0.238	0.1236	0.1003	-0.053	0.151	-0.2769	-0.0536	-0.1126	-0.4464	-0.0653	0.6329	0.4803
468.75	0.6217	0.8697	0.8029	0.6706	0.2762	0.4568	0.0125	0.0309	-0.0896	-0.0799	-0.0305	-0.1686	-0.0571	0.0621	0.6785	0.5878	0.6155	0.4673	0.3949	0.3283	0.3342	0.1153	0.2713	-0.1327	0.0402	-0.0254	-0.3591	0.0137	0.6527	0.5308
472.6562	0.6727	0.961	0.8412	0.741	0.3214	0.4401	0.0382	0.0089	-0.0632	-0.0198	0.015	-0.1187	0.0787	0.2427	0.7205	0.7298	0.7169	0.534	0.5491	0.52	0.5481	0.2825	0.3909	0.0175	0.1381	0.0674	-0.2561	0.0905	0.6395	0.561
476.5625	0.6907	1.0011	0.8351	0.7555	0.3106	0.3875	0.0445	-0.014	-0.0523	0.0231	0.0471	-0.0822	0.1989	0.3898	0.7357	0.8329	0.7949	0.5754	0.6841	0.6697	0.7131	0.4335	0.4977	0.156	0.2273	0.1519	-0.1529	0.153	0.5976	0.5685
480.4688	0.6742	0.9832	0.782	0.7075	0.2393	0.2974	0.0256	-0.04	-0.063	0.0388	0.0593	-0.0652	0.2862	0.4851	0.7218	0.8826	0.8395	0.5868	0.7859	0.7561	0.8075	0.5543	0.5809	0.2663	0.2963	0.2154	-0.0648	0.1917	0.5327	0.5542
484.375	0.6261	0.9101	0.6853	0.6016	0.1138	0.1735	-0.0187	-0.069	-0.0963	0.0237	0.0493	-0.0693	0.3288	0.5185	0.6814	0.8738	0.846	0.5683	0.8451	0.7696	0.8204	0.6336	0.6328	0.336	0.3363	0.2483	-0.0044	0.2019	0.4513	0.5228
488.2812	0.5532	0.7944	0.554	0.4528	-0.0494	0.0255	-0.0834	-0.0984	-0.147	-0.0179	0.0206	-0.0915	0.3227	0.4895	0.6211	0.8114	0.8159	0.5248	0.8586	0.7133	0.7537	0.665	0.6504	0.3584	0.3429	0.2463	0.0203	0.1843	0.3596	0.4814
492.1875	0.4658	0.6552	0.4024	0.2837	-0.2269	-0.1325	-0.1586	-0.1228	-0.2051	-0.0751	-0.0186	-0.1241	0.2727	0.4072	0.5509	0.7089	0.7561	0.4649	0.8296	0.6023	0.6212	0.6474	0.6351	0.3339	0.3169	0.2104	0.0076	0.1456	0.2641	0.4384
496.0938	0.3762	0.5148	0.2477	0.1203	-0.3925	-0.2838	-0.2325	-0.136	-0.2585	-0.1329	-0.057	-0.1568	0.1913	0.2889	0.4818	0.5851	0.677	0.3983	0.7662	0.459	0.4461	0.5852	0.5926	0.27	0.2635	0.1473	-0.0383	0.096	0.172	0.4013
500	0.2967	0.3944	0.1086	-0.0132	-0.5223	-0.4116	-0.2938	-0.1327	-0.2956	-0.1764	-0.0836	-0.1792	0.0957	0.1564	0.4243	0.4599	0.5903	0.3342	0.6796	0.3086	0.2562	0.4878	0.5309	0.1794	0.1917	0.0674	-0.1084	0.0476	0.0917	0.3753
503.9062	0.2386	0.3103	0.0027	-0.0985	-0.5988	-0.5013	-0.3345	-0.1104	-0.3087	-0.1947	-0.0897	-0.1831	0.0045	0.0323	0.3859	0.3506	0.5068	0.2789	0.5815	0.1739	0.0791	0.3681	0.4594	0.0775	0.1119	-0.0171	-0.1908	0.0107	0.0331	0.3627
507.8125	0.2102	0.2718	-0.0559	-0.1258	-0.6132	-0.5431	-0.3513	-0.071	-0.2956	-0.1833	-0.0716	-0.165	-0.0665	-0.0643	0.3706	0.2695	0.4346	0.236	0.4832	0.0718	-0.0623	0.2411	0.3872	-0.0198	0.0343	-0.0945	-0.2735	-0.0083	0.006	0.363
511.7188	0.2161	0.2806	-0.0584	-0.0944	-0.5665	-0.5332	-0.3457	-0.0204	-0.2592	-0.1451	-0.0305	-0.1262	-0.107	-0.1205	0.3784	0.2222	0.3791	0.2065	0.3939	0.0112	-0.1533	0.1212	0.3218	-0.0995	-0.0329	-0.1554	-0.3456	-0.0076	0.0187	0.3739
515.625	0.257	0.3318	-0.0029	-0.012	-0.4682	-0.4744	-0.3239	0.0322	-0.2074	-0.0892	0.0277	-0.0725	-0.1139	-0.1317	0.4066	0.2091	0.343	0.1899	0.3206	-0.0066	-0.1889	0.0214	0.2687	-0.1528	-0.0846	-0.1944	-0.3998	0.0097	0.0755	0.3924
519.5312	0.3291	0.4161	0.1049	0.108	-0.334	-0.3758	-0.2948	0.0759	-0.1501	-0.0286	0.0938	-0.0123	-0.0911	-0.1015	0.45	0.2261	0.3265	0.1852	0.2677	0.0134	-0.1731	-0.0492	0.2313	-0.1761	-0.1189	-0.2104	-0.4322	0.0374	0.174	0.4156
523.4375	0.4254	0.5222	0.2525	0.2492	-0.1823	-0.2508	-0.2684	0.1006	-0.0981	0.0231	0.1574	0.0448	-0.0483	-0.0405	0.503	0.2669	0.3286	0.1919	0.2376	0.0624	-0.1173	-0.0852	0.2106	-0.1712	-0.137	-0.2059	-0.4423	0.0679	0.3049	0.4413
527.3438	0.5358	0.6388	0.4222	0.3956	-0.0313	-0.1152	-0.2531	0.0989	-0.0606	0.0547	0.2085	0.0907	0.0018	0.0373	0.5604	0.3249	0.3473	0.2097	0.2306	0.1306	-0.0366	-0.0855	0.2063	-0.1432	-0.142	-0.1858	-0.4322	0.095	0.4524	0.4679
531.25	0.6492	0.7563	0.5941	0.5337	0.1049	0.0159	-0.2539	0.068	-0.044	0.0603	0.2396	0.1197	0.0466	0.1171	0.6183	0.3943	0.3801	0.2385	0.2458	0.209	0.0537	-0.0515	0.2174	-0.0988	-0.1373	-0.1557	-0.405	0.115	0.5973	0.4946
535.1562	0.7541	0.8663	0.7491	0.6535	0.2168	0.1306	-0.2715	0.0098	-0.051	0.0395	0.2468	0.1298	0.0765	0.1867	0.6738	0.47	0.4239	0.2778	0.2813	0.2903	0.1412	0.0128	0.2427	-0.0451	-0.1258	-0.1207	-0.3641	0.1272	0.7203	0.5211
539.0625	0.84	0.9615	0.8712	0.7487	0.3006	0.221	-0.302	-0.0693	-0.0809	-0.0028	0.23	0.1222	0.0858	0.2383	0.7246	0.5473	0.4752	0.3257	0.3343	0.3691	0.2176	0.102	0.2806	0.0122	-0.1093	-0.0846	-0.3129	0.1333	0.806	0.5471
542.9688	0.8987	1.0347	0.9498	0.8154	0.3568	0.2843	-0.3388	-0.1602	-0.1295	-0.0584	0.1925	0.1001	0.0735	0.2685	0.7686	0.6208	0.5294	0.3791	0.4007	0.4412	0.2799	0.209	0.3294	0.0687	-0.0884	-0.0498	-0.2554	0.1361	0.8457	0.5721
546.875	0.9251	1.0792	0.981	0.852	0.3886	0.322	-0.3742	-0.2529	-0.1903	-0.1175	0.1401	0.068	0.0422	0.2788	0.8031	0.6847	0.5819	0.4333	0.4751	0.5035	0.3285	0.3256	0.3859	0.121	-0.0638	-0.018	-0.1962	0.1376	0.8388	0.5948
550.7812	0.9185	1.0893	0.9676	0.859	0.4012	0.3388	-0.401	-0.3376	-0.2553	-0.1709	0.0802	0.0306	-0.0027	0.274	0.8252	0.7331	0.628	0.4835	0.5517	0.5543	0.3676	0.4428	0.4463	0.1665	-0.0363	0.0094	-0.141	0.1388	0.7924	0.613
554.6875	0.8826	1.0631	0.9191	0.839	0.4006	0.3417	-0.4138	-0.4063	-0.3159	-0.2107	0.0208	-0.0079	-0.0536	0.2616	0.833	0.7618	0.6646	0.5254	0.6251	0.5935	0.4029	0.5516	0.5057	0.2035	-0.0078	0.0313	-0.0954	0.1393	0.7196	0.6241
558.5938	0.8254	1.0039	0.8498	0.7982	0.3942	0.3396	-0.4091	-0.4526	-0.3634	-0.2306	-0.03	-0.0437	-0.1019	0.2507	0.8265	0.77	0.691	0.5573	0.6913	0.6241	0.4416	0.6447	0.5597	0.2313	0.0191	0.0461	-0.0641	0.1382	0.6367	0.6262
562.5	0.7591	0.9222	0.7775	0.7471	0.3907	0.342	-0.3846	-0.4719	-0.3899	-0.2259	-0.0641	-0.0732	-0.1375	0.2515	0.8095	0.762	0.7097	0.5801	0.7488	0.6515	0.4914	0.7181	0.6051	0.2504	0.0412	0.053	-0.0497	0.1348	0.5604	0.619
566.4062	0.6982	0.8355	0.7209	0.7004	0.4001	0.3588	-0.3387	-0.4607	-0.3887	-0.1932	-0.0744	-0.0927	-0.1507	0.274	0.7893	0.7472	0.7266	0.5981	0.7998	0.6844	0.5596	0.7718	0.6409	0.2633	0.0561	0.0517	-0.0515	0.1297	0.5052	0.6051
570.3125	0.658	0.767	0.6974	0.6763	0.4332	0.3994	-0.2702	-0.417	-0.3557	-0.1308	-0.0554	-0.0987	-0.1326	0.3265	0.7773	0.74	0.7504	0.6186	0.8496	0.7327	0.6522	0.8104	0.6689	0.2737	0.0621	0.0429	-0.0662	0.1246	0.4816	0.5897
574.2188	0.6529	0.7414	0.7208	0.6932	0.4996	0.4712	-0.1792	-0.3414	-0.2903	-0.0393	-0.0047	-0.0884	-0.0775	0.4139	0.7864	0.7567	0.7908	0.6499	0.9057	0.807	0.7729	0.8416	0.6927	0.2855	0.059	0.0282	-0.088	0.1222	0.4955	0.5807
578.125	0.6936	0.7805	0.7992	0.7664	0.6058	0.5777	-0.0681	-0.2378	-0.1967	0.077	0.0755	-0.0612	0.0151	0.536	0.8289	0.813	0.8573	0.7	0.9762	0.9158	0.9218	0.8744	0.7167	0.3018	0.0475	0.0095	-0.1111	0.1246	0.5478	0.5865
582.0312	0.7858	0.8979	0.9332	0.9039	0.7523	0.7173	0.0572	-0.1139	-0.0843	0.2092	0.1776	-0.0194	0.1391	0.6859	0.9128	0.9199	0.956	0.7738	1.0673	1.0638	1.0943	0.9164	0.7447	0.3229	0.0287	-0.0121	-0.1318	0.1324	0.6345	0.6136
585.9375	0.9282	1.0951	1.1154	1.1035	0.932	0.8818	0.1865	0.0182	0.0333	0.3437	0.2891	0.0307	0.2811	0.8507	1.0392	1.0806	1.0882	0.872	1.1815	1.2504	1.2814	0.9715	0.7779	0.3461	0.0035	-0.0366	-0.1498	0.143	0.7482	0.6646
589.8438	1.113	1.3599	1.3305	1.3517	1.1306	1.0573	0.3056	0.1442	0.1403	0.4638	0.3942	0.0798	0.4225	1.0127	1.2012	1.289	1.2494	0.9902	1.3163	1.4683	1.4698	1.0389	0.8148	0.3654	-0.0279	-0.0658	-0.1691	0.1511	0.8783	0.7371
593.75	1.3254	1.6677	1.5575	1.6257	1.3279	1.2255	0.3985	0.2489	0.2215	0.5519	0.4767	0.1167	0.5426	1.1526	1.3845	1.5301	1.4293	1.12	1.4644	1.7044	1.6436	1.1131	0.8518	0.3736	-0.0657	-0.1025	-0.1963	0.1491	1.0128	0.8238
597.6562	1.5464	1.9855	1.7726	1.8966	1.5018	1.3668	0.45	0.3193	0.2652	0.5934	0.5233	0.1315	0.6232	1.2533	1.5698	1.7817	1.6135	1.2502	1.6147	1.9406	1.7868	1.1859	0.8841	0.364	-0.1102	-0.1498	-0.2384	0.1297	1.1391	0.9145
601.5625	1.7543	2.2777	1.9522	2.1344	1.6326	1.4638	0.4494	0.3466	0.2654	0.5801	0.5269	0.1172	0.6527	1.3036	1.7367	2.0185	1.7851	1.3692	1.754	2.1565	1.8863	1.2484	0.9073	0.3327	-0.1606	-0.2094	-0.3002	0.0879	1.2452	0.9982
605.4688	1.9284	2.5122	2.0772	2.314	1.7064	1.5045	0.3931	0.3278	0.2235	0.5128	0.4879	0.0725	0.6292	1.3006	1.8672	2.2159	1.9277	1.4662	1.8691	2.3322	1.9337	1.2931	0.919	0.2802	-0.2153	-0.2807	-0.3819	0.0228	1.3208	1.0659
609.375	2.0514	2.6657	2.1348	2.4183	1.7176	1.4847	0.2865	0.267	0.1476	0.4017	0.4155	0.0024	0.561	1.2501	1.9491	2.3546	2.0281	1.5334	1.9489	2.4518	1.9274	1.3155	0.9189	0.2113	-0.271	-0.36	-0.4781	-0.0614	1.3581	1.1119
613.2812	2.1119	2.7272	2.1205	2.4414	1.6694	1.4079	0.1438	0.1747	0.0522	0.2656	0.3253	-0.0826	0.4648	1.1651	1.9775	2.4233	2.0779	1.566	1.9866	2.5056	1.8731	1.3149	0.9088	0.135	-0.3233	-0.441	-0.5788	-0.1556	1.3526	1.1344
617.1875	2.1061	2.6983	2.0378	2.3885	1.5726	1.2853	-0.014	0.0659	-0.0453	0.1277	0.2369	-0.1682	0.3621	1.0632	1.9548	2.4208	2.0754	1.5634	1.9803	2.493	1.7828	1.2935	0.8917	0.062	-0.3674	-0.5158	-0.6708	-0.248	1.3034	1.1353
621.0938	2.0379	2.5923	1.8973	2.2746	1.4427	1.1326	-0.163	-0.0421	-0.1275	0.0118	0.1693	-0.2395	0.2746	0.9628	1.8896	2.3557	2.0258	1.5284	1.9339	2.4226	1.6731	1.2563	0.871	0.0027	-0.3992	-0.5764	-0.7413	-0.3262	1.2137	1.1185
625	1.9185	2.431	1.7155	2.1211	1.2973	0.9677	-0.281	-0.1326	-0.1807	-0.0633	0.1367	-0.2839	0.2189	0.8797	1.7949	2.2445	1.94	1.467	1.8566	2.3107	1.5622	1.2092	0.8493	-0.035	-0.4159	-0.6162	-0.7809	-0.3801	1.0906	1.089
628.9062	1.7644	2.2403	1.512	1.9523	1.1535	0.8077	-0.3518	-0.1926	-0.1972	-0.0873	0.1458	-0.2941	0.2043	0.8245	1.6857	2.1091	1.8337	1.3876	1.7617	2.1795	1.4672	1.1591	0.8286	-0.0469	-0.4168	-0.6317	-0.7851	-0.4039	0.9448	1.0517
632.8125	1.5959	2.0467	1.3077	1.7919	1.0253	0.667	-0.3685	-0.2141	-0.1762	-0.0595	0.1949	-0.2691	0.2303	0.8021	1.5768	1.973	1.7242	1.3	1.6647	2.0522	1.4007	1.1124	0.8099	-0.0332	-0.4034	-0.6228	-0.7552	-0.3969	0.79	1.0108
636.7188	1.4338	1.8732	1.1223	1.6593	0.9234	0.5558	-0.3342	-0.1954	-0.1231	0.0122	0.2755	-0.2131	0.2884	0.8107	1.4813	1.857	1.6279	1.214	1.5804	1.9493	1.3697	1.0749	0.7937	0.0027	-0.3783	-0.5921	-0.6973	-0.3624	0.6417	0.97
640.625	1.2961	1.7372	0.9716	1.5675	0.8539	0.4791	-0.2606	-0.1401	-0.0466	0.1142	0.3749	-0.1344	0.3643	0.8442	1.4087	1.776	1.5576	1.1383	1.5207	1.8844	1.374	1.0513	0.7802	0.0549	-0.3447	-0.5441	-0.6203	-0.3065	0.5148	0.932
644.5312	1.1962	1.6479	0.8655	1.5211	0.8189	0.4369	-0.165	-0.0563	0.0428	0.2316	0.4796	-0.0425	0.4421	0.8935	1.3641	1.7367	1.5201	1.0789	1.492	1.8619	1.4074	1.0445	0.7696	0.1175	-0.3054	-0.4833	-0.5329	-0.236	0.422	0.8987
648.4375	1.1401	1.6061	0.8062	1.5166	0.8163	0.4245	-0.0662	0.0448	0.1354	0.3514	0.5785	0.0537	0.5078	0.9487	1.3477	1.7368	1.5153	1.0385	1.4948	1.877	1.4589	1.0555	0.762	0.185	-0.2621	-0.4135	-0.4424	-0.1564	0.3705	0.8705
652.3438	1.1264	1.6047	0.7883	1.5429	0.8403	0.4332	0.0194	0.1506	0.2233	0.4641	0.6641	0.1476	0.5519	1.0015	1.3547	1.7663	1.537	1.0162	1.5232	1.9168	1.5154	1.0826	0.7567	0.2533	-0.2154	-0.3373	-0.3535	-0.0721	0.3614	0.8469
656.25	1.147	1.6305	0.7998	1.5841	0.882	0.4514	0.0803	0.2488	0.3008	0.564	0.733	0.2346	0.5709	1.0452	1.3768	1.8101	1.5741	1.008	1.5669	1.9645	1.5644	1.1214	0.7522	0.3191	-0.1654	-0.2567	-0.2686	0.0141	0.3885	0.8257
660.1562	1.1886	1.667	0.8243	1.6216	0.9302	0.4669	0.111	0.3284	0.3638	0.648	0.7847	0.3119	0.5665	1.0754	1.4037	1.8518	1.6137	1.0076	1.6133	2.0035	1.5962	1.1653	0.7458	0.3794	-0.1131	-0.1737	-0.1891	0.0994	0.4396	0.8037
664.0625	1.2354	1.6974	0.844	1.6385	0.9727	0.468	0.1114	0.3814	0.4095	0.7139	0.8204	0.3779	0.5435	1.0892	1.4249	1.8772	1.6434	1.0082	1.6499	2.021	1.6053	1.2062	0.7339	0.4302	-0.0606	-0.0914	-0.1166	0.1808	0.4983	0.7776
667.9688	1.2721	1.7074	0.8425	1.6217	0.9979	0.4456	0.085	0.4029	0.4357	0.7595	0.8415	0.431	0.5083	1.0847	1.432	1.8766	1.6538	1.0035	1.6669	2.0103	1.59	1.2354	0.7123	0.467	-0.0114	-0.0143	-0.0536	0.2542	0.547	0.7448
671.875	1.286	1.6877	0.808	1.5644	0.9958	0.3943	0.0371	0.3923	0.4415	0.7819	0.8492	0.4699	0.4662	1.0596	1.4192	1.8461	1.6396	0.9892	1.6579	1.9706	1.5513	1.2447	0.6771	0.4844	0.0297	0.0527	-0.0039	0.3152	0.5697	0.7039
675.7812	1.2687	1.6346	0.7345	1.4664	0.9594	0.3131	-0.0274	0.353	0.4267	0.7785	0.8439	0.4934	0.4204	1.0117	1.3846	1.7871	1.5997	0.9632	1.6202	1.9053	1.491	1.2274	0.625	0.4775	0.058	0.1048	0.0288	0.3597	0.5549	0.6556
679.6875	1.2174	1.5498	0.6226	1.3334	0.8855	0.2051	-0.1046	0.2911	0.3924	0.7475	0.8254	0.5009	0.3713	0.9384	1.3294	1.7039	1.5363	0.9254	1.5545	1.8191	1.4098	1.1784	0.5542	0.4427	0.0695	0.1388	0.041	0.385	0.4975	0.6018
683.5938	1.1342	1.4389	0.479	1.1752	0.7746	0.077	-0.1916	0.2152	0.3415	0.6888	0.7938	0.4922	0.3178	0.8381	1.2572	1.6023	1.4532	0.8769	1.4634	1.7153	1.3068	1.095	0.4641	0.3789	0.062	0.1534	0.0308	0.3904	0.3993	0.545
687.5	1.0258	1.3099	0.3147	1.0031	0.6307	-0.0625	-0.286	0.1338	0.2782	0.6048	0.7499	0.4687	0.2582	0.7109	1.1726	1.4869	1.3549	0.8193	1.3503	1.5948	1.1798	0.9771	0.3562	0.2886	0.036	0.1503	-0.0013	0.3777	0.2685	0.4876
691.4062	0.9018	1.1711	0.1431	0.8278	0.4612	-0.2036	-0.3849	0.0549	0.2086	0.5008	0.6957	0.4334	0.1921	0.5601	1.0803	1.3612	1.2453	0.7538	1.219	1.4566	1.0276	0.8271	0.2337	0.1775	-0.0056	0.1338	-0.0522	0.3512	0.1179	0.4313
695.3125	0.7731	1.0304	-0.0223	0.6584	0.2755	-0.3374	-0.484	-0.016	0.1392	0.3839	0.6351	0.3906	0.1211	0.393	0.9841	1.2271	1.1275	0.6813	1.0733	1.3004	0.8519	0.6508	0.1017	0.0551	-0.0577	0.1103	-0.1157	0.3169	-0.0373	0.3767
699.2188	0.6508	0.895	-0.1691	0.5014	0.0846	-0.4562	-0.578	-0.076	0.0764	0.2626	0.5732	0.3463	0.0494	0.2201	0.8864	1.0872	1.0044	0.6024	0.9179	1.1284	0.659	0.4571	-0.0332	-0.0678	-0.1133	0.087	-0.184	0.2819	-0.1813	0.3243
703.125	0.5444	0.7711	-0.2874	0.361	-0.1002	-0.5552	-0.6618	-0.1251	0.0252	0.1448	0.5159	0.3063	-0.0176	0.0537	0.7893	0.945	0.8789	0.518	0.7583	0.9471	0.4597	0.2576	-0.163	-0.1801	-0.1654	0.0705	-0.2484	0.2524	-0.3001	0.2748
707.0312	0.4613	0.6641	-0.3704	0.2402	-0.2683	-0.6318	-0.7316	-0.1658	-0.012	0.0364	0.4681	0.2756	-0.0752	-0.0942	0.6948	0.8066	0.7548	0.4311	0.6017	0.7675	0.2678	0.0652	-0.2789	-0.2727	-0.2078	0.0652	-0.302	0.2326	-0.3829	0.2305
710.9375	0.4061	0.579	-0.4142	0.1406	-0.4112	-0.6858	-0.7865	-0.2019	-0.0358	-0.0595	0.4329	0.2568	-0.1213	-0.2151	0.6057	0.6798	0.6374	0.3466	0.4561	0.603	0.0974	-0.1072	-0.3723	-0.3406	-0.2366	0.0715	-0.3413	0.2233	-0.4235	0.1951
714.8438	0.38	0.5196	-0.4184	0.0633	-0.523	-0.7188	-0.8293	-0.2374	-0.0497	-0.143	0.4104	0.2489	-0.1578	-0.3051	0.5261	0.5732	0.5329	0.2713	0.3294	0.4663	-0.0404	-0.2489	-0.4358	-0.3836	-0.2511	0.0853	-0.3674	0.2214	-0.421	0.1738
718.75	0.381	0.488	-0.3859	0.0092	-0.6011	-0.7332	-0.8657	-0.2753	-0.0588	-0.2164	0.3973	0.2479	-0.1903	-0.3661	0.4607	0.4943	0.4478	0.2133	0.2285	0.3668	-0.1396	-0.3522	-0.4645	-0.4064	-0.254	0.0987	-0.3865	0.2203	-0.3798	0.1723
722.6562	0.4046	0.484	-0.3222	-0.0217	-0.6453	-0.7315	-0.9025	-0.3169	-0.0689	-0.2833	0.3874	0.2461	-0.2266	-0.4045	0.4143	0.4474	0.3873	0.1796	0.1579	0.3084	-0.2	-0.4141	-0.4569	-0.4169	-0.2513	0.1011	-0.4085	0.2108	-0.3091	0.1953
726.5625	0.4446	0.5049	-0.2349	-0.0293	-0.6578	-0.7155	-0.9463	-0.3613	-0.0854	-0.3471	0.3725	0.2348	-0.2742	-0.4292	0.39	0.4327	0.3544	0.1747	0.119	0.2883	-0.2268	-0.4357	-0.4154	-0.4246	-0.2503	0.0819	-0.4445	0.1838	-0.2207	0.2444
730.4688	0.4936	0.5459	-0.1327	-0.0141	-0.6419	-0.6859	-1.0006	-0.4053	-0.1117	-0.4097	0.3452	0.2051	-0.3375	-0.4486	0.3891	0.4461	0.3492	0.1993	0.1102	0.2987	-0.2278	-0.422	-0.3463	-0.438	-0.2586	0.0336	-0.5036	0.132	-0.1279	0.3178
734.375	0.5446	0.6012	-0.0242	0.0232	-0.6014	-0.6426	-1.0648	-0.4443	-0.1489	-0.4708	0.2999	0.1512	-0.416	-0.4681	0.4103	0.4808	0.3689	0.2499	0.1277	0.3296	-0.2109	-0.3801	-0.2588	-0.4626	-0.2816	-0.0461	-0.5894	0.0528	-0.0426	0.4099
738.2812	0.5914	0.6649	0.0824	0.0819	-0.5395	-0.585	-1.134	-0.4733	-0.1955	-0.5279	0.2356	0.0718	-0.5031	-0.4881	0.4501	0.5293	0.4096	0.3205	0.1672	0.3725	-0.1806	-0.3174	-0.1631	-0.4991	-0.3208	-0.1523	-0.6982	-0.0502	0.0256	0.5119
742.1875	0.6295	0.7324	0.1802	0.1607	-0.4597	-0.5134	-1.2005	-0.4885	-0.2478	-0.5768	0.1555	-0.0285	-0.5878	-0.504	0.5034	0.5861	0.4668	0.4035	0.2249	0.4235	-0.1369	-0.2403	-0.0689	-0.5437	-0.3728	-0.2727	-0.8187	-0.1672	0.0705	0.6134
746.0938	0.6564	0.8004	0.2642	0.2576	-0.3658	-0.4294	-1.2558	-0.4885	-0.3011	-0.6131	0.0672	-0.1402	-0.6566	-0.5074	0.5645	0.6488	0.537	0.4917	0.2987	0.4849	-0.0754	-0.1533	0.0165	-0.5883	-0.4298	-0.3902	-0.9336	-0.2835	0.09	0.7043
750	0.672	0.8673	0.3315	0.3686	-0.2626	-0.3367	-1.2932	-0.4751	-0.351	-0.6338	-0.0202	-0.2506	-0.6977	-0.4895	0.6271	0.7181	0.6177	0.5786	0.3874	0.5634	0.0107	-0.0593	0.0886	-0.6233	-0.4811	-0.486	-1.0237	-0.3824	0.0856	0.7764
753.9062	0.6779	0.9322	0.3814	0.4881	-0.157	-0.2415	-1.31	-0.4531	-0.3948	-0.6386	-0.0978	-0.3469	-0.7035	-0.4439	0.6854	0.7964	0.7064	0.6595	0.4897	0.6671	0.1263	0.039	0.1458	-0.6402	-0.516	-0.5442	-1.0729	-0.4496	0.0624	0.8243
757.8125	0.6768	0.9944	0.4159	0.6081	-0.0577	-0.1512	-1.3081	-0.4294	-0.4325	-0.6306	-0.1601	-0.4193	-0.6736	-0.3705	0.7338	0.8854	0.7997	0.7304	0.6022	0.8005	0.271	0.1381	0.1885	-0.634	-0.5263	-0.5557	-1.0721	-0.4762	0.0279	0.8463
761.7188	0.6717	1.0524	0.4386	0.7196	0.0258	-0.0732	-1.2938	-0.4117	-0.4663	-0.6161	-0.2059	-0.4633	-0.6149	-0.2759	0.7678	0.9832	0.8922	0.7883	0.7182	0.9608	0.4361	0.2324	0.2181	-0.6047	-0.5084	-0.5198	-1.0216	-0.461	-0.0093	0.8442
765.625	0.665	1.1037	0.4544	0.8132	0.084	-0.0136	-1.2763	-0.4062	-0.5006	-0.603	-0.238	-0.4802	-0.54	-0.173	0.7841	1.0835	0.9761	0.8305	0.8278	1.1357	0.6054	0.314	0.2358	-0.5578	-0.4644	-0.4452	-0.9317	-0.4111	-0.0408	0.8228
769.5312	0.6585	1.1454	0.4681	0.8813	0.1098	0.0246	-1.2657	-0.4172	-0.5403	-0.5995	-0.2627	-0.4765	-0.4647	-0.0784	0.7813	1.1758	1.0421	0.8542	0.9182	1.3046	0.7568	0.3743	0.2429	-0.5021	-0.4011	-0.3477	-0.8203	-0.34	-0.0597	0.7888
773.4375	0.6528	1.1745	0.4841	0.919	0.0998	0.042	-1.2712	-0.4459	-0.5908	-0.6124	-0.2876	-0.4625	-0.4045	-0.0089	0.76	1.2468	1.0806	0.857	0.9764	1.4428	0.8675	0.4047	0.24	-0.4485	-0.329	-0.2465	-0.7086	-0.265	-0.0614	0.7497
777.3438	0.6477	1.1889	0.5053	0.9256	0.0546	0.0425	-1.2994	-0.4913	-0.6563	-0.6456	-0.32	-0.4494	-0.3719	0.0221	0.7226	1.2838	1.0836	0.8366	0.9914	1.5268	0.9185	0.3991	0.2272	-0.4068	-0.2593	-0.1609	-0.6175	-0.2035	-0.0445	0.7122
781.25	0.6426	1.1878	0.5327	0.9039	-0.0212	0.0322	-1.3537	-0.5501	-0.7392	-0.7003	-0.3655	-0.447	-0.3739	0.007	0.6727	1.2772	1.0464	0.7918	0.9568	1.5398	0.8987	0.3546	0.2048	-0.3844	-0.2018	-0.1059	-0.5628	-0.1693	-0.0101	0.6807
785.1562	0.6368	1.1721	0.5664	0.8598	-0.1205	0.0176	-1.4337	-0.6185	-0.8402	-0.7746	-0.4271	-0.462	-0.4118	-0.0548	0.6141	1.2238	0.9686	0.7231	0.872	1.4756	0.807	0.2724	0.173	-0.3846	-0.163	-0.0897	-0.5525	-0.1706	0.0382	0.6576
789.0625	0.6298	1.1442	0.605	0.8007	-0.2353	0.0045	-1.5358	-0.6924	-0.9575	-0.8645	-0.505	-0.4967	-0.4809	-0.1572	0.5505	1.1271	0.8552	0.6335	0.7433	1.3403	0.6528	0.1584	0.1328	-0.4064	-0.1447	-0.1124	-0.586	-0.2079	0.0959	0.6424
792.9688	0.6213	1.1081	0.6469	0.734	-0.3577	-0.004	-1.6538	-0.7685	-1.0874	-0.9649	-0.5964	-0.5489	-0.5726	-0.2887	0.4849	0.9979	0.7161	0.5285	0.5829	1.1516	0.4538	0.0218	0.0863	-0.4452	-0.144	-0.1664	-0.6541	-0.2746	0.1583	0.6333
796.875	0.6115	1.0685	0.6905	0.6663	-0.4811	-0.0072	-1.7795	-0.8442	-1.2243	-1.07	-0.6964	-0.6129	-0.6755	-0.4345	0.4197	0.8515	0.5644	0.4164	0.407	0.9347	0.2329	-0.1252	0.0367	-0.4935	-0.1543	-0.2387	-0.742	-0.3587	0.2215	0.6277
