time,FP1,F3,F7,FC3,C3,C5,P3,P7,PO7,PO3,O1,Oz,Pz,CPz,FP2,Fz,F4,F8,FC4,FCz,Cz,C4,C6,P4,P8,PO8,PO4,O2,HEOG_left,HEOG_right
-199.2188,-0.8325,-0.8298,-0.8644,-0.9451,-0.7488,-0.7609,-0.4522,-0.5173,-0.7517,-0.4452,-0.4355,-0.1171,0.251,0.03,-0.1537,-0.0319,-0.1854,0.5518,-0.1439,0.1664,0.0937,-0.1813,0.0368,0.4533,0.6018,0.3417,0.5966,0.2889,-0.5394,-0.9936
-195.3125,-0.8947,-0.6139,-0.8008,-0.6965,-0.585,-0.6597,-0.3627,-0.415,-0.6512,-0.3725,-0.3486,-0.069,0.1841,-0.0262,-0.2258,-0.0477,-0.1492,0.3039,-0.1104,0.1635,0.0829,-0.1773,0.0577,0.3322,0.5053,0.2612,0.4467,0.2104,-0.489,-0.7496
-191.4062,-0.9288,-0.4229,-0.73,-0.4727,-0.4319,-0.5539,-0.2774,-0.312,-0.5494,-0.3031,-0.2659,-0.0305,0.1019,-0.091,-0.2922,-0.0743,-0.1274,0.08,-0.0904,0.1444,0.0557,-0.1808,0.0705,0.2088,0.4139,0.1822,0.2941,0.1293,-0.448,-0.5344
-187.5,-0.9194,-0.2738,-0.6457,-0.2901,-0.2967,-0.4394,-0.199,-0.2075,-0.4455,-0.239,-0.1902,-0.008,-0.0024,-0.167,-0.3493,-0.1168,-0.1309,-0.1002,-0.0952,0.0996,0.0031,-0.1977,0.0675,0.0851,0.3344,0.1097,0.1413,0.047,-0.419,-0.3652
-183.5938,-0.8612,-0.1793,-0.5459,-0.1613,-0.1866,-0.3167,-0.1309,-0.1022,-0.3419,-0.1832,-0.1252,-0.0055,-0.1302,-0.2544,-0.3965,-0.1782,-0.1669,-0.2266,-0.1308,0.0236,-0.0795,-0.2304,0.045,-0.0343,0.2725,0.0496,-0.0058,-0.0339,-0.4011,-0.2502
-179.6875,-0.7608,-0.1463,-0.4345,-0.093,-0.1082,-0.1913,-0.0775,0.001,-0.2442,-0.1404,-0.0754,-0.0242,-0.277,-0.3501,-0.4362,-0.2585,-0.2379,-0.2992,-0.197,-0.0837,-0.1908,-0.2769,0.0041,-0.1425,0.2321,0.0083,-0.1391,-0.1095,-0.3905,-0.188
-175.7812,-0.6338,-0.1735,-0.3194,-0.0846,-0.066,-0.0724,-0.0433,0.097,-0.1598,-0.1149,-0.0453,-0.0627,-0.432,-0.448,-0.4722,-0.3539,-0.3405,-0.3262,-0.2876,-0.2159,-0.3233,-0.3323,-0.0504,-0.2318,0.2148,-0.0096,-0.2491,-0.1757,-0.3816,-0.1686
-171.875,-0.5021,-0.251,-0.2111,-0.1276,-0.0603,0.0296,-0.0312,0.1791,-0.0951,-0.11,-0.0374,-0.1162,-0.58,-0.5394,-0.5079,-0.4561,-0.4648,-0.3204,-0.391,-0.3602,-0.4639,-0.3887,-0.1108,-0.2952,0.2188,-0.0024,-0.3271,-0.2283,-0.3682,-0.1763
-167.9688,-0.3889,-0.3605,-0.1198,-0.2059,-0.086,0.1061,-0.0411,0.2407,-0.0535,-0.1251,-0.0506,-0.1773,-0.7026,-0.6137,-0.5438,-0.5527,-0.5956,-0.295,-0.4924,-0.4988,-0.5948,-0.4374,-0.1681,-0.3282,0.2396,0.028,-0.3668,-0.2636,-0.345,-0.1933
-164.0625,-0.3147,-0.4779,-0.0531,-0.298,-0.1322,0.1523,-0.069,0.2765,-0.0339,-0.1557,-0.0797,-0.2366,-0.7817,-0.6595,-0.5775,-0.6287,-0.7133,-0.26,-0.5757,-0.6112,-0.6966,-0.4697,-0.2129,-0.3291,0.27,0.076,-0.3657,-0.2792,-0.3095,-0.2036
-160.1562,-0.2927,-0.5777,-0.0153,-0.3807,-0.1836,0.1684,-0.1066,0.2837,-0.0311,-0.1931,-0.1161,-0.2846,-0.8029,-0.6667,-0.603,-0.6695,-0.7972,-0.2214,-0.6265,-0.678,-0.7512,-0.478,-0.2371,-0.2999,0.3017,0.1325,-0.3261,-0.2745,-0.2618,-0.1962
-156.25,-0.3265,-0.6383,-0.0075,-0.434,-0.2241,0.1592,-0.1434,0.2627,-0.0378,-0.2272,-0.1497,-0.3138,-0.7588,-0.6288,-0.6127,-0.6641,-0.8296,-0.1808,-0.6341,-0.6853,-0.7458,-0.4573,-0.2346,-0.2459,0.3263,0.187,-0.2546,-0.2513,-0.2056,-0.1677
-152.3438,-0.4086,-0.6472,-0.0281,-0.4457,-0.2404,0.132,-0.1688,0.2165,-0.0465,-0.2487,-0.1724,-0.3204,-0.6518,-0.5454,-0.6,-0.608,-0.7993,-0.1384,-0.5939,-0.6282,-0.6765,-0.406,-0.2023,-0.1751,0.336,0.2288,-0.1621,-0.2141,-0.1474,-0.1222
-148.4375,-0.5228,-0.604,-0.0744,-0.4149,-0.2258,0.0941,-0.176,0.1501,-0.0525,-0.2525,-0.18,-0.306,-0.4952,-0.4237,-0.5611,-0.5064,-0.7056,-0.0945,-0.5087,-0.5131,-0.5507,-0.3267,-0.1411,-0.0976,0.3259,0.2487,-0.0623,-0.1699,-0.0962,-0.071
-144.5312,-0.6475,-0.5211,-0.1435,-0.3517,-0.1825,0.0506,-0.1631,0.07,-0.055,-0.2387,-0.1738,-0.2767,-0.3118,-0.2792,-0.4981,-0.3734,-0.5597,-0.0519,-0.3885,-0.3573,-0.3863,-0.2263,-0.0558,-0.0243,0.2938,0.2414,0.0309,-0.1271,-0.0618,-0.0289
-140.625,-0.7608,-0.4203,-0.2321,-0.2744,-0.1208,0.0034,-0.1344,-0.0171,-0.0565,-0.2122,-0.1595,-0.2414,-0.1296,-0.1326,-0.4186,-0.2304,-0.3828,-0.0158,-0.2499,-0.1862,-0.2097,-0.1162,0.0441,0.0353,0.2416,0.2063,0.1055,-0.0932,-0.0529,-0.0108
-136.7188,-0.8449,-0.3257,-0.335,-0.2034,-0.0555,-0.0472,-0.0977,-0.1038,-0.061,-0.1801,-0.1443,-0.2086,0.0242,-0.0063,-0.3346,-0.1008,-0.2029,0.0063,-0.1134,-0.0278,-0.0497,-0.0102,0.1452,0.0741,0.1748,0.1486,0.1537,-0.0733,-0.0755,-0.0268
-132.8125,-0.8883,-0.2571,-0.4435,-0.1547,-0.0013,-0.1006,-0.0621,-0.1822,-0.0706,-0.1485,-0.1337,-0.1835,0.1285,0.0806,-0.2593,-0.0051,-0.048,0.0072,0.0007,0.0931,0.0688,0.0767,0.2318,0.0895,0.1018,0.0784,0.174,-0.0677,-0.1305,-0.0794
-128.9062,-0.8863,-0.2246,-0.5445,-0.1353,0.0313,-0.1543,-0.0341,-0.2439,-0.084,-0.1201,-0.1284,-0.1657,0.1734,0.1171,-0.2036,0.0439,0.0597,-0.0176,0.0758,0.16,0.1297,0.1314,0.2885,0.0833,0.0331,0.0097,0.1706,-0.0719,-0.2127,-0.162
-125,-0.8398,-0.2264,-0.6218,-0.1425,0.0381,-0.203,-0.0163,-0.2816,-0.0954,-0.0927,-0.1241,-0.1497,0.162,0.102,-0.1734,0.0435,0.108,-0.0679,0.1025,0.167,0.129,0.1452,0.3035,0.0619,-0.0209,-0.0425,0.1526,-0.0772,-0.3109,-0.2598
-121.0938,-0.754,-0.2511,-0.6591,-0.1654,0.0215,-0.2402,-0.0071,-0.29,-0.0964,-0.0608,-0.1127,-0.1269,0.1083,0.0445,-0.1676,0.0003,0.0973,-0.1372,0.0799,0.1194,0.0747,0.1157,0.2716,0.0344,-0.052,-0.0657,0.1308,-0.0735,-0.4098,-0.353
-117.1875,-0.6369,-0.2818,-0.6447,-0.1897,-0.0113,-0.2596,-0.0021,-0.268,-0.0789,-0.0177,-0.0862,-0.0891,0.034,-0.0387,-0.1794,-0.0716,0.0389,-0.2137,0.0159,0.0315,-0.0155,0.0477,0.196,0.0107,-0.0555,-0.053,0.1149,-0.0529,-0.4927,-0.4204
-113.2812,-0.4975,-0.3021,-0.5747,-0.2022,-0.051,-0.2576,0.0041,-0.2197,-0.0377,0.0411,-0.0394,-0.0324,-0.0378,-0.127,-0.1975,-0.1541,-0.0478,-0.2816,-0.0747,-0.0766,-0.1181,-0.0469,0.0882,-0.0011,-0.0321,-0.0053,0.1102,-0.0126,-0.5449,-0.445
-109.375,-0.3446,-0.2994,-0.455,-0.1939,-0.0878,-0.2338,0.016,-0.1533,0.0271,0.1158,0.0271,0.0417,-0.0872,-0.2,-0.2088,-0.2283,-0.1403,-0.3246,-0.1733,-0.1818,-0.2089,-0.1515,-0.0338,0.0036,0.0117,0.0681,0.117,0.0438,-0.5558,-0.4167
-105.4688,-0.1856,-0.2672,-0.2999,-0.1614,-0.113,-0.1909,0.0361,-0.0794,0.1102,0.2016,0.1075,0.1253,-0.1015,-0.2416,-0.2013,-0.277,-0.2178,-0.3289,-0.2608,-0.2625,-0.2669,-0.2474,-0.1484,0.0252,0.0649,0.1513,0.1304,0.1066,-0.5205,-0.3351
-101.5625,-0.0252,-0.206,-0.1289,-0.1068,-0.1197,-0.1338,0.0649,-0.0086,0.2016,0.2894,0.1912,0.2069,-0.077,-0.2422,-0.1663,-0.2874,-0.2649,-0.2872,-0.3206,-0.301,-0.278,-0.3169,-0.2351,0.0602,0.1141,0.2257,0.143,0.1632,-0.4406,-0.2095
-97.6562,0.1341,-0.1209,0.0375,-0.0355,-0.1033,-0.0673,0.1012,0.0513,0.2889,0.3679,0.2662,0.2742,-0.018,-0.1999,-0.0999,-0.2525,-0.273,-0.2006,-0.3415,-0.2866,-0.2369,-0.3459,-0.2778,0.1031,0.1462,0.2742,0.1475,0.2017,-0.3229,-0.0566
-93.75,0.2915,-0.0197,0.1823,0.0453,-0.0614,0.0046,0.1432,0.0962,0.3599,0.4262,0.3218,0.3174,0.0648,-0.1194,-0.0038,-0.1716,-0.2406,-0.0791,-0.318,-0.217,-0.1477,-0.326,-0.2678,0.1475,0.152,0.2854,0.1391,0.2143,-0.1784,0.1033
-89.8438,0.4461,0.0895,0.2947,0.1294,0.0059,0.08,0.1887,0.1263,0.4047,0.4559,0.3506,0.3316,0.1581,-0.0105,0.1158,-0.0499,-0.1712,0.0605,-0.2507,-0.0983,-0.0217,-0.2556,-0.2055,0.1883,0.1276,0.2557,0.1176,0.1996,-0.02,0.2508
-85.9375,0.5957,0.1997,0.3715,0.2117,0.0951,0.1586,0.2354,0.145,0.4178,0.4538,0.3498,0.3175,0.2484,0.1147,0.2489,0.1023,-0.0716,0.1977,-0.1456,0.056,0.1243,-0.1396,-0.1001,0.2223,0.0754,0.19,0.0872,0.1624,0.14,0.371
-82.0312,0.7366,0.3065,0.4175,0.2894,0.2,0.2416,0.2812,0.1578,0.3993,0.4214,0.3222,0.2814,0.3244,0.2433,0.384,0.2709,0.0493,0.3127,-0.0132,0.227,0.272,0.0099,0.0315,0.2474,0.0021,0.0992,0.0549,0.1128,0.2915,0.4562
-78.125,0.8637,0.4069,0.4431,0.3608,0.3117,0.3298,0.324,0.1699,0.3547,0.3655,0.2747,0.2328,0.3788,0.3633,0.5092,0.4399,0.1811,0.3907,0.1324,0.3935,0.4042,0.1754,0.1671,0.2627,-0.0827,-0.0025,0.0286,0.0628,0.4279,0.5064
-74.2188,0.971,0.4986,0.4613,0.425,0.4197,0.4228,0.3613,0.1852,0.2939,0.2958,0.2168,0.1825,0.408,0.4646,0.614,0.5926,0.3119,0.4244,0.2751,0.5352,0.5073,0.3355,0.2823,0.2669,-0.1691,-0.1009,0.0141,0.0235,0.5456,0.5279
-70.3125,1.0531,0.5791,0.4843,0.4808,0.5134,0.5176,0.3896,0.2046,0.2285,0.2229,0.1588,0.1402,0.4123,0.5395,0.6903,0.7137,0.4288,0.4152,0.3985,0.6358,0.5727,0.4681,0.3544,0.2588,-0.2486,-0.1841,0.0142,0.0028,0.6433,0.5305
-66.4062,1.1049,0.6442,0.5195,0.5258,0.5823,0.6075,0.4049,0.2259,0.1694,0.1561,0.1091,0.1115,0.3944,0.5824,0.7324,0.7905,0.5191,0.3716,0.4876,0.6846,0.5969,0.5538,0.3668,0.237,-0.3147,-0.244,0.0272,0.0034,0.7198,0.5246
-62.5,1.1221,0.6881,0.5673,0.5557,0.618,0.6825,0.4025,0.2442,0.1247,0.1015,0.0735,0.098,0.3585,0.5904,0.7372,0.8139,0.5713,0.306,0.5313,0.6771,0.5808,0.5796,0.312,0.2006,-0.3637,-0.2769,0.048,0.0228,0.773,0.5172
-58.5938,1.1014,0.7039,0.6206,0.5652,0.6139,0.7298,0.3784,0.2534,0.0982,0.062,0.054,0.0969,0.3096,0.5628,0.7042,0.7795,0.5773,0.2309,0.5238,0.6148,0.5285,0.5412,0.1945,0.1498,-0.3944,-0.2835,0.0696,0.0547,0.7996,0.5099
-54.6875,1.042,0.6852,0.667,0.5483,0.567,0.7362,0.3307,0.2483,0.0902,0.0374,0.0499,0.1026,0.2529,0.5018,0.6354,0.6884,0.5342,0.156,0.4661,0.5043,0.446,0.4442,0.0293,0.0863,-0.4079,-0.2677,0.0843,0.0907,0.7953,0.4993
-50.7812,0.9464,0.6288,0.6924,0.5011,0.4781,0.6914,0.2604,0.2263,0.0974,0.0256,0.0584,0.1089,0.1935,0.4126,0.5361,0.5479,0.4461,0.0869,0.3663,0.3565,0.341,0.3033,-0.1603,0.0131,-0.4075,-0.2367,0.0862,0.1226,0.7573,0.4784
-46.875,0.8219,0.5372,0.6851,0.4231,0.3531,0.5911,0.1722,0.1877,0.1144,0.0235,0.0754,0.1107,0.1359,0.3034,0.4155,0.3718,0.3245,0.0266,0.2391,0.1863,0.2223,0.1399,-0.3474,-0.0654,-0.398,-0.1987,0.0718,0.1441,0.6857,0.4398
-42.9688,0.681,0.4198,0.6401,0.3198,0.2033,0.4391,0.0743,0.1356,0.1347,0.0279,0.096,0.1053,0.0845,0.1855,0.2874,0.1802,0.1884,-0.0229,0.1045,0.0115,0.1006,-0.0206,-0.5055,-0.1437,-0.3841,-0.1626,0.0409,0.1516,0.5852,0.3791
-39.0625,0.5402,0.2933,0.5605,0.2032,0.0447,0.2487,-0.0232,0.075,0.1514,0.0356,0.1151,0.0924,0.0437,0.073,0.1688,-0.0023,0.0624,-0.0585,-0.0144,-0.1476,-0.0112,-0.1528,-0.6119,-0.2154,-0.3698,-0.1356,-0.0042,0.1443,0.4653,0.2977
-35.1562,0.418,0.1797,0.4577,0.091,-0.1024,0.0412,-0.1092,0.0113,0.1582,0.0439,0.1276,0.074,0.0174,-0.0184,0.0783,-0.1498,-0.027,-0.0754,-0.0943,-0.2702,-0.098,-0.2342,-0.6508,-0.2739,-0.3573,-0.1231,-0.0594,0.1237,0.3395,0.203
-31.25,0.3316,0.1022,0.349,0.0041,-0.2168,-0.157,-0.1739,-0.0507,0.1506,0.0503,0.1292,0.0527,0.0093,-0.0734,0.0332,-0.2389,-0.0557,-0.0674,-0.1156,-0.337,-0.1445,-0.2482,-0.6145,-0.3125,-0.347,-0.1281,-0.1202,0.0919,0.2228,0.1078
-27.3438,0.2942,0.0804,0.2536,-0.0376,-0.2794,-0.3191,-0.2109,-0.1073,0.1263,0.0522,0.1164,0.0308,0.0217,-0.0799,0.0455,-0.2533,-0.0074,-0.0288,-0.0661,-0.3341,-0.1374,-0.187,-0.504,-0.3262,-0.3377,-0.1518,-0.1835,0.0508,0.1286,0.0265
-23.4375,0.3117,0.1245,0.1882,-0.0206,-0.278,-0.423,-0.2187,-0.1569,0.0856,0.0464,0.0869,0.0089,0.0543,-0.0322,0.119,-0.1874,0.1226,0.0433,0.0566,-0.2561,-0.0694,-0.0528,-0.3292,-0.3122,-0.3271,-0.1929,-0.2475,0.002,0.0662,-0.0285
-19.5312,0.3823,0.2321,0.1631,0.0582,-0.2111,-0.4562,-0.2018,-0.1997,0.0308,0.0291,0.0398,-0.0143,0.1032,0.0663,0.2478,-0.0489,0.3251,0.1472,0.2434,-0.109,0.0573,0.1421,-0.1076,-0.2711,-0.3125,-0.2485,-0.3114,-0.0539,0.0386,-0.0503
-15.625,0.4962,0.3871,0.1804,0.1889,-0.0887,-0.4179,-0.1702,-0.2365,-0.0334,-0.0038,-0.0244,-0.0413,0.1602,0.2026,0.4161,0.1419,0.5771,0.2756,0.4738,0.0894,0.2296,0.3761,0.1371,-0.2071,-0.2913,-0.3137,-0.375,-0.1157,0.0427,-0.0388
-11.7188,0.638,0.5619,0.2329,0.3498,0.068,-0.3191,-0.1372,-0.2677,-0.1012,-0.0554,-0.1034,-0.075,0.2134,0.3548,0.6007,0.3543,0.8458,0.4163,0.719,0.3109,0.4236,0.6204,0.3776,-0.1283,-0.262,-0.3816,-0.4366,-0.1813,0.0713,-0.0006
-7.8125,0.7885,0.7229,0.307,0.5112,0.231,-0.1799,-0.117,-0.2921,-0.1656,-0.1269,-0.1925,-0.1164,0.249,0.4953,0.7749,0.5534,1.0938,0.5537,0.9462,0.5213,0.6086,0.8433,0.5869,-0.0447,-0.2239,-0.4439,-0.4923,-0.2469,0.1151,0.0536
-3.9062,0.9282,0.8376,0.385,0.6416,0.3711,-0.0248,-0.1208,-0.3057,-0.2191,-0.2156,-0.2848,-0.1641,0.2542,0.5968,0.9134,0.7059,1.2867,0.6721,1.1251,0.6873,0.7526,1.0151,0.7427,0.0331,-0.1776,-0.4914,-0.5355,-0.3067,0.1655,0.1116
0,1.0398,0.882,0.4498,0.7155,0.4644,0.1224,-0.154,-0.3029,-0.2549,-0.3151,-0.3718,-0.2132,0.2205,0.6377,0.9977,0.7877,1.4008,0.7592,1.2342,0.7833,0.8298,1.1146,0.8317,0.0963,-0.1243,-0.5157,-0.558,-0.354,0.2165,0.1635
3.9062,1.112,0.8467,0.4889,0.7195,0.498,0.2433,-0.2146,-0.2778,-0.2674,-0.4151,-0.4441,-0.2562,0.1468,0.608,1.0203,0.7895,1.4286,0.809,1.2663,0.7978,0.8271,1.1335,0.8524,0.1404,-0.0659,-0.5107,-0.5514,-0.3817,0.2654,0.2034
7.8125,1.1418,0.7401,0.4973,0.6564,0.4729,0.3287,-0.2925,-0.2264,-0.2542,-0.5025,-0.4932,-0.2849,0.0409,0.5129,0.9876,0.7197,1.3806,0.825,1.2309,0.7373,0.7487,1.0796,0.8158,0.1655,-0.0041,-0.4741,-0.5099,-0.3849,0.3132,0.2313
11.7188,1.1362,0.5883,0.4795,0.5462,0.4059,0.3803,-0.37,-0.1481,-0.2161,-0.5636,-0.5125,-0.2915,-0.0797,0.3732,0.9192,0.6041,1.2845,0.8195,1.1522,0.6267,0.6168,0.9755,0.7433,0.1772,0.0585,-0.4086,-0.4322,-0.3613,0.3638,0.253
15.625,1.1123,0.4312,0.4491,0.4238,0.3267,0.4108,-0.4247,-0.047,-0.1573,-0.5854,-0.4985,-0.2708,-0.1902,0.2232,0.8454,0.4821,1.1793,0.8123,1.0656,0.5049,0.4689,0.8555,0.6628,0.185,0.1192,-0.3219,-0.3225,-0.3126,0.4229,0.2789
19.5312,1.0947,0.3154,0.4265,0.3327,0.2731,0.4407,-0.4327,0.0688,-0.0847,-0.558,-0.451,-0.2208,-0.2613,0.1049,0.8017,0.3999,1.1087,0.8256,1.01,0.4189,0.3508,0.7588,0.6038,0.201,0.1749,-0.2247,-0.1898,-0.2435,0.496,0.3214
23.4375,1.1107,0.2854,0.4354,0.3163,0.2833,0.494,-0.3733,0.1885,-0.0066,-0.476,-0.3732,-0.1429,-0.2647,0.06,0.822,0.402,1.1124,0.8791,1.0209,0.4144,0.3083,0.7222,0.5921,0.2377,0.2229,-0.129,-0.046,-0.161,0.5869,0.3917
27.3438,1.1851,0.3739,0.497,0.4089,0.3868,0.5917,-0.2346,0.3,0.0684,-0.34,-0.2711,-0.0415,-0.1791,0.1212,0.9316,0.5219,1.2194,0.9853,1.1229,0.5259,0.3766,0.7725,0.6446,0.3049,0.2613,-0.0453,0.0965,-0.0725,0.6959,0.4972
31.25,1.3337,0.5933,0.6238,0.6255,0.5957,0.7451,-0.0175,0.3915,0.1326,-0.1582,-0.1532,0.0765,0.0038,0.3037,1.1411,0.7737,1.4411,1.1466,1.3238,0.7683,0.5718,0.9199,0.7652,0.4066,0.2893,0.0186,0.226,0.0144,0.8186,0.6391
35.1562,1.5577,0.9304,0.8144,0.9561,0.8984,0.9498,0.2606,0.4528,0.1795,0.054,-0.0301,0.2015,0.2742,0.5984,1.4422,1.1458,1.7675,1.3545,1.6111,1.13,0.8841,1.1536,0.9425,0.5375,0.3063,0.0581,0.3316,0.0925,0.9459,0.8103
39.0625,1.8403,1.3447,1.0503,1.3627,1.2576,1.1833,0.5657,0.4759,0.2041,0.2739,0.0857,0.3219,0.6023,0.9697,1.8054,1.5987,2.1654,1.5893,1.9512,1.5711,1.2754,1.4418,1.1503,0.6811,0.3109,0.0706,0.403,0.1546,1.0644,0.9961
42.9688,2.1465,1.7725,1.2966,1.7827,1.6141,1.4065,0.8509,0.4559,0.2024,0.4738,0.1812,0.4237,0.9398,1.359,2.1826,2.068,2.5804,1.8228,2.2928,2.026,1.6827,1.7343,1.3509,0.8102,0.3004,0.0538,0.4286,0.1927,1.1577,1.1758
46.875,2.4265,2.1358,1.5066,2.1373,1.8948,1.5689,1.0628,0.3909,0.1712,0.6237,0.243,0.4919,1.2262,1.6926,2.5113,2.472,2.9428,2.0202,2.5726,2.4116,2.027,1.9701,1.5005,0.8898,0.2701,0.0053,0.3962,0.1982,1.2095,1.3251
50.7812,2.6225,2.3539,1.6298,2.3442,2.0246,1.6177,1.1505,0.2817,0.1076,0.6949,0.2585,0.5113,1.3985,1.8937,2.7243,2.724,3.1775,2.1447,2.7244,2.6395,2.2254,2.0867,1.5565,0.8835,0.2135,-0.0785,0.2933,0.1623,1.2054,1.4206
54.6875,2.6792,2.358,1.6215,2.3308,1.9399,1.5077,1.0743,0.1316,0.0091,0.6642,0.2171,0.4689,1.402,1.8963,2.7598,2.7466,3.2162,2.1614,2.6903,2.6308,2.2062,2.0306,1.484,0.7602,0.1241,-0.2012,0.11,0.077,1.1355,1.4428
58.5938,2.5544,2.1033,1.4517,2.0486,1.6001,1.2102,0.814,-0.0544,-0.1259,0.5178,0.1119,0.356,1.2016,1.6583,2.5735,2.4864,3.0108,2.0424,2.4308,2.3312,1.9224,1.7679,1.2622,0.5022,-0.0026,-0.3641,-0.1578,-0.0627,0.996,1.3792
62.5,2.2289,1.5787,1.1116,1.4825,0.9969,0.7198,0.374,-0.2685,-0.2961,0.2548,-0.0584,0.1711,0.79,1.1706,2.1477,1.9254,2.5433,1.7723,1.9337,1.7228,1.3622,1.2921,0.8888,0.1105,-0.1665,-0.5642,-0.5045,-0.2559,0.7898,1.2259
66.4062,1.7123,0.8102,0.6167,0.6559,0.1578,0.0572,-0.2161,-0.4993,-0.4952,-0.1101,-0.2869,-0.078,0.1909,0.4607,1.4975,1.0871,1.8323,1.3524,1.2191,0.8304,0.5536,0.6273,0.3817,-0.3923,-0.3609,-0.7917,-0.9128,-0.4949,0.5273,0.9881
70.3125,1.0436,-0.1412,0.0052,-0.3708,-0.8562,-0.7318,-0.9043,-0.7318,-0.711,-0.5472,-0.5582,-0.3733,-0.5435,-0.4107,0.6705,0.0351,0.9315,0.8035,0.3375,-0.2797,-0.4388,-0.174,-0.2222,-0.9641,-0.5724,-1.0302,-1.3539,-0.764,0.225,0.6801
74.2188,0.2853,-1.1891,-0.6668,-1.5089,-1.9586,-1.5824,-1.6245,-0.9477,-0.9254,-1.0151,-0.8482,-0.6888,-1.3406,-1.3592,-0.2597,-1.136,-0.0778,0.1653,-0.6363,-1.5087,-1.5235,-1.0382,-0.8718,-1.5501,-0.782,-1.258,-1.7912,-1.0412,-0.0958,0.3236
78.125,-0.486,-2.2337,-1.3341,-2.653,-3.0496,-2.4191,-2.3057,-1.1275,-1.1173,-1.4665,-1.1278,-0.9935,-2.1194,-2.2901,-1.2041,-2.3141,-1.0985,-0.508,-1.6142,-2.7397,-2.596,-1.8821,-1.5084,-2.0914,-0.9677,-1.4514,-2.1849,-1.3013,-0.4115,-0.054
82.0312,-1.1915,-3.1765,-1.9313,-3.6963,-4.0298,-3.1662,-2.883,-1.2535,-1.2658,-1.8554,-1.3665,-1.2561,-2.8028,-3.1127,-2.0713,-3.3861,-2.0323,-1.154,-2.5066,-3.8544,-3.5539,-2.625,-2.0738,-2.5345,-1.1089,-1.5885,-2.4988,-1.5194,-0.6982,-0.4224
85.9375,-1.7613,-3.9324,-2.4017,-4.5437,-4.8125,-3.7578,-3.3055,-1.3127,-1.3543,-2.1434,-1.5375,-1.4499,-3.3287,-3.7521,-2.7795,-4.2522,-2.7924,-1.711,-3.2332,-4.7488,-4.3109,-3.1991,-2.5171,-2.8388,-1.1897,-1.6536,-2.7051,-1.6745,-0.9345,-0.7514
89.8438,-2.1421,-4.4393,-2.7048,-5.123,-5.3337,-4.1454,-3.5418,-1.2989,-1.3728,-2.3054,-1.6221,-1.5559,-3.6562,-4.1573,-3.266,-4.8377,-3.3139,-2.125,-3.732,-5.3453,-4.8055,-3.5574,-2.801,-2.982,-1.2018,-1.6397,-2.7882,-1.7522,-1.1028,-1.0151
93.75,-2.3025,-4.6629,-2.8208,-5.3923,-5.5575,-4.3036,-3.5811,-1.2131,-1.3192,-2.331,-1.6116,-1.5655,-3.7684,-4.3046,-3.4929,-5.0994,-3.559,-2.3565,-3.9643,-5.5998,-5.0062,-3.6772,-2.9049,-2.9607,-1.1462,-1.5496,-2.7462,-1.7463,-1.1905,-1.1947
97.6562,-2.234,-4.5984,-2.752,-5.3418,-5.478,-4.2314,-3.4311,-1.0628,-1.1985,-2.2239,-1.5085,-1.4805,-3.6707,-4.1968,-3.4486,-5.0271,-3.5185,-2.3848,-3.9174,-5.5038,-4.9112,-3.5612,-2.8275,-2.789,-1.0331,-1.3957,-2.5894,-1.6592,-1.1912,-1.2812
101.5625,-1.9493,-4.2676,-2.5214,-4.9932,-5.1172,-3.9513,-3.1147,-0.8607,-1.0205,-1.9995,-1.324,-1.3121,-3.3863,-3.8593,-3.1467,-4.6416,-3.2101,-2.2107,-3.6055,-5.0825,-4.5453,-3.2343,-2.586,-2.4949,-0.88,-1.1975,-2.3385,-1.5005,-1.1044,-1.2758
105.4688,-1.4784,-3.7146,-2.1676,-4.3939,-4.5202,-3.5047,-2.6644,-0.6225,-0.7977,-1.6801,-1.0755,-1.0779,-2.9505,-3.3346,-2.6221,-3.9895,-2.6737,-1.857,-3.0663,-4.3882,-3.9543,-2.739,-2.2139,-2.1142,-0.7086,-0.9778,-2.02,-1.2859,-0.9367,-1.1892
109.375,-0.8644,-2.9977,-1.7382,-3.609,-3.7474,-2.9457,-2.1182,-0.3652,-0.543,-1.2912,-0.7828,-0.799,-2.4047,-2.6746,-1.9264,-3.1353,-1.9653,-1.3657,-2.356,-3.492,-3.1967,-2.1286,-1.7563,-1.685,-0.5408,-0.7591,-1.6623,-1.0341,-0.7014,-1.0384
113.2812,-0.1582,-2.1825,-1.2821,-2.7121,-2.867,-2.3338,-1.5154,-0.1051,-0.2682,-0.8581,-0.4651,-0.4962,-1.7908,-1.9339,-1.1206,-2.1533,-1.1494,-0.7931,-1.5415,-2.473,-2.3365,-1.4592,-1.263,-1.2418,-0.3947,-0.559,-1.2923,-0.7644,-0.4179,-0.8442
117.1875,0.5867,-1.3334,-0.8427,-1.7765,-1.9471,-1.7262,-0.8943,0.1428,0.0161,-0.4041,-0.1394,-0.1884,-1.1482,-1.1641,-0.2691,-1.1183,-0.2911,-0.2018,-0.6907,-1.409,-1.4355,-0.7825,-0.7812,-0.8119,-0.2818,-0.389,-0.9324,-0.4946,-0.1109,-0.629
121.0938,1.3184,-0.5081,-0.4528,-0.8673,-1.0497,-1.172,-0.291,0.3657,0.2996,0.0487,0.1795,0.1087,-0.5116,-0.4092,0.5668,-0.0986,0.5501,0.3478,0.1348,-0.3677,-0.548,-0.1408,-0.3488,-0.4141,-0.2063,-0.2532,-0.6004,-0.2399,0.1919,-0.4144
125,1.9902,0.2468,-0.1321,-0.0372,-0.2267,-0.7082,0.2614,0.5527,0.5706,0.4786,0.4782,0.3818,0.0882,0.2948,1.3337,0.8487,1.3248,0.8055,0.886,0.5975,0.2815,0.4355,0.009,-0.0599,-0.1659,-0.1502,-0.3095,-0.0127,0.4628,-0.2209
128.9062,2.5636,0.8973,0.1121,0.6758,0.4816,-0.3581,0.7332,0.6946,0.8145,0.8623,0.7428,0.6187,0.6236,0.9196,1.9888,1.6804,1.9952,1.1363,1.528,1.4483,1.0188,0.9271,0.2806,0.2436,-0.1543,-0.0761,-0.0703,0.1766,0.677,-0.0666
132.8125,3.0091,1.4222,0.2824,1.2483,1.0469,-0.1306,1.0994,0.7839,1.0145,1.1758,0.9588,0.8076,1.0696,1.4426,2.5012,2.3669,2.5348,1.3234,2.0398,2.1598,1.638,1.3237,0.4667,0.4907,-0.1636,-0.0267,0.1086,0.319,0.8157,0.0342
136.7188,3.3068,1.8113,0.3878,1.6697,1.4529,-0.0215,1.3416,0.8161,1.1533,1.3961,1.1115,0.9372,1.4041,1.8457,2.852,2.8898,2.9267,1.3683,2.4118,2.717,2.1201,1.621,0.5766,0.6751,-0.1869,0.0007,0.2207,0.4076,0.8687,0.0724
140.625,3.4468,2.063,0.4392,1.9396,1.6946,-0.0154,1.4503,0.7909,1.2169,1.5055,1.1892,0.9984,1.61,2.1148,3.0339,3.2401,3.1625,1.2884,2.6435,3.1115,2.4515,1.8181,0.6245,0.7898,-0.2184,0.0076,0.2628,0.4387,0.8349,0.045
144.5312,3.429,2.1816,0.4471,2.0654,1.7778,-0.0884,1.4272,0.7137,1.1992,1.496,1.1854,0.9861,1.678,2.2407,3.0506,3.416,3.2419,1.1132,2.7409,3.3396,2.6244,1.9165,0.6253,0.8285,-0.2541,-0.0047,0.2359,0.4125,0.7227,-0.0448
148.4375,3.2625,2.1742,0.4196,2.0593,1.7173,-0.2114,1.2854,0.5968,1.1037,1.372,1.1023,0.9016,1.6084,2.2208,2.9152,3.4207,3.172,0.8785,2.714,3.4012,2.6367,1.918,0.5911,0.7869,-0.2914,-0.0348,0.1463,0.3345,0.5474,-0.1876
152.3438,2.9649,2.0495,0.3625,1.936,1.535,-0.355,1.0478,0.4578,0.9444,1.1509,0.9503,0.7528,1.4115,2.0596,2.6483,3.2624,2.967,0.6203,2.5749,3.2997,2.4929,1.8252,0.5291,0.6644,-0.3287,-0.0799,0.0044,0.2141,0.3289,-0.3698
156.25,2.5607,1.8164,0.2801,1.7108,1.2571,-0.4928,0.7435,0.3168,0.7429,0.86,0.7471,0.5536,1.1066,1.7698,2.2753,2.9529,2.6463,0.3692,2.3364,3.043,2.2048,1.6418,0.4405,0.4647,-0.3662,-0.1372,-0.177,0.0632,0.0884,-0.5747
160.1562,2.0801,1.4846,0.1759,1.3988,0.9102,-0.6057,0.4029,0.1928,0.5236,0.5318,0.514,0.3212,0.7191,1.3711,1.8242,2.5088,2.2332,0.1459,2.0117,2.6441,1.7907,1.3734,0.3228,0.1962,-0.4052,-0.2042,-0.3848,-0.1062,-0.1537,-0.7837
164.0625,1.5572,1.066,0.0534,1.0147,0.5194,-0.6838,0.0535,0.0996,0.3096,0.198,0.272,0.0737,0.2775,0.8893,1.3234,1.9517,1.7529,-0.0396,1.6146,2.1222,1.2751,1.0302,0.1726,-0.1282,-0.4485,-0.2796,-0.6078,-0.284,-0.3801,-0.9781
167.9688,1.0274,0.5761,-0.0828,0.5737,0.1064,-0.7268,-0.2833,0.0428,0.1173,-0.1156,0.0387,-0.1727,-0.1895,0.3549,0.8008,1.3089,1.2314,-0.1866,1.1617,1.5035,0.688,0.6279,-0.0106,-0.4917,-0.4996,-0.3636,-0.8378,-0.4632,-0.5771,-1.14
171.875,0.5244,0.0356,-0.2275,0.0932,-0.3102,-0.7427,-0.5931,0.0189,-0.0446,-0.3916,-0.1739,-0.4052,-0.6547,-0.199,0.283,0.6142,0.6947,-0.3004,0.673,0.8216,0.064,0.1886,-0.2219,-0.8742,-0.5615,-0.4571,-1.0693,-0.6397,-0.7351,-1.2541
175.7812,0.0767,-0.5291,-0.3747,-0.4067,-0.714,-0.7438,-0.8681,0.0167,-0.1758,-0.6219,-0.3597,-0.6145,-1.0938,-0.7387,-0.2057,-0.094,0.168,-0.3879,0.1728,0.1163,-0.5593,-0.2598,-0.4497,-1.2531,-0.6356,-0.5611,-1.2982,-0.8105,-0.8488,-1.3088
179.6875,-0.2958,-1.0876,-0.5181,-0.9017,-1.089,-0.7437,-1.1046,0.0199,-0.2825,-0.8062,-0.5172,-0.7942,-1.4852,-1.2315,-0.6434,-0.7745,-0.3244,-0.4545,-0.3108,-0.5687,-1.1428,-0.6866,-0.6771,-1.6052,-0.72,-0.6747,-1.52,-0.9729,-0.9168,-1.2976
183.5938,-0.5836,-1.6072,-0.6518,-1.3645,-1.419,-0.7524,-1.3009,0.0115,-0.3745,-0.949,-0.6482,-0.9404,-1.8108,-1.6482,-1.0119,-1.3872,-0.7598,-0.5013,-0.7479,-1.1891,-1.6494,-1.0615,-0.8842,-1.9082,-0.81,-0.7942,-1.7282,-1.1225,-0.9422,-1.2207
187.5,-0.7879,-2.0564,-0.7709,-1.7665,-1.6876,-0.7746,-1.4556,-0.0223,-0.4614,-1.0571,-0.7555,-1.0504,-2.0565,-1.9651,-1.2977,-1.8973,-1.1179,-0.5257,-1.1098,-1.7057,-2.0471,-1.358,-1.0519,-2.1431,-0.8972,-0.9131,-1.9137,-1.2536,-0.932,-1.0853
191.4062,-0.9185,-2.4078,-0.8711,-2.0811,-1.8794,-0.8081,-1.5666,-0.0885,-0.5497,-1.1365,-0.842,-1.1229,-2.2125,-2.1662,-1.4928,-2.2792,-1.3828,-0.5229,-1.3723,-2.0879,-2.313,-1.5567,-1.1648,-2.2959,-0.9717,-1.022,-2.0654,-1.3591,-0.896,-0.9054
195.3125,-0.9903,-2.6418,-0.9491,-2.2871,-1.9828,-0.8449,-1.6316,-0.1852,-0.6404,-1.1911,-0.9086,-1.1578,-2.2751,-2.2452,-1.5956,-2.519,-1.5444,-0.4894,-1.5195,-2.3179,-2.4363,-1.6478,-1.2136,-2.3595,-1.0234,-1.1105,-2.1712,-1.4318,-0.8459,-0.701
199.2188,-1.0186,-2.7478,-1.0017,-2.3725,-1.9929,-0.8742,-1.649,-0.3022,-0.7286,-1.2222,-0.9547,-1.1561,-2.247,-2.2066,-1.611,-2.6154,-1.6004,-0.4256,-1.5467,-2.3928,-2.4201,-1.6331,-1.1973,-2.3343,-1.0441,-1.1683,-2.2202,-1.4661,-0.7931,-0.4956
203.125,-1.0157,-2.7258,-1.0259,-2.3371,-1.9133,-0.8857,-1.62,-0.4236,-0.8046,-1.2294,-0.9785,-1.1203,-2.1383,-2.0657,-1.5499,-2.5786,-1.5574,-0.3378,-1.462,-2.3241,-2.2816,-1.5252,-1.1233,-2.2285,-1.0291,-1.1869,-2.2051,-1.4587,-0.7474,-0.3139
207.0312,-0.9874,-2.5862,-1.0192,-2.1929,-1.7578,-0.8728,-1.5494,-0.5315,-0.857,-1.2117,-0.978,-1.0546,-1.9656,-1.8468,-1.4273,-2.4278,-1.4304,-0.2382,-1.286,-2.1359,-2.0493,-1.3465,-1.0062,-2.0561,-0.9782,-1.1613,-2.123,-1.4098,-0.7162,-0.1782
210.9375,-0.9334,-2.3486,-0.9807,-1.9631,-1.5481,-0.8344,-1.4457,-0.6102,-0.8754,-1.1689,-0.9528,-0.9647,-1.75,-1.5801,-1.2603,-2.1877,-1.2406,-0.1426,-1.0487,-1.8602,-1.7588,-1.1253,-0.8653,-1.8352,-0.8959,-1.0908,-1.9773,-1.3234,-0.7036,-0.1057
214.8438,-0.8484,-2.0397,-0.9119,-1.6775,-1.3107,-0.7744,-1.3195,-0.6492,-0.854,-1.1022,-0.9046,-0.8576,-1.5142,-1.2963,-1.0653,-1.8845,-1.0122,-0.0664,-0.7846,-1.5323,-1.4466,-0.891,-0.7205,-1.5852,-0.7903,-0.9799,-1.7771,-1.207,-0.7096,-0.1044
218.75,-0.7256,-1.6893,-0.8169,-1.3677,-1.071,-0.6995,-1.1817,-0.645,-0.7922,-1.0138,-0.8374,-0.7412,-1.2792,-1.0216,-0.8561,-1.5425,-0.7675,-0.0209,-0.5263,-1.1845,-1.1436,-0.669,-0.5886,-1.3243,-0.6723,-0.8378,-1.537,-1.0709,-0.7303,-0.1715
222.6562,-0.5606,-1.3265,-0.7021,-1.0613,-0.8483,-0.6157,-1.0399,-0.6001,-0.6947,-0.9066,-0.7571,-0.6232,-1.0602,-0.7734,-0.6425,-1.1821,-0.5241,-0.0094,-0.2984,-0.8418,-0.8703,-0.4761,-0.4798,-1.0674,-0.5531,-0.6772,-1.275,-0.9267,-0.758,-0.2929
226.5625,-0.3547,-0.9752,-0.5742,-0.7763,-0.6507,-0.5251,-0.8974,-0.5211,-0.5697,-0.7833,-0.6696,-0.5107,-0.865,-0.558,-0.4299,-0.8184,-0.2928,-0.0265,-0.1141,-0.5194,-0.6338,-0.3182,-0.3966,-0.8248,-0.443,-0.5125,-1.0103,-0.7861,-0.7822,-0.4449
230.4688,-0.1166,-0.6511,-0.4383,-0.5195,-0.4746,-0.4237,-0.752,-0.416,-0.427,-0.646,-0.5806,-0.4093,-0.6934,-0.3711,-0.2206,-0.4615,-0.077,-0.0591,0.0268,-0.2218,-0.4288,-0.1911,-0.3341,-0.6023,-0.3501,-0.3578,-0.7611,-0.6597,-0.7914,-0.5982
234.375,0.1367,-0.3611,-0.297,-0.2871,-0.3067,-0.303,-0.5984,-0.2924,-0.276,-0.4974,-0.4939,-0.3231,-0.5397,-0.2011,-0.016,-0.1181,0.1247,-0.0895,0.1355,0.0541,-0.2412,-0.0825,-0.2823,-0.4022,-0.2791,-0.2246,-0.5433,-0.5566,-0.7753,-0.7241
238.2812,0.3821,-0.1045,-0.1511,-0.0689,-0.1293,-0.1531,-0.431,-0.1562,-0.1249,-0.3414,-0.4128,-0.2555,-0.396,-0.0348,0.1814,0.2061,0.3157,-0.1005,0.2294,0.3148,-0.0548,0.0221,-0.2295,-0.2259,-0.2322,-0.1217,-0.3692,-0.4839,-0.727,-0.7995
242.1875,0.5936,0.123,-0.0011,0.1461,0.0727,0.0332,-0.2473,-0.012,0.0192,-0.185,-0.3403,-0.2104,-0.2575,0.1367,0.3655,0.5037,0.4972,-0.0806,0.3258,0.5649,0.1416,0.1345,-0.1661,-0.0763,-0.2099,-0.0552,-0.2489,-0.4477,-0.6448,-0.8118
246.0938,0.7464,0.3244,0.1501,0.3634,0.3055,0.2555,-0.0511,0.1358,0.1496,-0.0386,-0.2805,-0.1926,-0.1254,0.3138,0.5256,0.764,0.6653,-0.027,0.4355,0.8029,0.3495,0.2592,-0.0872,0.04,-0.2124,-0.0291,-0.1903,-0.4528,-0.5335,-0.7617
250,0.8214,0.4982,0.2963,0.579,0.5632,0.5038,0.1473,0.2826,0.26,0.0851,-0.2394,-0.2077,-0.0081,0.4859,0.6476,0.9722,0.8094,0.0527,0.5587,1.0182,0.5576,0.3909,0.0048,0.1124,-0.24,-0.0458,-0.1996,-0.5024,-0.4037,-0.6619
253.9062,0.8074,0.636,0.427,0.7788,0.8273,0.7589,0.3329,0.4225,0.3447,0.1731,-0.2234,-0.2607,0.0804,0.6339,0.7154,1.1109,0.9132,0.1427,0.6842,1.1922,0.7437,0.5157,0.1008,0.1284,-0.293,-0.106,-0.2803,-0.5974,-0.2703,-0.5347
257.8125,0.703,0.7237,0.5288,0.9399,1.0703,0.995,0.4889,0.5493,0.3995,0.2155,-0.2382,-0.3537,0.125,0.7344,0.7147,1.163,0.9585,0.2224,0.7919,1.3012,0.8795,0.6138,0.1869,0.0776,-0.3712,-0.2076,-0.4308,-0.7346,-0.1502,-0.4067
261.7188,0.5156,0.7441,0.587,1.0361,1.2611,1.1834,0.6009,0.6567,0.4236,0.2087,-0.2856,-0.4836,0.114,0.7661,0.6365,1.1157,0.9296,0.2713,0.8581,1.3221,0.9373,0.6654,0.2478,-0.0444,-0.4716,-0.3441,-0.6428,-0.9054,-0.0595,-0.3031
265.625,0.2604,0.6823,0.5886,1.0436,1.3713,1.2983,0.6598,0.7401,0.4206,0.1576,-0.3619,-0.6409,0.0434,0.7152,0.4798,0.9642,0.8181,0.2737,0.8612,1.2387,0.8966,0.6553,0.2705,-0.2316,-0.5875,-0.5041,-0.8997,-1.0961,-0.0106,-0.2424
269.5312,-0.0411,0.5305,0.5261,0.9471,1.3809,1.3209,0.664,0.797,0.3988,0.0757,-0.4568,-0.8091,-0.0808,0.5802,0.2539,0.7149,0.6267,0.2229,0.7879,1.0467,0.7498,0.5774,0.2483,-0.467,-0.7079,-0.6714,-1.1771,-1.2876,-0.0097,-0.2323
273.4375,-0.3626,0.2933,0.4004,0.745,1.2827,1.2436,0.6183,0.827,0.3703,-0.0174,-0.5539,-0.9669,-0.2433,0.3721,-0.0216,0.3867,0.3704,0.1233,0.6366,0.757,0.5044,0.4364,0.1816,-0.7238,-0.8182,-0.826,-1.4446,-1.4582,-0.0554,-0.2682
277.3438,-0.6751,-0.0108,0.2227,0.4514,1.0837,1.071,0.5327,0.8315,0.348,-0.1002,-0.634,-1.0912,-0.4227,0.1125,-0.3185,0.0101,0.0749,-0.0102,0.4184,0.3958,0.1823,0.2463,0.0787,-0.9702,-0.9028,-0.948,-1.6704,-1.5866,-0.1383,-0.3345
281.25,-0.9497,-0.3498,0.014,0.0951,0.8038,0.8196,0.4188,0.813,0.3426,-0.1548,-0.679,-1.1621,-0.5969,-0.1703,-0.6042,-0.3765,-0.2266,-0.1554,0.1553,0.0008,-0.184,0.0277,-0.047,-1.1757,-0.948,-1.0206,-1.8265,-1.6554,-0.2429,-0.4085
285.1562,-1.1616,-0.6834,-0.1982,-0.2844,0.4726,0.5154,0.2875,0.7737,0.3594,-0.1715,-0.6771,-1.1666,-0.7472,-0.4475,-0.8471,-0.732,-0.4988,-0.2875,-0.1236,-0.3842,-0.5569,-0.1971,-0.1794,-1.3172,-0.9451,-1.0342,-1.8942,-1.6546,-0.3502,-0.4665
289.0625,-1.2936,-0.9691,-0.3844,-0.6437,0.1242,0.1891,0.1473,0.716,0.3958,-0.1515,-0.6259,-1.1026,-0.8627,-0.6943,-1.0218,-1.0191,-0.7105,-0.3846,-0.3873,-0.7171,-0.9,-0.4075,-0.3024,-1.3836,-0.8929,-0.9882,-1.867,-1.584,-0.4411,-0.4897
292.9688,-1.3386,-1.1709,-0.5188,-0.9433,-0.2085,-0.1278,0.0033,0.6425,0.4423,-0.1065,-0.534,-0.9792,-0.9415,-0.8937,-1.1138,-1.2099,-0.8403,-0.4322,-0.6083,-0.9649,-1.1834,-0.5876,-0.4028,-1.3769,-0.7978,-0.8913,-1.7527,-1.4532,-0.4999,-0.4683
296.875,-1.3001,-1.2656,-0.5837,-1.1535,-0.498,-0.4076,-0.1407,0.5566,0.4844,-0.0552,-0.4188,-0.8152,-0.9893,-1.0378,-1.1211,-1.291,-0.8804,-0.4253,-0.7673,-1.1084,-1.3875,-0.728,-0.4719,-1.311,-0.6736,-0.7597,-1.571,-1.2803,-0.5173,-0.4041
300.7812,-1.191,-1.2468,-0.5719,-1.2594,-0.7256,-0.6291,-0.2816,0.4641,0.5073,-0.0177,-0.3029,-0.6354,-1.017,-1.1272,-1.0541,-1.2643,-0.838,-0.3686,-0.8555,-1.1445,-1.5045,-0.8254,-0.5063,-1.2074,-0.5384,-0.6144,-1.3505,-1.0886,-0.491,-0.3095
304.6875,-1.0309,-1.1252,-0.4877,-1.2613,-0.882,-0.7789,-0.4143,0.3726,0.5004,-0.0098,-0.2078,-0.4657,-1.036,-1.1686,-0.9323,-1.1458,-0.7325,-0.2744,-0.8753,-1.0852,-1.538,-0.882,-0.5079,-1.0902,-0.4119,-0.477,-1.1223,-0.9022,-0.426,-0.2037
308.5938,-0.8436,-0.9251,-0.3451,-1.1731,-0.9661,-0.8516,-0.5307,0.2923,0.4612,-0.038,-0.1485,-0.3272,-1.0548,-1.172,-0.7805,-0.9622,-0.5908,-0.16,-0.8387,-0.9539,-1.5001,-0.9042,-0.4828,-0.9808,-0.3115,-0.3666,-0.9155,-0.7415,-0.3326,-0.1088
312.5,-0.6538,-0.6792,-0.1649,-1.0181,-0.9827,-0.8489,-0.6198,0.2343,0.3965,-0.0973,-0.13,-0.2334,-1.0763,-1.1474,-0.6242,-0.7449,-0.4419,-0.0448,-0.7636,-0.7801,-1.4087,-0.9002,-0.4392,-0.8947,-0.2501,-0.2975,-0.7524,-0.6208,-0.2241,-0.0439
316.4062,-0.4844,-0.422,0.029,-0.8235,-0.94,-0.7775,-0.669,0.2096,0.3215,-0.173,-0.1464,-0.1881,-1.0971,-1.1027,-0.4856,-0.5254,-0.3107,0.053,-0.6698,-0.5943,-1.2842,-0.8792,-0.3857,-0.8396,-0.2346,-0.2777,-0.6465,-0.5469,-0.1148,-0.0216
320.3125,-0.3541,-0.1847,0.2138,-0.616,-0.8476,-0.6481,-0.6668,0.226,0.2552,-0.244,-0.1836,-0.1865,-1.1094,-1.0437,-0.3812,-0.3308,-0.2151,0.119,-0.5761,-0.4238,-1.1464,-0.8494,-0.3303,-0.8158,-0.2652,-0.3091,-0.6017,-0.5196,-0.0174,-0.0458
324.2188,-0.2757,0.0087,0.3705,-0.4189,-0.7157,-0.474,-0.606,0.2867,0.2159,-0.2893,-0.2238,-0.2177,-1.1043,-0.9741,-0.32,-0.1816,-0.1643,0.1452,-0.4974,-0.2899,-1.0133,-0.8183,-0.2796,-0.819,-0.3367,-0.388,-0.6146,-0.5335,0.0584,-0.1114
328.125,-0.2541,0.1425,0.4863,-0.25,-0.5549,-0.27,-0.4868,0.3881,0.2155,-0.2936,-0.2514,-0.269,-1.075,-0.8974,-0.3042,-0.0906,-0.1593,0.1312,-0.4445,-0.2069,-0.8993,-0.7917,-0.2393,-0.8424,-0.4398,-0.5062,-0.6764,-0.5803,0.107,-0.2058
332.0312,-0.2868,0.209,0.555,-0.1224,-0.3774,-0.0528,-0.3182,0.5194,0.2566,-0.2518,-0.2573,-0.3288,-1.0201,-0.8182,-0.33,-0.0632,-0.1957,0.0836,-0.4233,-0.1817,-0.815,-0.7745,-0.2136,-0.8798,-0.5624,-0.652,-0.7754,-0.6506,0.1277,-0.3118
335.9375,-0.3638,0.2069,0.5763,-0.0447,-0.1971,0.1599,-0.1182,0.6631,0.3302,-0.1712,-0.2417,-0.3892,-0.9449,-0.7428,-0.3897,-0.0994,-0.2657,0.0138,-0.4359,-0.2151,-0.7665,-0.7693,-0.2053,-0.9269,-0.6916,-0.8119,-0.8994,-0.7353,0.1237,-0.4111
339.8438,-0.47,0.1398,0.555,-0.022,-0.03,0.3503,0.0873,0.7979,0.4176,-0.0705,-0.2141,-0.448,-0.8611,-0.6798,-0.4742,-0.1947,-0.3615,-0.0656,-0.4808,-0.3028,-0.7563,-0.7776,-0.2154,-0.982,-0.8149,-0.9717,-1.0371,-0.8266,0.1018,-0.4876
343.75,-0.5883,0.0144,0.4984,-0.0565,0.107,0.5018,0.2685,0.9012,0.4936,0.0235,-0.1911,-0.5077,-0.785,-0.6388,-0.5755,-0.342,-0.4768,-0.1443,-0.5543,-0.4373,-0.7837,-0.7991,-0.2425,-1.0453,-0.9218,-1.1189,-1.1789,-0.9189,0.0701,-0.5304
347.6562,-0.7028,-0.1602,0.4155,-0.1479,0.1976,0.6007,0.3963,0.9533,0.5313,0.0814,-0.1922,-0.5743,-0.7347,-0.6292,-0.6883,-0.533,-0.609,-0.2171,-0.652,-0.6099,-0.8458,-0.8328,-0.2836,-1.1183,-1.004,-1.2432,-1.3174,-1.0086,0.0359,-0.5352
351.5625,-0.8014,-0.3739,0.3146,-0.2926,0.2286,0.6378,0.4471,0.9403,0.5085,0.0778,-0.2341,-0.6542,-0.7258,-0.6587,-0.8106,-0.7592,-0.7586,-0.2851,-0.7696,-0.8121,-0.9392,-0.8777,-0.334,-1.2022,-1.0567,-1.3382,-1.4471,-1.0937,0.0038,-0.5047
355.4688,-0.878,-0.6156,0.2029,-0.4845,0.1922,0.6095,0.4076,0.8574,0.4128,-0.0027,-0.326,-0.7514,-0.7688,-0.7313,-0.9433,-1.012,-0.9283,-0.3543,-0.9039,-1.0369,-1.0604,-0.9337,-0.3895,-1.2962,-1.0784,-1.401,-1.5637,-1.1731,-0.0257,-0.4481
359.375,-0.9332,-0.8732,0.0851,-0.7138,0.0873,0.5184,0.278,0.7096,0.2456,-0.161,-0.4663,-0.8641,-0.8655,-0.8465,-1.0879,-1.283,-1.12,-0.4331,-1.0529,-1.2784,-1.2062,-1.0012,-0.447,-1.3971,-1.071,-1.432,-1.6636,-1.245,-0.0562,-0.3789
363.2812,-0.9735,-1.134,-0.0354,-0.9677,-0.0793,0.3731,0.072,0.5115,0.0229,-0.3828,-0.6413,-0.9842,-1.009,-0.998,-1.2448,-1.5632,-1.3323,-0.5276,-1.2146,-1.5317,-1.3732,-1.0811,-0.5049,-1.4988,-1.0389,-1.4338,-1.743,-1.3062,-0.0938,-0.3121
367.1875,-1.0086,-1.3849,-0.1565,-1.2309,-0.2939,0.1869,-0.186,0.2855,-0.228,-0.6409,-0.8283,-1.0982,-1.1845,-1.1748,-1.4111,-1.8427,-1.5579,-0.6392,-1.3858,-1.791,-1.5571,-1.174,-0.564,-1.5932,-0.9886,-1.4102,-1.7987,-1.352,-0.1445,-0.2613
371.0938,-1.0475,-1.6126,-0.2753,-1.4871,-0.538,-0.0237,-0.4653,0.057,-0.4743,-0.9016,-1.0007,-1.1903,-1.3724,-1.3626,-1.5793,-2.1097,-1.7828,-0.7622,-1.5613,-2.0489,-1.7518,-1.2794,-0.6264,-1.6721,-0.9273,-1.366,-1.828,-1.3773,-0.2112,-0.2353
375,-1.0957,-1.8053,-0.3876,-1.7211,-0.7914,-0.2419,-0.7353,-0.1502,-0.685,-1.1318,-1.1341,-1.2468,-1.5523,-1.5465,-1.7379,-2.3515,-1.9882,-0.885,-1.7331,-2.2958,-1.9501,-1.396,-0.6952,-1.7292,-0.8627,-1.306,-1.8308,-1.3786,-0.2919,-0.2365
378.9062,-1.1514,-1.954,-0.487,-1.9211,-1.0365,-0.4535,-0.9714,-0.3185,-0.8379,-1.306,-1.2129,-1.2603,-1.7075,-1.7143,-1.8733,-2.5559,-2.1539,-0.9928,-1.8923,-2.5212,-2.1443,-1.5214,-0.7739,-1.7626,-0.8023,-1.2363,-1.8101,-1.3557,-0.3793,-0.2607
382.8125,-1.2061,-2.0536,-0.5661,-2.0808,-1.2609,-0.6494,-1.1583,-0.4388,-0.9232,-1.4117,-1.233,-1.2321,-1.8283,-1.8585,-1.9726,-2.713,-2.2636,-1.0721,-2.0305,-2.7152,-2.3276,-1.6528,-0.8655,-1.7751,-0.7531,-1.1631,-1.7719,-1.3128,-0.4622,-0.2988
386.7188,-1.2451,-2.1037,-0.6176,-2.1992,-1.4595,-0.8263,-1.2917,-0.5111,-0.944,-1.4496,-1.2021,-1.1721,-1.9126,-1.9774,-2.027,-2.817,-2.3095,-1.1149,-2.142,-2.8703,-2.4951,-1.7871,-0.9714,-1.7736,-0.7211,-1.0935,-1.7246,-1.2584,-0.5277,-0.3396
390.625,-1.2515,-2.108,-0.6364,-2.2804,-1.6339,-0.9861,-1.3759,-0.5424,-0.9135,-1.4324,-1.1366,-1.0964,-1.9652,-2.0746,-2.0331,-2.8667,-2.294,-1.1207,-2.2246,-2.9819,-2.6437,-1.9204,-1.0908,-1.7668,-0.7103,-1.0336,-1.6764,-1.2033,-0.5644,-0.3731
394.5312,-1.2104,-2.0728,-0.6211,-2.3308,-1.7894,-1.1339,-1.4216,-0.5436,-0.85,-1.3796,-1.0563,-1.0233,-1.9958,-2.1561,-1.9938,-2.865,-2.2288,-1.0973,-2.2797,-3.0488,-2.7716,-2.048,-1.219,-1.7623,-0.722,-0.9885,-1.6342,-1.1585,-0.5652,-0.3937
398.4375,-1.1134,-2.0053,-0.5752,-2.3567,-1.9323,-1.2745,-1.441,-0.526,-0.7722,-1.3124,-0.9795,-0.9687,-2.0154,-2.2289,-1.9174,-2.8178,-2.1317,-1.0585,-2.3111,-3.072,-2.8775,-2.1643,-1.3489,-1.7649,-0.7543,-0.9606,-1.6012,-1.1324,-0.5292,-0.4008
402.3438,-0.9619,-1.9129,-0.5063,-2.3628,-2.0664,-1.4102,-1.4458,-0.4994,-0.6949,-1.2493,-0.9189,-0.9428,-2.0343,-2.2982,-1.8163,-2.7329,-2.0224,-1.0206,-2.3236,-3.0551,-2.9606,-2.2636,-1.4713,-1.7755,-0.8016,-0.9498,-1.5776,-1.1287,-0.4619,-0.3989
406.25,-0.7678,-1.8022,-0.4258,-2.3516,-2.1915,-1.5402,-1.4451,-0.4711,-0.628,-1.2032,-0.8801,-0.9484,-2.0606,-2.367,-1.7042,-2.6189,-1.9178,-0.9981,-2.3221,-3.0032,-3.0205,-2.3411,-1.5782,-1.7918,-0.8557,-0.9529,-1.5614,-1.1463,-0.3742,-0.3953
410.1562,-0.5511,-1.6797,-0.347,-2.3241,-2.3036,-1.6601,-1.4451,-0.4467,-0.5761,-1.1811,-0.8629,-0.9824,-2.099,-2.4361,-1.5938,-2.4845,-1.8292,-1.0002,-2.3106,-2.9234,-3.0576,-2.3947,-1.6641,-1.8101,-0.9068,-0.9652,-1.55,-1.18,-0.2804,-0.3974
414.0625,-0.3365,-1.552,-0.2831,-2.2812,-2.3954,-1.7641,-1.4496,-0.4314,-0.5409,-1.1841,-0.8638,-1.0368,-2.1506,-2.5038,-1.4949,-2.3382,-1.7603,-1.0286,-2.2919,-2.824,-3.0736,-2.426,-1.7282,-1.827,-0.9455,-0.9805,-1.5421,-1.2227,-0.1953,-0.4107
417.9688,-0.1482,-1.4258,-0.2456,-2.2241,-2.4587,-1.846,-1.46,-0.4305,-0.5225,-1.209,-0.8784,-1.1023,-2.2129,-2.5666,-1.4125,-2.1874,-1.7077,-1.077,-2.2667,-2.7134,-3.0709,-2.4392,-1.7734,-1.8404,-0.9644,-0.993,-1.538,-1.267,-0.132,-0.4365
421.875,-0.005,-1.3068,-0.2415,-2.1548,-2.4858,-1.9001,-1.4757,-0.4484,-0.5205,-1.2494,-0.9036,-1.1696,-2.2793,-2.6188,-1.3468,-2.0377,-1.6622,-1.1329,-2.2342,-2.599,-3.0513,-2.4404,-1.8049,-1.8502,-0.9599,-0.9981,-1.5392,-1.3071,-0.0986,-0.4711
425.7812,0.0839,-1.1985,-0.272,-2.075,-2.4707,-1.9217,-1.493,-0.4866,-0.5338,-1.2957,-0.9366,-1.2303,-2.3391,-2.6521,-1.2924,-1.892,-1.6113,-1.1805,-2.191,-2.485,-3.0145,-2.4343,-1.8277,-1.8574,-0.9329,-0.9935,-1.5475,-1.3396,-0.0963,-0.5063
429.6875,0.1216,-1.1006,-0.3312,-1.9851,-2.409,-1.9069,-1.5052,-0.5413,-0.5592,-1.3365,-0.9747,-1.2772,-2.3784,-2.6564,-1.2394,-1.7495,-1.5417,-1.2031,-2.1319,-2.3713,-2.9572,-2.4225,-1.8432,-1.8628,-0.8897,-0.9803,-1.5639,-1.3632,-0.118,-0.5303
433.5938,0.123,-1.0091,-0.4058,-1.8836,-2.2989,-1.8523,-1.5025,-0.6028,-0.5915,-1.3594,-1.0132,-1.3043,-2.382,-2.6203,-1.1754,-1.6065,-1.4422,-1.1864,-2.0508,-2.2537,-2.8732,-2.4023,-1.8489,-1.8665,-0.8409,-0.9636,-1.5875,-1.3784,-0.149,-0.53
437.5,0.1105,-0.9168,-0.478,-1.7675,-2.1413,-1.7561,-1.4745,-0.6563,-0.623,-1.3537,-1.0458,-1.3071,-2.3365,-2.534,-1.0881,-1.4571,-1.3062,-1.1199,-1.9421,-2.1249,-2.7549,-2.3672,-1.8379,-1.8682,-0.8003,-0.9522,-1.6168,-1.3876,-0.1689,-0.4934
441.4062,0.1088,-0.8167,-0.5284,-1.6345,-1.9406,-1.62,-1.4127,-0.6858,-0.646,-1.313,-1.0656,-1.2839,-2.2343,-2.3925,-0.9687,-1.2962,-1.1335,-0.9992,-1.8028,-1.9773,-2.5962,-2.3093,-1.8018,-1.8673,-0.7821,-0.9577,-1.6502,-1.394,-0.1563,-0.4124
445.3125,0.1378,-0.7044,-0.5409,-1.4849,-1.7063,-1.4506,-1.314,-0.6788,-0.655,-1.2378,-1.0674,-1.2367,-2.0767,-2.1975,-0.8149,-1.1221,-0.931,-0.827,-1.6344,-1.8068,-2.3959,-2.2223,-1.7336,-1.864,-0.7985,-0.992,-1.6872,-1.4017,-0.0938,-0.2846
449.2188,0.2072,-0.5812,-0.5071,-1.3238,-1.4533,-1.2607,-1.1829,-0.6305,-0.6487,-1.1367,-1.0496,-1.1715,-1.8747,-1.9601,-0.6325,-0.9385,-0.7126,-0.6136,-1.4441,-1.6153,-2.1601,-2.1041,-1.6308,-1.8601,-0.8559,-1.0638,-1.729,-1.4148,0.027,-0.115
453.125,0.314,-0.4553,-0.4285,-1.162,-1.2015,-1.0688,-1.0321,-0.5466,-0.6317,-1.0256,-1.0155,-1.0981,-1.6491,-1.6995,-0.4363,-0.7564,-0.4977,-0.3761,-1.2448,-1.4127,-1.9035,-1.9583,-1.4973,-1.8585,-0.9536,-1.1757,-1.7779,-1.4366,0.202,0.0845
457.0312,0.4426,-0.3407,-0.3165,-1.0153,-0.974,-0.8965,-0.8807,-0.4427,-0.6133,-0.9246,-0.9736,-1.0289,-1.4265,-1.4413,-0.2476,-0.5924,-0.3084,-0.1375,-1.0542,-1.2162,-1.6481,-1.7946,-1.3434,-1.8624,-1.0825,-1.3217,-1.8357,-1.4688,0.4143,0.2958
460.9375,0.5686,-0.2544,-0.1904,-0.9015,-0.7934,-0.7648,-0.7508,-0.3417,-0.6059,-0.8542,-0.9352,-0.9762,-1.2351,-1.2134,-0.0902,-0.4662,-0.1655,0.0779,-0.8916,-1.0479,-1.4199,-1.6273,-1.1838,-1.8742,-1.2264,-1.4871,-1.9026,-1.5111,0.6365,0.4976
464.8438,0.6656,-0.2123,-0.0724,-0.8363,-0.678,-0.6895,-0.6627,-0.2688,-0.6217,-0.831,-0.9128,-0.9505,-1.0991,-1.0413,0.0148,-0.3954,-0.0836,0.2485,-0.774,-0.9293,-1.2438,-1.4721,-1.0339,-1.894,-1.3647,-1.651,-1.9757,-1.5608,0.8361,0.6689
468.75,0.712,-0.2239,0.0175,-0.829,-0.6374,-0.6768,-0.6307,-0.2455,-0.6698,-0.8637,-0.9164,-0.9578,-1.0345,-0.9425,0.0551,-0.3901,-0.0667,0.3606,-0.7115,-0.8759,-1.138,-1.342,-0.9062,-1.9185,-1.4756,-1.7893,-2.0485,-1.6129,0.9829,0.7931
472.6562,0.6972,-0.2896,0.0663,-0.8794,-0.67,-0.7216,-0.6597,-0.2846,-0.7535,-0.9512,-0.9514,-0.998,-1.0456,-0.9238,0.0307,-0.4497,-0.1056,0.4121,-0.7033,-0.8919,-1.1094,-1.244,-0.8059,-1.9409,-1.5399,-1.8794,-2.1113,-1.6612,1.0557,0.8613
476.5625,0.6246,-0.3993,0.0701,-0.9766,-0.7628,-0.8076,-0.7438,-0.3868,-0.8693,-1.083,-1.017,-1.065,-1.1247,-0.9788,-0.0453,-0.5612,-0.1796,0.4126,-0.7374,-0.9688,-1.1521,-1.1765,-0.7305,-1.9516,-1.5444,-1.9047,-2.1532,-1.6985,1.0462,0.8737
480.4688,0.5097,-0.5342,0.0342,-1.101,-0.8937,-0.9111,-0.8676,-0.5403,-1.0076,-1.2411,-1.1067,-1.1479,-1.2535,-1.0899,-0.1499,-0.7016,-0.2602,0.381,-0.7923,-1.0858,-1.2479,-1.13,-0.6698,-1.9402,-1.4843,-1.8584,-2.164,-1.7189,0.9609,0.8394
484.375,0.3765,-0.6708,-0.0292,-1.228,-1.0358,-1.007,-1.0097,-0.7234,-1.1546,-1.4041,-1.2097,-1.2335,-1.4072,-1.231,-0.2553,-0.8423,-0.3185,0.3409,-0.8416,-1.2141,-1.3704,-1.0894,-0.61,-1.8982,-1.3644,-1.7452,-2.1373,-1.7187,0.8189,0.7739
488.2812,0.251,-0.7854,-0.1045,-1.3326,-1.1628,-1.0737,-1.1473,-0.909,-1.2947,-1.5513,-1.3137,-1.3094,-1.5586,-1.3725,-0.3346,-0.9543,-0.3307,0.3153,-0.86,-1.3213,-1.4893,-1.0389,-0.538,-1.8215,-1.1991,-1.5811,-2.073,-1.6984,0.6479,0.6954
492.1875,0.1565,-0.858,-0.1754,-1.3934,-1.2524,-1.0985,-1.2597,-1.0701,-1.4138,-1.6655,-1.4065,-1.3661,-1.6832,-1.4856,-0.3673,-1.0127,-0.2829,0.322,-0.8279,-1.3774,-1.5751,-0.9659,-0.4457,-1.7122,-1.0097,-1.3909,-1.9772,-1.6618,0.4783,0.621
496.0938,0.1096,-0.8754,-0.2281,-1.3955,-1.29,-1.0788,-1.3323,-1.1852,-1.5008,-1.7355,-1.4778,-1.398,-1.7615,-1.5467,-0.3415,-1.0006,-0.1727,0.3713,-0.7354,-1.3591,-1.6037,-0.8647,-0.3324,-1.5786,-0.8216,-1.2029,-1.8619,-1.6156,0.3383,0.5643
500,0.1175,-0.8323,-0.2527,-1.332,-1.2685,-1.0211,-1.357,-1.2412,-1.5491,-1.7556,-1.5199,-1.4028,-1.7812,-1.5398,-0.2547,-0.9105,-0.0067,0.4653,-0.5835,-1.2538,-1.5597,-0.7372,-0.2053,-1.4337,-0.659,-1.0433,-1.7419,-1.5663,0.2487,0.5336
503.9062,0.1786,-0.7305,-0.2432,-1.2038,-1.1882,-0.9378,-1.3323,-1.2352,-1.5558,-1.7251,-1.5268,-1.3805,-1.7374,-1.4587,-0.1126,-0.745,0.202,0.5991,-0.3824,-1.061,-1.4379,-0.5916,-0.0769,-1.2915,-0.5407,-0.9304,-1.6312,-1.5186,0.2212,0.5317
507.8125,0.2841,-0.5771,-0.1974,-1.0186,-1.0547,-0.8417,-1.2614,-1.1729,-1.5215,-1.6468,-1.4953,-1.3318,-1.632,-1.3065,0.0734,-0.5151,0.4381,0.7632,-0.1488,-0.7927,-1.2439,-0.4397,0.0388,-1.1641,-0.4764,-0.8708,-1.5399,-1.4736,0.257,0.5575
511.7188,0.4211,-0.3823,-0.1163,-0.7884,-0.8772,-0.7427,-1.1504,-1.0672,-1.4496,-1.5267,-1.4246,-1.2582,-1.4729,-1.095,0.2885,-0.2391,0.6862,0.9449,0.0975,-0.4711,-0.9935,-0.2929,0.13,-1.0589,-0.4657,-0.8596,-1.4723,-1.4287,0.3479,0.6071
515.625,0.5765,-0.1582,-0.0034,-0.5289,-0.6671,-0.645,-1.0072,-0.9346,-1.3461,-1.3734,-1.318,-1.162,-1.2732,-0.8427,0.5164,0.0602,0.9312,1.1298,0.3366,-0.1258,-0.7105,-0.16,0.1905,-0.9776,-0.4992,-0.8825,-1.4274,-1.3796,0.4778,0.6746
519.5312,0.7382,0.0824,0.1348,-0.2577,-0.4375,-0.5482,-0.8417,-0.7932,-1.2203,-1.199,-1.1836,-1.048,-1.0504,-0.5731,0.7405,0.3577,1.1588,1.3031,0.5512,0.2103,-0.4232,-0.0459,0.2207,-0.9176,-0.5611,-0.9211,-1.4012,-1.3226,0.626,0.7531
523.4375,0.8969,0.325,0.2886,0.0065,-0.2034,-0.45,-0.6656,-0.6603,-1.0842,-1.0187,-1.0351,-0.9249,-0.8254,-0.3114,0.9446,0.6282,1.3552,1.4498,0.7273,0.5055,-0.1608,0.0476,0.2262,-0.875,-0.6338,-0.9584,-1.3896,-1.2577,0.7699,0.834
527.3438,1.0451,0.5545,0.4453,0.2444,0.0189,-0.3499,-0.4934,-0.5511,-0.9528,-0.8511,-0.891,-0.8052,-0.6204,-0.0821,1.1136,0.8497,1.5072,1.5559,0.8554,0.7337,0.0515,0.1204,0.2152,-0.8469,-0.7025,-0.9841,-1.3913,-1.19,0.8891,0.9081
531.25,1.1767,0.7556,0.59,0.4384,0.212,-0.252,-0.3413,-0.4768,-0.8422,-0.7154,-0.7717,-0.7043,-0.4568,0.0945,1.2355,1.0061,1.6043,1.6102,0.9304,0.8782,0.1957,0.1725,0.1951,-0.834,-0.7583,-0.9971,-1.4084,-1.1296,0.9687,0.9666
535.1562,1.2874,0.9157,0.7086,0.575,0.3597,-0.1649,-0.2261,-0.4443,-0.7675,-0.6295,-0.696,-0.6375,-0.3519,0.2047,1.3026,1.0898,1.6411,1.6058,0.9524,0.9343,0.2647,0.2034,0.1702,-0.8405,-0.7993,-1.0053,-1.4463,-1.0895,1.0026,1.0027
539.0625,1.3757,1.0268,0.7911,0.6472,0.4496,-0.1002,-0.1622,-0.4549,-0.7404,-0.6061,-0.6776,-0.6168,-0.316,0.2438,1.314,1.1035,1.6191,1.5432,0.9268,0.9096,0.2624,0.212,0.1405,-0.8731,-0.8307,-1.0227,-1.5115,-1.0825,0.9943,1.0135
542.9688,1.4439,1.0884,0.8347,0.6566,0.4762,-0.0682,-0.1592,-0.5046,-0.767,-0.651,-0.7224,-0.6484,-0.3511,0.2158,1.2769,1.0601,1.548,1.4316,0.8635,0.8224,0.203,0.1972,0.1027,-0.9389,-0.8616,-1.0651,-1.6092,-1.118,0.9564,1.0013
546.875,1.499,1.1073,0.8449,0.6139,0.4418,-0.0749,-0.2194,-0.5858,-0.8468,-0.7615,-0.828,-0.7313,-0.4503,0.1324,1.2057,0.9801,1.4449,1.289,0.7756,0.6981,0.107,0.1585,0.0522,-1.0425,-0.9017,-1.1449,-1.741,-1.1994,0.9077,0.9737
550.7812,1.5513,1.0969,0.8342,0.5366,0.3574,-0.1189,-0.3371,-0.6881,-0.9724,-0.9265,-0.9833,-0.8576,-0.6001,0.0102,1.1203,0.8877,1.3311,1.1398,0.6771,0.5634,-0.0035,0.0964,-0.0149,-1.1838,-0.9585,-1.2675,-1.9031,-1.3232,0.869,0.9426
554.6875,1.6122,1.0738,0.8194,0.446,0.2404,-0.1914,-0.4988,-0.8006,-1.1307,-1.1278,-1.1709,-1.0136,-0.7818,-0.1326,1.0415,0.8063,1.2273,1.0106,0.5802,0.4423,-0.1088,0.0121,-0.0993,-1.3569,-1.0337,-1.428,-2.0856,-1.4784,0.8586,0.9216
558.5938,1.6901,1.054,0.8168,0.3624,0.1119,-0.2777,-0.6841,-0.9126,-1.3037,-1.3419,-1.3691,-1.1815,-0.9741,-0.2794,0.9873,0.754,1.1498,0.9243,0.4936,0.3514,-0.1957,-0.0922,-0.1983,-1.5486,-1.1231,-1.6117,-2.272,-1.6483,0.8884,0.9229
562.5,1.7872,1.0495,0.8377,0.3013,-0.0075,-0.361,-0.8691,-1.0145,-1.4714,-1.5434,-1.554,-1.3423,-1.1559,-0.4167,0.9686,0.7409,1.1067,0.8958,0.421,0.2984,-0.258,-0.2125,-0.3051,-1.7399,-1.2163,-1.7951,-2.4411,-1.8115,0.9617,0.9539
566.4062,1.8984,1.0665,0.8856,0.2705,-0.1012,-0.4255,-1.0287,-1.0984,-1.6134,-1.7077,-1.7029,-1.4769,-1.3078,-0.5349,0.9881,0.7682,1.0983,0.9283,0.3622,0.2828,-0.2961,-0.3434,-0.4104,-1.9078,-1.2989,-1.9505,-2.5694,-1.9457,1.0724,1.015
570.3125,2.0126,1.106,0.9564,0.271,-0.1579,-0.4595,-1.1408,-1.1576,-1.7116,-1.8138,-1.7968,-1.5693,-1.4141,-0.6274,1.0412,0.831,1.1187,1.0136,0.3153,0.2993,-0.3134,-0.477,-0.5038,-2.0291,-1.356,-2.0511,-2.6348,-2.0303,1.208,1.0994
574.2188,2.1167,1.1658,1.0406,0.2996,-0.1719,-0.4557,-1.1885,-1.1868,-1.7522,-1.8473,-1.8222,-1.6075,-1.4635,-0.689,1.1194,0.9214,1.1611,1.1349,0.2795,0.3415,-0.3127,-0.6021,-0.5751,-2.0839,-1.3754,-2.0766,-2.6215,-2.0499,1.3528,1.1961
578.125,2.1998,1.2439,1.1283,0.352,-0.1423,-0.4115,-1.1621,-1.1819,-1.727,-1.8013,-1.7732,-1.5855,-1.4511,-0.7148,1.2137,1.0326,1.2212,1.2718,0.2587,0.4061,-0.2934,-0.7045,-0.6153,-2.0601,-1.3507,-2.0181,-2.5235,-1.9976,1.4929,1.2921
582.0312,2.2572,1.3401,1.2125,0.4256,-0.0715,-0.3286,-1.0612,-1.1402,-1.6348,-1.6781,-1.6521,-1.5046,-1.3782,-0.6998,1.3181,1.1613,1.3002,1.4055,0.2614,0.4942,-0.2509,-0.7681,-0.6173,-1.9562,-1.2829,-1.8806,-2.3471,-1.8762,1.6188,1.3769
585.9375,2.2915,1.4563,1.2919,0.5201,0.0354,-0.2124,-0.8942,-1.0616,-1.4814,-1.4888,-1.47,-1.3733,-1.2536,-0.6411,1.4299,1.3073,1.4036,1.5223,0.2987,0.6099,-0.1791,-0.7778,-0.5776,-1.7829,-1.1808,-1.6822,-2.1117,-1.6989,1.7266,1.4436
589.8438,2.3115,1.5947,1.3698,0.6361,0.1703,-0.0717,-0.6781,-0.9496,-1.2798,-1.2529,-1.2456,-1.2075,-1.093,-0.5394,1.5484,1.471,1.537,1.6155,0.3801,0.7571,-0.0735,-0.7235,-0.4967,-1.5617,-1.059,-1.4515,-1.8465,-1.4876,1.8174,1.4901
593.75,2.3275,1.754,1.451,0.7723,0.322,0.0811,-0.4365,-0.8111,-1.0483,-0.9957,-1.003,-1.0278,-0.9174,-0.402,1.6719,1.6494,1.701,1.6833,0.508,0.9345,0.0639,-0.6043,-0.3811,-1.3228,-0.9352,-1.2215,-1.5864,-1.2691,1.8949,1.5182
597.6562,2.3473,1.9262,1.5373,0.9218,0.4753,0.2307,-0.1965,-0.6569,-0.8086,-0.7455,-0.7682,-0.857,-0.7507,-0.2441,1.7938,1.8321,1.8853,1.7264,0.6728,1.131,0.2213,-0.4322,-0.2439,-1.0994,-0.8272,-1.0235,-1.3659,-1.0706,1.9624,1.5318
601.5625,2.3705,2.0936,1.6228,1.0698,0.6115,0.3593,0.0137,-0.5001,-0.5833,-0.5292,-0.565,-0.716,-0.6173,-0.089,1.9005,1.9989,2.0666,1.7441,0.8512,1.3234,0.376,-0.2329,-0.1052,-0.9241,-0.7503,-0.8819,-1.2132,-0.9154,2.02,1.5342
605.4688,2.3878,2.2292,1.6927,1.1927,0.7075,0.4467,0.1685,-0.3553,-0.3933,-0.3697,-0.4124,-0.6208,-0.5385,0.034,1.9715,2.1201,2.2106,1.7327,1.0074,1.4776,0.4958,-0.0442,0.0095,-0.8232,-0.7156,-0.8108,-1.1463,-0.8193,2.0634,1.5261
609.375,2.381,2.2991,1.724,1.2593,0.7384,0.4717,0.2467,-0.2368,-0.2556,-0.283,-0.3218,-0.5805,-0.5309,0.0935,1.982,2.1608,2.2773,1.6847,1.0987,1.5529,0.5446,0.0898,0.0723,-0.8143,-0.7289,-0.8135,-1.171,-0.7891,2.0834,1.5037
613.2812,2.3282,2.2682,1.69,1.236,0.6794,0.414,0.2345,-0.1568,-0.1821,-0.2759,-0.2968,-0.5957,-0.6031,0.0616,1.9085,2.0875,2.23,1.5914,1.0834,1.5103,0.4885,0.1266,0.0583,-0.9036,-0.7903,-0.8835,-1.2806,-0.8222,2.0679,1.4591
617.1875,2.209,2.1078,1.5662,1.0925,0.5101,0.2571,0.1267,-0.124,-0.1777,-0.346,-0.3326,-0.6592,-0.7552,-0.0799,1.7342,1.8762,2.0434,1.4453,0.9307,1.3214,0.3046,0.0345,-0.0491,-1.0851,-0.8946,-1.0069,-1.4577,-0.9082,2.0052,1.3821
621.0938,2.0101,1.8026,1.3369,0.8095,0.2192,-0.0081,-0.0724,-0.1424,-0.2398,-0.4817,-0.4178,-0.7576,-0.9771,-0.3351,1.4542,1.5191,1.7099,1.2431,0.6277,0.9763,-0.0135,-0.2005,-0.2538,-1.3418,-1.0316,-1.1653,-1.678,-1.0311,1.8865,1.2633
625,1.7297,1.3557,0.9999,0.384,-0.1916,-0.3804,-0.3487,-0.2107,-0.3587,-0.6641,-0.536,-0.8741,-1.2504,-0.6915,1.0775,1.0282,1.2431,0.9876,0.1842,0.4874,-0.4522,-0.5703,-0.5458,-1.6478,-1.1876,-1.3382,-1.9134,-1.1723,1.7088,1.0974
628.9062,1.3789,0.7908,0.5684,-0.1666,-0.7051,-0.8461,-0.68,-0.3229,-0.5188,-0.87,-0.6687,-0.9911,-1.5502,-1.1211,0.6271,0.435,0.6761,0.6879,-0.3677,-0.1107,-0.9793,-1.0459,-0.9022,-1.972,-1.3472,-1.5062,-2.1375,-1.3136,1.4762,0.8856
632.8125,0.9813,0.1503,0.0714,-0.8057,-1.2886,-1.3782,-1.0377,-0.4681,-0.7013,-1.0752,-0.7976,-1.0939,-1.8485,-1.5848,0.1375,-0.213,0.0578,0.3596,-0.9784,-0.7665,-1.5491,-1.5824,-1.2916,-2.2836,-1.4952,-1.6529,-2.3289,-1.4404,1.2005,0.6367
636.7188,0.5698,-0.51,-0.4498,-1.4806,-1.8964,-1.9388,-1.3902,-0.6319,-0.8856,-1.2583,-0.9077,-1.172,-2.1182,-2.0378,-0.35,-0.8596,-0.5542,0.0227,-1.5886,-1.4198,-2.1091,-2.1261,-1.6791,-2.5555,-1.6192,-1.767,-2.4741,-1.5428,0.9006,0.3662
640.625,0.1828,-1.129,-0.9468,-2.1302,-2.4758,-2.4828,-1.7062,-0.7974,-1.0525,-1.403,-0.9883,-1.2202,-2.336,-2.4367,-0.7929,-1.4477,-1.1023,-0.2994,-2.1395,-2.011,-2.6082,-2.6239,-2.0316,-2.7677,-1.7102,-1.8421,-2.5677,-1.6154,0.6005,0.0942
644.5312,-0.1419,-1.6495,-1.3718,-2.6946,-2.9749,-2.9645,-1.9581,-0.9465,-1.1858,-1.5003,-1.0342,-1.2374,-2.4845,-2.7451,-1.1532,-1.9277,-1.537,-0.5833,-2.5812,-2.4903,-3.0041,-3.0303,-2.3214,-2.9083,-1.7637,-1.8764,-2.6114,-1.6565,0.3264,-0.1587
648.4375,-0.3734,-2.0271,-1.685,-3.1243,-3.3507,-3.3444,-2.1257,-1.0625,-1.2735,-1.5479,-1.045,-1.2251,-2.5541,-2.9385,-1.403,-2.2638,-1.824,-0.8086,-2.8802,-2.8238,-3.2686,-3.3133,-2.5288,-2.973,-1.7789,-1.8711,-2.6106,-1.6659,0.1027,-0.3749
652.3438,-0.4929,-2.2364,-1.862,-3.3885,-3.5765,-3.5953,-2.1984,-1.1323,-1.309,-1.5499,-1.0242,-1.186,-2.5423,-3.0059,-1.5279,-2.439,-1.9484,-0.9605,-3.0224,-2.9978,-3.3903,-3.4571,-2.6437,-2.9631,-1.7579,-1.8292,-2.5719,-1.6442,-0.0525,-0.5425
656.25,-0.4961,-2.2747,-1.897,-3.479,-3.6454,-3.7065,-2.1765,-1.1486,-1.2909,-1.5142,-0.9773,-1.1228,-2.4537,-2.9511,-1.5284,-2.4549,-1.9153,-1.0327,-3.0132,-3.0183,-3.3749,-3.4615,-2.6647,-2.8837,-1.7043,-1.7541,-2.5002,-1.5918,-0.1298,-0.6564
660.1562,-0.393,-2.1607,-1.8039,-3.4102,-3.5702,-3.6848,-2.0701,-1.111,-1.2227,-1.45,-0.9105,-1.0373,-2.2981,-2.7898,-1.4181,-2.3307,-1.747,-1.0277,-2.8737,-2.9075,-3.2422,-3.3397,-2.5985,-2.7414,-1.6224,-1.6492,-2.3976,-1.509,-0.1303,-0.7175
664.0625,-0.2052,-1.9294,-1.6123,-3.2145,-3.3798,-3.5524,-1.8969,-1.026,-1.1122,-1.365,-0.8285,-0.9309,-2.0886,-2.5471,-1.2208,-2.0976,-1.4781,-0.9561,-2.6353,-2.6984,-3.0219,-3.1141,-2.4578,-2.5435,-1.5173,-1.5187,-2.2637,-1.3967,-0.0645,-0.731
667.9688,0.0393,-1.6255,-1.361,-2.9353,-3.1121,-3.3415,-1.6785,-0.9054,-0.97,-1.2641,-0.7346,-0.8052,-1.8401,-2.2531,-0.9651,-1.7934,-1.1496,-0.8344,-2.3338,-2.428,-2.7476,-2.8126,-2.26,-2.2987,-1.3945,-1.3676,-2.0966,-1.2579,0.0495,-0.705
671.875,0.3107,-1.2942,-1.0912,-2.6179,-2.8065,-3.0881,-1.4368,-0.7651,-0.8087,-1.1491,-0.6306,-0.6629,-1.5678,-1.9383,-0.6805,-1.4562,-0.8019,-0.6816,-2.004,-2.131,-2.4517,-2.4652,-2.0257,-2.0177,-1.261,-1.2032,-1.8955,-1.0979,0.1888,-0.649
675.7812,0.582,-0.9743,-0.8385,-2.3018,-2.4967,-2.825,-1.1911,-0.6221,-0.6418,-1.0194,-0.5179,-0.5087,-1.2868,-1.6305,-0.393,-1.1192,-0.4697,-0.5164,-1.6756,-1.8359,-2.1611,-2.1004,-1.7765,-1.7144,-1.1253,-1.0351,-1.6635,-0.9251,0.3295,-0.5727
679.6875,0.8325,-0.6921,-0.6286,-2.014,-2.2064,-2.5765,-0.9565,-0.4927,-0.4828,-0.8749,-0.3989,-0.3495,-1.0113,-1.3511,-0.1219,-0.8065,-0.1768,-0.3542,-1.3695,-1.5617,-1.8943,-1.7432,-1.5331,-1.4062,-0.997,-0.8749,-1.4089,-0.7504,0.4501,-0.4858
683.5938,1.0506,-0.4588,-0.473,-1.767,-1.9464,-2.3551,-0.7429,-0.3898,-0.3437,-0.7171,-0.2775,-0.1939,-0.7541,-1.1133,0.1218,-0.5314,0.0664,-0.2053,-1.0974,-1.3176,-1.6607,-1.413,-1.3126,-1.1128,-0.886,-0.7349,-1.1456,-0.5859,0.5354,-0.3961
687.5,1.235,-0.2711,-0.3689,-1.5582,-1.7161,-2.1613,-0.5561,-0.3216,-0.234,-0.5509,-0.1594,-0.0512,-0.5262,-0.9218,0.3361,-0.296,0.2624,-0.0733,-0.8616,-1.1037,-1.4609,-1.1228,-1.1267,-0.8546,-0.8009,-0.627,-0.892,-0.4433,0.5788,-0.3093
691.4062,1.3941,-0.1143,-0.301,-1.3741,-1.5067,-1.9866,-0.3979,-0.2903,-0.1595,-0.3848,-0.0515,0.0699,-0.3354,-0.7725,0.5264,-0.0926,0.424,0.0439,-0.6566,-0.9131,-1.2884,-0.8786,-0.9805,-0.6491,-0.7479,-0.5602,-0.6684,-0.3328,0.5834,-0.2273
695.3125,1.5431,0.0321,-0.2453,-1.1955,-1.3057,-1.8179,-0.2685,-0.2928,-0.1222,-0.2298,0.0387,0.1619,-0.186,-0.6557,0.7028,0.0924,0.5696,0.1534,-0.4721,-0.7344,-1.1323,-0.6799,-0.8727,-0.5083,-0.7298,-0.5404,-0.4936,-0.2616,0.5618,-0.1483
699.2188,1.699,0.1888,-0.1751,-1.0037,-1.1024,-1.6432,-0.1673,-0.3218,-0.1209,-0.0988,0.1035,0.2189,-0.0784,-0.558,0.8765,0.2747,0.7172,0.2643,-0.296,-0.5548,-0.9805,-0.5209,-0.7967,-0.4372,-0.7457,-0.5686,-0.3826,-0.2343,0.5324,-0.0679
703.125,1.8756,0.3711,-0.068,-0.7855,-0.8913,-1.4557,-0.0943,-0.368,-0.1521,-0.0043,0.1359,0.2365,-0.0095,-0.4664,1.056,0.468,0.8804,0.3858,-0.1175,-0.3632,-0.822,-0.3931,-0.7433,-0.4334,-0.7913,-0.6413,-0.3441,-0.2522,0.5159,0.02
707.0312,2.0783,0.5854,0.0893,-0.5368,-0.6736,-1.2557,-0.0501,-0.4224,-0.2114,0.042,0.1301,0.2127,0.0262,-0.3705,1.2448,0.6804,1.065,0.5242,0.0702,-0.1523,-0.65,-0.2871,-0.7024,-0.4871,-0.8588,-0.7505,-0.3794,-0.314,0.5298,0.1199
710.9375,2.3022,0.8281,0.2978,-0.2624,-0.4566,-1.0498,-0.0357,-0.4776,-0.2944,0.0319,0.0822,0.1476,0.0357,-0.265,1.44,0.913,1.2688,0.6818,0.2686,0.0796,-0.4629,-0.1947,-0.6654,-0.5836,-0.9378,-0.8837,-0.4815,-0.4146,0.5851,0.2338
714.8438,2.5321,1.0871,0.5467,0.0253,-0.2504,-0.848,-0.0513,-0.5285,-0.3968,-0.0389,-0.0091,0.0448,0.0264,-0.1501,1.6332,1.1596,1.4829,0.8557,0.4735,0.3283,-0.2641,-0.111,-0.626,-0.7049,-1.0159,-1.0255,-0.636,-0.5455,0.684,0.3594
718.75,2.7464,1.3452,0.816,0.3103,-0.0647,-0.6599,-0.0948,-0.5719,-0.5143,-0.1693,-0.1413,-0.0888,0.0058,-0.0301,1.812,1.4085,1.6942,1.0385,0.6761,0.5849,-0.061,-0.0339,-0.5803,-0.8317,-1.0802,-1.1581,-0.8224,-0.6945,0.8197,0.4906
722.6562,2.9218,1.5836,1.081,0.5764,0.0944,-0.4912,-0.1605,-0.6064,-0.6418,-0.3519,-0.3078,-0.2423,-0.0196,0.088,1.9636,1.6449,1.8889,1.2189,0.8652,0.8375,0.137,0.0365,-0.5261,-0.9461,-1.1182,-1.2637,-1.0167,-0.8466,0.9785,0.6179
726.5625,3.0385,1.7867,1.3175,0.8109,0.227,-0.3424,-0.2387,-0.6308,-0.7719,-0.5721,-0.4977,-0.4023,-0.0429,0.1984,2.0772,1.8548,2.0549,1.3836,1.0302,1.0748,0.3225,0.0995,-0.4622,-1.0325,-1.1204,-1.3268,-1.1938,-0.9851,1.1421,0.7305
730.4688,3.0847,1.9452,1.5064,1.008,0.3398,-0.2076,-0.3153,-0.643,-0.8946,-0.809,-0.6957,-0.5537,-0.0569,0.2985,2.1475,2.0283,2.1853,1.5205,1.1644,1.289,0.4919,0.1562,-0.3868,-1.0793,-1.0816,-1.3367,-1.3311,-1.0944,1.292,0.8183
734.375,3.0592,2.0581,1.6375,1.1697,0.4455,-0.0759,-0.3731,-0.6391,-0.9969,-1.0356,-0.8834,-0.6815,-0.0537,0.3913,2.1758,2.162,2.2794,1.621,1.2674,1.4791,0.6476,0.2108,-0.2977,-1.0788,-1.0022,-1.2899,-1.4109,-1.1618,1.4131,0.8742
738.2812,2.9714,2.133,1.7119,1.3053,0.5599,0.0661,-0.3941,-0.6132,-1.0635,-1.2226,-1.0404,-0.7732,-0.0251,0.4849,2.1712,2.261,2.3435,1.6828,1.3462,1.651,0.7979,0.2717,-0.1915,-1.0278,-0.8888,-1.1908,-1.4233,-1.1804,1.4969,0.8962
742.1875,2.8395,2.1835,1.7406,1.4291,0.6985,0.2305,-0.3627,-0.558,-1.0797,-1.3419,-1.1476,-0.8203,0.0362,0.5909,2.1484,2.337,2.3896,1.7107,1.4137,1.8167,0.9551,0.3493,-0.0653,-0.9274,-0.7537,-1.0521,-1.3672,-1.1503,1.543,0.8882
746.0938,2.6869,2.2264,1.7417,1.5563,0.872,0.4248,-0.2688,-0.4674,-1.034,-1.3717,-1.1896,-0.8202,0.1343,0.7202,2.1249,2.4061,2.4323,1.7157,1.4855,1.9907,1.1319,0.4539,0.0823,-0.7833,-0.6131,-0.8928,-1.2506,-1.0791,1.5586,0.8588
750,2.537,2.2767,1.7359,1.6993,1.0838,0.6492,-0.1109,-0.3386,-0.921,-1.3011,-1.1583,-0.7766,0.2684,0.88,2.1175,2.4843,2.4853,1.713,1.5761,2.1857,1.3373,0.5921,0.2493,-0.6055,-0.4848,-0.7359,-1.0896,-0.9806,1.5554,0.8187
753.9062,2.4092,2.3446,1.7414,1.8639,1.3286,0.8958,0.1032,-0.1741,-0.744,-1.1323,-1.0544,-0.6992,0.4326,1.0704,2.1382,2.583,2.5582,1.7185,1.6948,2.4084,1.5733,0.7646,0.4296,-0.4073,-0.3856,-0.6038,-0.9053,-0.8726,1.546,0.7783
757.8125,2.3156,2.4336,1.7706,2.0484,1.5934,1.1507,0.3575,0.0175,-0.5147,-0.881,-0.888,-0.6015,0.6157,1.284,2.1923,2.7061,2.6545,1.7446,1.8442,2.6568,1.8336,0.9654,0.6134,-0.2036,-0.3271,-0.5146,-0.7202,-0.773,1.5404,0.745
761.7188,2.2602,2.5397,1.8283,2.2441,1.8604,1.3964,0.6305,0.2228,-0.2526,-0.5738,-0.6776,-0.4985,0.8036,1.5073,2.2769,2.8488,2.7713,1.7974,2.0192,2.9196,2.1042,1.1826,0.7897,-0.0097,-0.3137,-0.4784,-0.5545,-0.6964,1.5438,0.7222
765.625,2.2392,2.6526,1.9109,2.4366,2.1102,1.6154,0.8983,0.4258,0.018,-0.2437,-0.4472,-0.4043,0.9809,1.7224,2.3818,2.9982,2.8997,1.8749,2.2084,3.1776,2.3657,1.4007,0.9478,0.1612,-0.3412,-0.4948,-0.4234,-0.6519,1.5543,0.7083
769.5312,2.2427,2.7578,2.0085,2.6087,2.324,1.7925,1.138,0.6101,0.2711,0.0743,-0.2238,-0.3301,1.1333,1.9108,2.4914,3.1356,3.0263,1.9678,2.396,3.4065,2.5968,1.6034,1.0801,0.2984,-0.3973,-0.5538,-0.3358,-0.6424,1.564,0.6964
773.4375,2.2577,2.8391,2.1069,2.7431,2.4865,1.9162,1.3305,0.7615,0.4821,0.3485,-0.0332,-0.284,1.2489,2.0563,2.5875,3.2399,3.1358,2.0622,2.5647,3.5815,2.7777,1.7763,1.1826,0.3952,-0.4644,-0.6374,-0.2946,-0.6646,1.5592,0.675
777.3438,2.2702,2.8819,2.1914,2.825,2.5872,1.9795,1.4628,0.8699,0.6317,0.5548,0.1029,-0.27,1.3196,2.1473,2.6534,3.2921,3.2143,2.1432,2.6993,3.6812,2.8938,1.9094,1.2561,0.4487,-0.5231,-0.7246,-0.2973,-0.7118,1.524,0.6288
781.25,2.2682,2.8761,2.2495,2.8455,2.6217,1.9807,1.5292,0.9304,0.7084,0.6799,0.1705,-0.2889,1.3424,2.179,2.6769,3.279,3.2522,2.1996,2.79,3.6925,2.9384,1.9991,1.3053,0.4608,-0.5563,-0.7953,-0.3377,-0.7755,1.4438,0.5427
785.1562,2.2437,2.8182,2.274,2.803,2.593,1.9235,1.5326,0.9445,0.7113,0.7227,0.1661,-0.3379,1.3197,2.1544,2.6533,3.1968,3.2469,2.2258,2.8345,3.6138,2.9141,2.0481,1.3378,0.4374,-0.553,-0.8352,-0.4068,-0.8475,1.3095,0.4055
789.0625,2.1945,2.7128,2.2642,2.7049,2.5118,1.8183,1.4839,0.9199,0.6501,0.6948,0.0971,-0.411,1.2597,2.0836,2.5863,3.0521,3.2029,2.2228,2.8384,3.4558,2.8325,2.065,1.3617,0.3875,-0.5103,-0.8388,-0.4944,-0.9212,1.121,0.2148
792.9688,2.1238,2.5719,2.2266,2.5667,2.3954,1.6809,1.4006,0.8692,0.544,0.6181,-0.0187,-0.4996,1.175,1.9824,2.4865,2.8609,3.131,2.1972,2.8136,3.241,2.7123,2.0619,1.3844,0.3224,-0.4341,-0.8094,-0.5904,-0.9921,0.8882,-0.0212
796.875,2.0392,2.413,2.1729,2.4099,2.2652,1.5314,1.3043,0.8081,0.4178,0.5203,-0.1565,-0.5937,1.0807,1.8691,2.3695,2.6461,3.0454,2.1583,2.7756,2.9993,2.5761,2.052,1.4109,0.2537,-0.337,-0.7581,-0.6855,-1.0577,0.6298,-0.2838
