time	FP1	F3	F7	FC3	C3	C5	P3	P7	PO7	PO3	O1	Oz	Pz	CPz	FP2	Fz	F4	F8	FC4	FCz	Cz	C4	C6	P4	P8	PO8	PO4	O2	HEOG_left	HEOG_right
-199.2188	-0.1844	-0.4919	-0.1273	-0.3336	-0.3514	-0.4494	-0.2738	-0.0098	-0.1652	-0.4097	-0.1794	-0.4019	-0.5181	-0.4663	-0.2027	-0.5614	-0.939	-0.6321	-0.9142	-0.5276	-0.4378	-0.6558	-0.681	-0.3733	-0.2546	-0.332	-0.1851	-0.4132	0.2178	-0.1069
-195.3125	-0.1841	-0.4508	-0.1424	-0.3453	-0.3637	-0.4253	-0.287	-0.0158	-0.1709	-0.3937	-0.2101	-0.418	-0.5521	-0.4705	-0.2211	-0.5448	-0.8988	-0.5939	-0.7433	-0.535	-0.4893	-0.5849	-0.6116	-0.4083	-0.2904	-0.4127	-0.2458	-0.4335	0.1567	-0.1515
-191.4062	-0.1888	-0.4186	-0.1603	-0.36	-0.375	-0.4048	-0.2958	-0.0221	-0.1751	-0.3735	-0.2323	-0.4239	-0.5775	-0.4708	-0.2351	-0.532	-0.858	-0.553	-0.5832	-0.5418	-0.5364	-0.5166	-0.5417	-0.4334	-0.3181	-0.4785	-0.298	-0.4472	0.1042	-0.1853
-187.5	-0.2005	-0.4009	-0.1813	-0.3792	-0.3837	-0.3894	-0.2969	-0.0291	-0.1773	-0.347	-0.2416	-0.4139	-0.5883	-0.4648	-0.2414	-0.525	-0.8159	-0.5093	-0.4441	-0.5476	-0.5752	-0.454	-0.4727	-0.4423	-0.3326	-0.5198	-0.3369	-0.4496	0.0666	-0.201
-183.5938	-0.2181	-0.3991	-0.2025	-0.4012	-0.3875	-0.3776	-0.2872	-0.0355	-0.1758	-0.3125	-0.2348	-0.3848	-0.58	-0.4505	-0.2375	-0.5236	-0.7716	-0.4623	-0.3321	-0.5513	-0.6021	-0.399	-0.4054	-0.4313	-0.3307	-0.5307	-0.3589	-0.4368	0.0478	-0.1949
-179.6875	-0.2366	-0.4098	-0.2178	-0.4218	-0.3836	-0.3653	-0.2641	-0.039	-0.1682	-0.2692	-0.2116	-0.3367	-0.5499	-0.4263	-0.2223	-0.5256	-0.7234	-0.4121	-0.2493	-0.5514	-0.6139	-0.3523	-0.3416	-0.4001	-0.3118	-0.5105	-0.3621	-0.406	0.0488	-0.1675
-175.7812	-0.2492	-0.4262	-0.2196	-0.4348	-0.3692	-0.347	-0.2268	-0.0367	-0.1522	-0.2176	-0.174	-0.2735	-0.4985	-0.3922	-0.1963	-0.5267	-0.6698	-0.3594	-0.1937	-0.5462	-0.6084	-0.3133	-0.2831	-0.3519	-0.278	-0.4632	-0.3476	-0.357	0.0677	-0.1232
-171.875	-0.2491	-0.4395	-0.2018	-0.4345	-0.3427	-0.3175	-0.1769	-0.0266	-0.127	-0.1605	-0.1277	-0.2025	-0.4294	-0.3499	-0.1621	-0.5226	-0.6101	-0.3059	-0.1614	-0.5345	-0.5854	-0.2813	-0.2328	-0.2931	-0.2337	-0.397	-0.3195	-0.2923	0.1002	-0.0695
-167.9688	-0.2324	-0.4419	-0.1619	-0.4172	-0.3046	-0.274	-0.119	-0.0082	-0.0939	-0.1027	-0.0802	-0.1335	-0.3493	-0.3033	-0.1242	-0.5102	-0.5454	-0.2552	-0.1481	-0.5165	-0.5471	-0.2558	-0.1941	-0.2324	-0.1854	-0.323	-0.2842	-0.2179	0.1405	-0.015
-164.0625	-0.1993	-0.4288	-0.1022	-0.3828	-0.2586	-0.2173	-0.06	0.0166	-0.0569	-0.0511	-0.0402	-0.0771	-0.2672	-0.2581	-0.0884	-0.4887	-0.479	-0.2117	-0.1509	-0.4937	-0.4979	-0.2372	-0.1706	-0.1787	-0.1402	-0.2531	-0.2498	-0.1423	0.1827	0.0321
-160.1562	-0.1543	-0.3997	-0.0301	-0.3353	-0.2107	-0.1519	-0.0082	0.0441	-0.0215	-0.0122	-0.0154	-0.0417	-0.1928	-0.2204	-0.0608	-0.4601	-0.4161	-0.18	-0.1686	-0.4691	-0.4446	-0.2267	-0.1647	-0.1395	-0.1049	-0.1973	-0.2234	-0.0746	0.2216	0.0657
-156.25	-0.1054	-0.3583	0.044	-0.2821	-0.1686	-0.0857	0.0288	0.0693	0.0065	0.0088	-0.0103	-0.0319	-0.134	-0.196	-0.0461	-0.4286	-0.3627	-0.1629	-0.2012	-0.4463	-0.3943	-0.2251	-0.1768	-0.1195	-0.0844	-0.1621	-0.2094	-0.0225	0.2534	0.083
-152.3438	-0.0614	-0.3117	0.1087	-0.2319	-0.1402	-0.0274	0.0458	0.0874	0.0225	0.0098	-0.0249	-0.0469	-0.0962	-0.1884	-0.0473	-0.3995	-0.324	-0.1606	-0.2488	-0.4284	-0.3539	-0.2329	-0.2047	-0.1192	-0.0804	-0.1489	-0.208	0.0094	0.2761	0.0845
-148.4375	-0.0302	-0.2681	0.1548	-0.1929	-0.1317	0.0148	0.0409	0.0946	0.0242	-0.0073	-0.0551	-0.0805	-0.0808	-0.1983	-0.0645	-0.3774	-0.3029	-0.17	-0.3096	-0.4177	-0.3281	-0.2488	-0.2432	-0.1351	-0.0914	-0.1543	-0.2157	0.0207	0.2891	0.0737
-144.5312	-0.0164	-0.2347	0.1767	-0.1713	-0.1464	0.035	0.0159	0.089	0.0123	-0.0376	-0.0934	-0.1234	-0.0861	-0.2238	-0.0955	-0.3658	-0.2992	-0.1852	-0.3799	-0.4148	-0.3191	-0.2702	-0.2856	-0.1617	-0.1131	-0.1715	-0.227	0.0143	0.2927	0.0558
-140.625	-0.0209	-0.2166	0.1738	-0.1697	-0.1835	0.0314	-0.0243	0.0711	-0.0101	-0.0744	-0.1311	-0.1649	-0.1083	-0.2611	-0.1362	-0.3657	-0.3091	-0.1993	-0.4532	-0.4191	-0.3262	-0.2937	-0.3252	-0.1927	-0.1399	-0.1926	-0.2364	-0.0049	0.2874	0.0357
-136.7188	-0.0406	-0.2156	0.1499	-0.1874	-0.239	0.0056	-0.0731	0.043	-0.0384	-0.1111	-0.1605	-0.1966	-0.1429	-0.3058	-0.1817	-0.3759	-0.327	-0.2065	-0.5214	-0.4286	-0.3464	-0.3159	-0.357	-0.223	-0.1665	-0.211	-0.2408	-0.0316	0.2736	0.0172
-132.8125	-0.0697	-0.2297	0.1117	-0.2203	-0.3055	-0.0367	-0.1234	0.0088	-0.0673	-0.1421	-0.1765	-0.2129	-0.1854	-0.3529	-0.227	-0.3927	-0.3458	-0.2035	-0.5766	-0.4408	-0.3747	-0.3343	-0.3785	-0.2498	-0.189	-0.2228	-0.2402	-0.0613	0.2519	0.0023
-128.9062	-0.1013	-0.2542	0.0674	-0.2616	-0.374	-0.0876	-0.1684	-0.0266	-0.0918	-0.1635	-0.1766	-0.2123	-0.2318	-0.3977	-0.2676	-0.4112	-0.3595	-0.1907	-0.612	-0.4523	-0.4052	-0.3477	-0.3899	-0.2719	-0.2055	-0.2266	-0.2371	-0.0904	0.2231	-0.0088
-125	-0.1287	-0.2824	0.0249	-0.3032	-0.4348	-0.1378	-0.2024	-0.0575	-0.1073	-0.1732	-0.1614	-0.1959	-0.2776	-0.4353	-0.2994	-0.4253	-0.3632	-0.1717	-0.6234	-0.4595	-0.4313	-0.3555	-0.3935	-0.2893	-0.2156	-0.2226	-0.235	-0.1162	0.189	-0.0168
-121.0938	-0.1466	-0.3068	-0.01	-0.3364	-0.4788	-0.1786	-0.221	-0.0788	-0.1102	-0.1697	-0.1326	-0.1661	-0.3178	-0.4609	-0.3193	-0.4292	-0.354	-0.1516	-0.6097	-0.4582	-0.447	-0.3579	-0.3917	-0.3017	-0.2196	-0.2116	-0.2356	-0.1361	0.1523	-0.0228
-117.1875	-0.1523	-0.3209	-0.0337	-0.3538	-0.4992	-0.2029	-0.2215	-0.0862	-0.0984	-0.1525	-0.0929	-0.1257	-0.3468	-0.4697	-0.3249	-0.4182	-0.3309	-0.1351	-0.5727	-0.4448	-0.447	-0.355	-0.3864	-0.3079	-0.2179	-0.1936	-0.2386	-0.1476	0.1165	-0.0271
-113.2812	-0.1455	-0.3199	-0.0456	-0.3503	-0.4925	-0.2068	-0.203	-0.0777	-0.0712	-0.1217	-0.0455	-0.0767	-0.3587	-0.458	-0.3151	-0.3892	-0.2943	-0.1245	-0.5167	-0.4164	-0.4282	-0.3461	-0.3777	-0.3053	-0.2107	-0.168	-0.2407	-0.1484	0.0849	-0.0292
-109.375	-0.1283	-0.3018	-0.0471	-0.324	-0.4588	-0.1902	-0.1673	-0.054	-0.0305	-0.0783	0.0065	-0.0208	-0.3493	-0.4238	-0.2904	-0.3418	-0.2451	-0.1186	-0.4469	-0.3721	-0.3894	-0.3304	-0.3643	-0.291	-0.1973	-0.1338	-0.2375	-0.1371	0.0601	-0.0279
-105.4688	-0.1043	-0.2676	-0.0417	-0.2767	-0.4023	-0.1564	-0.1184	-0.0189	0.0197	-0.0251	0.0591	0.0398	-0.3171	-0.3675	-0.2526	-0.2782	-0.1848	-0.113	-0.3686	-0.3127	-0.332	-0.3062	-0.343	-0.2624	-0.1771	-0.0909	-0.2246	-0.1139	0.0428	-0.0219
-101.5625	-0.0776	-0.2212	-0.0336	-0.2137	-0.3305	-0.1119	-0.0626	0.0214	0.0732	0.0332	0.1079	0.102	-0.2642	-0.2927	-0.2046	-0.2029	-0.115	-0.1019	-0.2864	-0.2415	-0.2597	-0.2722	-0.3109	-0.2186	-0.1497	-0.0409	-0.2	-0.0807	0.0317	-0.0106
-97.6562	-0.052	-0.1681	-0.027	-0.1424	-0.2521	-0.0646	-0.0079	0.059	0.122	0.0903	0.1476	0.1613	-0.1966	-0.2056	-0.1501	-0.1217	-0.0374	-0.0798	-0.203	-0.1631	-0.1776	-0.2274	-0.2656	-0.1607	-0.1155	0.0127	-0.1644	-0.0411	0.0235	0.0057
-93.75	-0.0297	-0.1143	-0.0252	-0.0713	-0.1762	-0.0221	0.0377	0.0859	0.1583	0.139	0.1736	0.2122	-0.1235	-0.1146	-0.0925	-0.0407	0.0459	-0.0441	-0.1197	-0.0828	-0.0916	-0.1718	-0.2066	-0.0926	-0.0756	0.0648	-0.1214	0.0004	0.0137	0.0252
-89.8438	-0.0118	-0.0652	-0.03	-0.0079	-0.11	0.0096	0.0673	0.0963	0.1756	0.1728	0.1822	0.2487	-0.0547	-0.0283	-0.0349	0.0343	0.1319	0.0049	-0.0371	-0.0058	-0.0075	-0.1067	-0.1357	-0.0202	-0.032	0.11	-0.0765	0.039	-0.0019	0.0451
-85.9375	0.0024	-0.0242	-0.0412	0.0425	-0.0577	0.0278	0.0769	0.0875	0.1708	0.1871	0.1721	0.2661	0.0012	0.0457	0.0204	0.0993	0.2168	0.0631	0.0449	0.0641	0.0702	-0.0352	-0.0568	0.0499	0.0127	0.1437	-0.0353	0.0711	-0.0261	0.0625
-82.0312	0.0139	0.0075	-0.0565	0.0776	-0.0201	0.0331	0.0665	0.0605	0.1446	0.1807	0.1452	0.2619	0.0394	0.1024	0.0712	0.152	0.2962	0.1246	0.1257	0.1247	0.1381	0.0386	0.0247	0.1113	0.0558	0.1634	-0.0022	0.0944	-0.0588	0.0749
-78.125	0.0237	0.0312	-0.0727	0.0984	0.0054	0.0291	0.0399	0.0201	0.1018	0.1562	0.1057	0.2366	0.0597	0.1403	0.1157	0.1921	0.3656	0.1833	0.2038	0.1755	0.195	0.11	0.1031	0.1594	0.0945	0.1692	0.0207	0.1089	-0.0972	0.0808
-74.2188	0.0323	0.0498	-0.086	0.1087	0.0239	0.0215	0.0042	-0.0265	0.0504	0.1195	0.0601	0.194	0.0673	0.1615	0.1524	0.2212	0.4212	0.2342	0.277	0.2179	0.2414	0.1744	0.1738	0.192	0.1268	0.1639	0.0341	0.1159	-0.1362	0.0803
-70.3125	0.0395	0.0673	-0.0933	0.1138	0.0419	0.0161	-0.032	-0.0715	-0.0007	0.0787	0.0156	0.1402	0.0704	0.1713	0.1802	0.2422	0.4608	0.2743	0.3428	0.2547	0.2797	0.2289	0.2337	0.2102	0.1515	0.1525	0.0411	0.1184	-0.1701	0.0747
-66.4062	0.0451	0.088	-0.0924	0.1202	0.0663	0.0184	-0.0594	-0.1079	-0.0431	0.0425	-0.0214	0.0835	0.0792	0.1768	0.199	0.2597	0.4845	0.3035	0.3985	0.2894	0.3137	0.2728	0.2825	0.2175	0.1688	0.1408	0.0461	0.1199	-0.1943	0.0662
-62.5	0.0489	0.1158	-0.083	0.1336	0.103	0.0316	-0.0708	-0.1307	-0.0711	0.0182	-0.046	0.032	0.1027	0.1861	0.2093	0.2785	0.4947	0.3234	0.4426	0.3264	0.3481	0.3079	0.3218	0.2198	0.1804	0.1348	0.054	0.1238	-0.2063	0.0572
-58.5938	0.0519	0.1535	-0.0663	0.1585	0.1555	0.0569	-0.0612	-0.1378	-0.0819	0.0105	-0.0558	-0.0067	0.1467	0.2062	0.2128	0.3039	0.4958	0.3364	0.4747	0.3692	0.3875	0.3379	0.3552	0.2233	0.1891	0.1391	0.069	0.1332	-0.2066	0.0498
-54.6875	0.0554	0.2029	-0.0444	0.1971	0.2246	0.0935	-0.0295	-0.1298	-0.076	0.0208	-0.0511	-0.0276	0.2128	0.2417	0.2115	0.34	0.4933	0.3451	0.4958	0.4205	0.435	0.3677	0.3868	0.2338	0.198	0.1563	0.0941	0.15	-0.1983	0.0451
-50.7812	0.0618	0.2636	-0.0207	0.2492	0.3078	0.1385	0.0222	-0.1094	-0.0565	0.0471	-0.0338	-0.028	0.2977	0.2944	0.2078	0.3891	0.4924	0.3509	0.5087	0.4812	0.4918	0.4017	0.4205	0.2551	0.2102	0.1867	0.1305	0.1747	-0.1861	0.0435
-46.875	0.0733	0.3337	0.002	0.3118	0.3998	0.1881	0.0884	-0.0806	-0.0277	0.0849	-0.007	-0.0083	0.3947	0.3622	0.2045	0.4511	0.4977	0.3546	0.5168	0.5497	0.5565	0.4423	0.4586	0.2886	0.2279	0.2287	0.1779	0.2063	-0.1751	0.0444
-42.9688	0.092	0.4097	0.0216	0.3801	0.4936	0.2381	0.1617	-0.048	0.0055	0.1283	0.026	0.0289	0.4941	0.4406	0.2044	0.523	0.5115	0.3563	0.5239	0.6225	0.6247	0.4896	0.5018	0.3328	0.2518	0.2791	0.2349	0.2422	-0.1694	0.0467
-39.0625	0.119	0.487	0.0372	0.4482	0.5813	0.2846	0.2336	-0.0161	0.0388	0.1712	0.062	0.0789	0.5859	0.5226	0.2099	0.5991	0.5343	0.356	0.533	0.6939	0.6905	0.5407	0.5484	0.3838	0.2812	0.3335	0.2994	0.2787	-0.1714	0.0489
-35.1562	0.1541	0.5608	0.0499	0.5101	0.6559	0.3246	0.2958	0.0111	0.0689	0.208	0.0983	0.1359	0.6608	0.6002	0.2227	0.6727	0.5646	0.3545	0.5463	0.7578	0.7471	0.5903	0.5948	0.436	0.3135	0.3875	0.3689	0.3111	-0.1812	0.0497
-31.25	0.1952	0.6271	0.0621	0.5617	0.7123	0.3566	0.3417	0.0307	0.0933	0.2342	0.1329	0.1936	0.7119	0.666	0.2432	0.7368	0.5997	0.3528	0.5644	0.8083	0.7884	0.632	0.6361	0.4829	0.345	0.4367	0.4406	0.335	-0.1971	0.0483
-27.3438	0.2391	0.6834	0.0768	0.6011	0.7484	0.3808	0.3674	0.0414	0.1109	0.2474	0.1639	0.2464	0.7358	0.7145	0.2702	0.7863	0.6365	0.3528	0.5869	0.8419	0.8109	0.6599	0.6674	0.5186	0.3717	0.4778	0.5119	0.347	-0.2157	0.0444
-23.4375	0.2815	0.7292	0.0967	0.6296	0.766	0.3993	0.3727	0.0432	0.1216	0.2472	0.1904	0.2902	0.7329	0.7431	0.3009	0.8193	0.6726	0.3562	0.613	0.8583	0.8145	0.67	0.6847	0.5389	0.3898	0.5086	0.5805	0.3452	-0.2335	0.0384
-19.5312	0.3177	0.7663	0.1231	0.6508	0.77	0.4158	0.361	0.0386	0.1264	0.2359	0.2123	0.323	0.7076	0.7532	0.3315	0.8376	0.707	0.3646	0.6426	0.8612	0.8031	0.6617	0.6861	0.5421	0.3973	0.5285	0.6446	0.3303	-0.2472	0.0311
-15.625	0.344	0.7973	0.1553	0.6698	0.7678	0.4345	0.3391	0.0314	0.1273	0.2179	0.2305	0.345	0.6675	0.7496	0.3582	0.8463	0.7395	0.3788	0.6758	0.8573	0.7831	0.638	0.6726	0.5295	0.3936	0.5384	0.7035	0.3048	-0.255	0.0237
-11.7188	0.3582	0.8255	0.191	0.6913	0.7669	0.4587	0.3153	0.0265	0.1271	0.1992	0.2467	0.3583	0.6214	0.7397	0.3779	0.8524	0.7709	0.3989	0.7139	0.8547	0.7628	0.6052	0.6472	0.5049	0.3804	0.5406	0.7571	0.2731	-0.2567	0.0172
-7.8125	0.3604	0.8529	0.2262	0.7178	0.7731	0.4901	0.2981	0.0283	0.1291	0.1863	0.2632	0.3668	0.5783	0.7319	0.3891	0.8622	0.8015	0.4242	0.7582	0.8605	0.7493	0.5712	0.6152	0.4743	0.361	0.538	0.8057	0.2404	-0.2536	0.0123
-3.9062	0.3527	0.8802	0.257	0.7491	0.7886	0.5278	0.2939	0.0404	0.1364	0.1846	0.2821	0.3745	0.5453	0.7331	0.3919	0.8801	0.8306	0.4528	0.8094	0.8788	0.7474	0.5442	0.5825	0.4443	0.3399	0.5337	0.8502	0.2121	-0.2483	0.0095
0	0.3395	0.9064	0.2801	0.7821	0.8119	0.5682	0.3054	0.0635	0.1512	0.1975	0.3053	0.3853	0.5265	0.7473	0.3878	0.9067	0.856	0.482	0.8668	0.9098	0.7577	0.5305	0.5542	0.4208	0.3215	0.5306	0.8911	0.193	-0.2434	0.0084
3.9062	0.3258	0.9293	0.2941	0.812	0.8386	0.6063	0.3314	0.096	0.1742	0.2252	0.3331	0.4016	0.5224	0.7741	0.3789	0.9389	0.8743	0.5086	0.9285	0.9493	0.7774	0.5334	0.5342	0.4077	0.3096	0.5307	0.9286	0.1868	-0.241	0.0083
7.8125	0.3165	0.947	0.3003	0.8342	0.863	0.6371	0.3665	0.1333	0.2042	0.2641	0.3646	0.4237	0.5302	0.8093	0.3674	0.9715	0.882	0.5291	0.9911	0.9907	0.8012	0.5527	0.5245	0.4065	0.3063	0.5348	0.9619	0.1955	-0.2422	0.0087
11.7188	0.3156	0.9594	0.3023	0.8474	0.8813	0.6582	0.403	0.1696	0.2378	0.3082	0.3967	0.4495	0.5449	0.8461	0.355	0.9994	0.8775	0.5408	1.0515	1.0273	0.8239	0.5858	0.5254	0.4162	0.312	0.5425	0.9901	0.2196	-0.2464	0.0088
15.625	0.3253	0.9696	0.3064	0.8547	0.894	0.6714	0.4334	0.1986	0.2705	0.3498	0.4256	0.475	0.5618	0.8782	0.343	1.0204	0.8624	0.543	1.1081	1.0557	0.8433	0.6291	0.5366	0.4341	0.3255	0.553	1.012	0.258	-0.2523	0.0084
19.5312	0.3462	0.9848	0.3196	0.8652	0.9074	0.6838	0.4534	0.2162	0.2974	0.3825	0.4473	0.4956	0.5789	0.9023	0.3332	1.0376	0.8434	0.5378	1.163	1.0782	0.8623	0.6802	0.558	0.4574	0.3451	0.5654	1.0273	0.3082	-0.2577	0.008
23.4375	0.3777	1.0157	0.3484	0.893	0.9335	0.7075	0.4634	0.2211	0.3154	0.4028	0.4589	0.5073	0.5984	0.9206	0.3284	1.0601	0.8322	0.5311	1.222	1.1035	0.89	0.7399	0.5915	0.4847	0.3693	0.5799	1.0376	0.3666	-0.261	0.0087
27.3438	0.4177	1.0742	0.3968	0.9537	0.9876	0.7563	0.4697	0.2158	0.3233	0.4116	0.46	0.5077	0.6274	0.9405	0.332	1.1016	0.8438	0.5316	1.2944	1.1453	0.9395	0.812	0.6399	0.5165	0.3967	0.5976	1.0463	0.4291	-0.2612	0.0118
31.25	0.4627	1.1696	0.4644	1.0599	1.0833	0.8421	0.4823	0.2056	0.3232	0.4134	0.4525	0.4969	0.6751	0.9731	0.3473	1.1762	0.8926	0.5496	1.3898	1.2185	1.0244	0.9019	0.7069	0.5544	0.4263	0.6201	1.0573	0.4908	-0.2592	0.0184
35.1562	0.5079	1.3053	0.5455	1.2163	1.2273	0.9696	0.5117	0.1974	0.3191	0.4151	0.4408	0.4769	0.75	1.0283	0.376	1.2941	0.9889	0.5938	1.5154	1.3333	1.1533	1.0139	0.794	0.6	0.456	0.6485	1.0738	0.5462	-0.2572	0.0285
39.0625	0.5469	1.4755	0.6294	1.4154	1.4152	1.1332	0.5652	0.197	0.3164	0.4236	0.4299	0.4514	0.8565	1.1115	0.4171	1.4573	1.1343	0.6688	1.6724	1.4911	1.3251	1.1476	0.8987	0.6529	0.4824	0.6819	1.0969	0.5898	-0.259	0.0408
42.9688	0.5732	1.6652	0.702	1.638	1.6297	1.3155	0.6438	0.2075	0.3201	0.4434	0.425	0.425	0.9922	1.2196	0.4667	1.6565	1.3205	0.773	1.854	1.6819	1.5276	1.2963	1.0132	0.7099	0.5006	0.7174	1.1246	0.6167	-0.269	0.0524
46.875	0.5807	1.852	0.7484	1.8545	1.8427	1.4899	0.7411	0.2284	0.3336	0.475	0.4295	0.4023	1.1476	1.3413	0.5184	1.8723	1.5298	0.8976	2.0457	1.8848	1.7378	1.4474	1.1248	0.7651	0.5053	0.75	1.1526	0.6238	-0.2911	0.0594
50.7812	0.566	2.0098	0.7561	2.031	2.02	1.6249	0.8437	0.2547	0.3573	0.515	0.4446	0.387	1.3075	1.4584	0.5644	2.0776	1.737	1.0278	2.226	2.0716	1.9264	1.5835	1.218	0.811	0.4925	0.7747	1.1754	0.6109	-0.3274	0.0579
54.6875	0.5292	2.1136	0.717	2.1356	2.1279	1.6907	0.9339	0.2783	0.3883	0.5559	0.4685	0.3816	1.4533	1.55	0.598	2.242	1.9136	1.1448	2.3694	2.2116	2.063	1.6859	1.2774	0.8407	0.4616	0.7873	1.1881	0.5804	-0.3774	0.0452
58.5938	0.4745	2.1436	0.6292	2.1439	2.1402	1.6649	0.9936	0.2892	0.4206	0.5881	0.4967	0.3864	1.566	1.5961	0.6144	2.3371	2.0322	1.2293	2.4502	2.2777	2.1221	1.7379	1.2913	0.8487	0.4154	0.7859	1.1874	0.5376	-0.437	0.0206
62.5	0.409	2.0887	0.4971	2.044	2.0434	1.5372	1.0071	0.2778	0.4458	0.6013	0.5228	0.3998	1.6286	1.582	0.6114	2.3413	2.0704	1.2647	2.4461	2.2508	2.0872	1.7281	1.2537	0.8324	0.361	0.7713	1.172	0.489	-0.4991	-0.0143
66.4062	0.3415	1.9479	0.3303	1.8376	1.8383	1.3111	0.9647	0.2372	0.455	0.5863	0.5388	0.4174	1.6283	1.5003	0.5899	2.2434	2.015	1.2404	2.3426	2.1231	1.9535	1.652	1.1657	0.7919	0.3073	0.7459	1.1421	0.4411	-0.5548	-0.0556
70.3125	0.2796	1.7305	0.1422	1.5401	1.5403	1.0042	0.8636	0.1642	0.4402	0.5368	0.5373	0.4332	1.5583	1.3518	0.552	2.0451	1.8643	1.1538	2.1363	1.8996	1.7284	1.5127	1.0345	0.7294	0.2632	0.713	1.0984	0.3984	-0.5955	-0.0983
74.2188	0.2287	1.4548	-0.0515	1.178	1.1766	0.6448	0.7088	0.0607	0.3966	0.4506	0.5122	0.4403	1.4191	1.145	0.501	1.7612	1.6296	1.0118	1.837	1.5979	1.4301	1.3208	0.8727	0.6486	0.235	0.6752	1.0413	0.3628	-0.6147	-0.1373
78.125	0.1903	1.1463	-0.2351	0.7854	0.782	0.2688	0.5124	-0.0659	0.3236	0.3305	0.4611	0.4322	1.2192	0.8958	0.44	1.4188	1.3343	0.8302	1.468	1.2456	1.0852	1.0928	0.6957	0.5538	0.2249	0.6335	0.9708	0.3332	-0.6096	-0.1682
82.0312	0.1633	0.8342	-0.3937	0.4004	0.3945	-0.0854	0.2926	-0.2038	0.2259	0.1848	0.3856	0.4044	0.9755	0.625	0.3722	1.0535	1.0112	0.6314	1.0636	0.878	0.7262	0.8495	0.5198	0.4501	0.2303	0.588	0.8876	0.3067	-0.5818	-0.1885
85.9375	0.1444	0.5489	-0.5153	0.0606	0.0512	-0.3821	0.0716	-0.3382	0.1128	0.0271	0.2924	0.3561	0.7121	0.3575	0.3007	0.706	0.6976	0.4407	0.6655	0.5332	0.388	0.6135	0.3606	0.3435	0.2454	0.5379	0.7936	0.2799	-0.5371	-0.1973
89.8438	0.1305	0.3185	-0.5915	-0.2011	-0.2161	-0.5926	-0.1269	-0.4536	-0.0026	-0.1258	0.1922	0.2913	0.4583	0.1198	0.2288	0.4156	0.4302	0.2827	0.3167	0.2483	0.1045	0.4074	0.2315	0.2415	0.2622	0.4833	0.694	0.2507	-0.4842	-0.196
93.75	0.1197	0.1654	-0.6189	-0.3596	-0.3835	-0.6987	-0.2804	-0.5361	-0.1058	-0.2553	0.0986	0.218	0.2449	-0.0626	0.1607	0.216	0.2397	0.1767	0.0556	0.0544	-0.0948	0.2512	0.1425	0.1527	0.2739	0.4262	0.5973	0.2197	-0.4333	-0.1872
97.6562	0.1119	0.1043	-0.5987	-0.4006	-0.4374	-0.6953	-0.3701	-0.5756	-0.1829	-0.3438	0.0255	0.1483	0.1003	-0.1681	0.1015	0.1299	0.147	0.1341	-0.0899	-0.0272	-0.1881	0.16	0.1	0.0872	0.2762	0.3709	0.5153	0.1906	-0.394	-0.174
101.5625	0.1091	0.1404	-0.537	-0.3216	-0.3752	-0.5888	-0.3839	-0.5665	-0.2227	-0.3776	-0.0146	0.0951	0.0459	-0.1818	0.0573	0.1667	0.1608	0.1573	-0.106	0.0128	-0.1642	0.1429	0.1065	0.0543	0.2681	0.3237	0.4609	0.1693	-0.3735	-0.1595
105.4688	0.1147	0.2693	-0.4428	-0.1317	-0.2049	-0.3959	-0.3175	-0.5088	-0.2183	-0.3492	-0.0131	0.0703	0.093	-0.098	0.0343	0.3215	0.2774	0.2404	0.0052	0.1707	-0.0233	0.2015	0.1602	0.0613	0.2518	0.2918	0.4459	0.1622	-0.3755	-0.146
109.375	0.1322	0.4778	-0.3268	0.1507	0.0568	-0.1391	-0.1749	-0.407	-0.1677	-0.2583	0.0335	0.0822	0.2408	0.0788	0.0381	0.5766	0.4826	0.3709	0.2273	0.4311	0.2229	0.3303	0.2554	0.1116	0.2315	0.2805	0.4779	0.1745	-0.3998	-0.1349
113.2812	0.1646	0.7462	-0.1993	0.5005	0.3874	0.1572	0.0323	-0.2691	-0.0739	-0.1119	0.1227	0.133	0.4766	0.3347	0.0723	0.9054	0.7539	0.5317	0.5323	0.77	0.5533	0.5172	0.3833	0.2034	0.2113	0.2927	0.5584	0.2077	-0.4428	-0.1268
117.1875	0.2133	1.0513	-0.0694	0.8896	0.7615	0.4703	0.2871	-0.1052	0.0556	0.0772	0.2468	0.2187	0.7781	0.6481	0.137	1.2768	1.0646	0.7034	0.8858	1.1582	0.9404	0.7456	0.5322	0.3299	0.1947	0.3274	0.6816	0.2602	-0.4986	-0.1218
121.0938	0.2773	1.3692	0.0561	1.2902	1.1538	0.7815	0.5694	0.0739	0.21	0.2924	0.3939	0.3298	1.117	0.9933	0.2281	1.6601	1.3873	0.8663	1.2521	1.566	1.3546	0.9967	0.6894	0.4804	0.1833	0.3795	0.8356	0.3263	-0.5603	-0.1197
125	0.3537	1.6779	0.1723	1.6776	1.5416	1.0771	0.8581	0.2574	0.3766	0.5153	0.5494	0.4526	1.4628	1.3436	0.3374	2.0286	1.6965	1.0029	1.5991	1.9662	1.7671	1.2514	0.8422	0.6418	0.1773	0.4419	1.0048	0.3984	-0.621	-0.1203
128.9062	0.4374	1.9594	0.276	2.0318	1.9059	1.3479	1.1336	0.4352	0.5423	0.7287	0.6988	0.5724	1.7875	1.6752	0.4538	2.3621	1.9713	1.0999	1.9023	2.3367	2.1531	1.4931	0.98	0.8012	0.176	0.5061	1.1726	0.4685	-0.675	-0.1234
132.8125	0.5226	2.2004	0.3653	2.3381	2.2316	1.588	1.3794	0.5983	0.6948	0.9176	0.8294	0.6764	2.0686	1.9687	0.565	2.6477	2.1968	1.1503	2.1468	2.6614	2.4941	1.7096	1.0954	0.9477	0.1788	0.5648	1.3251	0.5299	-0.718	-0.128
136.7188	0.6037	2.3929	0.4392	2.5877	2.5077	1.7939	1.5826	0.7389	0.824	1.0713	0.9321	0.7558	2.2914	2.2112	0.6604	2.8787	2.3652	1.1548	2.3273	2.9304	2.7778	1.8936	1.186	1.0742	0.1858	0.6135	1.4534	0.5787	-0.7474	-0.1324
140.625	0.6759	2.5335	0.4976	2.7762	2.7268	1.963	1.7352	0.8512	0.9229	1.1834	1.003	0.8072	2.4495	2.3963	0.7327	3.0535	2.4753	1.1219	2.4475	3.1391	2.9986	2.0433	1.2541	1.1775	0.1979	0.6508	1.5541	0.6142	-0.7621	-0.1342
144.5312	0.7364	2.6232	0.5413	2.9038	2.8845	2.0935	1.8338	0.9311	0.9876	1.2516	1.0423	0.832	2.544	2.523	0.7791	3.1733	2.5316	1.0668	2.5167	3.287	3.1561	2.1612	1.3059	1.258	0.2167	0.6782	1.6287	0.6387	-0.7625	-0.1307
148.4375	0.7845	2.6659	0.5721	2.9741	2.9799	2.1843	1.8793	0.9774	1.0181	1.2776	1.0543	0.8358	2.5815	2.595	0.8016	3.241	2.5426	1.0082	2.5476	3.3765	3.2535	2.2522	1.3499	1.3183	0.243	0.6988	1.6818	0.6557	-0.7503	-0.1195
152.3438	0.8216	2.6679	0.5923	2.9933	3.0154	2.236	1.8766	0.9913	1.0173	1.266	1.0454	0.8252	2.5717	2.6187	0.8057	3.2602	2.5183	0.9645	2.5527	3.412	3.2969	2.3219	1.3941	1.3613	0.2767	0.7157	1.718	0.6687	-0.7281	-0.0994
156.25	0.85	2.6364	0.6045	2.9694	2.997	2.2506	1.8336	0.9772	0.9908	1.2237	1.0225	0.8069	2.5254	2.6022	0.7993	3.2351	2.4689	0.9497	2.5425	3.3998	3.2939	2.3745	1.4441	1.3895	0.3153	0.7308	1.7407	0.68	-0.6996	-0.0712
160.1562	0.872	2.5785	0.6107	2.9116	2.9341	2.2322	1.7608	0.9422	0.9464	1.1591	0.9919	0.7856	2.453	2.5545	0.7902	3.1708	2.4028	0.9705	2.5239	3.3475	3.2528	2.4123	1.5017	1.4038	0.3548	0.7434	1.7505	0.6895	-0.6682	-0.0375
164.0625	0.8892	2.5007	0.6116	2.8285	2.8385	2.1864	1.67	0.8951	0.893	1.0814	0.9582	0.7636	2.3635	2.4843	0.7851	3.0739	2.3265	1.0248	2.4995	3.2641	3.1824	2.4347	1.5644	1.404	0.3898	0.7511	1.7456	0.6956	-0.6376	-0.0023
167.9688	0.9019	2.4081	0.6059	2.7276	2.7231	2.1197	1.5735	0.8459	0.8393	1.0001	0.9244	0.7414	2.2642	2.4	0.7877	2.9521	2.2444	1.1033	2.4687	3.159	3.0915	2.4399	1.6265	1.3893	0.4153	0.7507	1.7233	0.6954	-0.61	0.0298
171.875	0.9091	2.3048	0.5916	2.6149	2.6	2.0387	1.482	0.8038	0.7931	0.9237	0.8917	0.7183	2.1612	2.3091	0.799	2.8146	2.1594	1.1918	2.4289	3.0415	2.9884	2.4258	1.6806	1.3596	0.4277	0.7393	1.682	0.6859	-0.5868	0.0549
175.7812	0.9093	2.1938	0.5658	2.4947	2.4789	1.9494	1.4039	0.7762	0.7602	0.8591	0.8609	0.6937	2.0593	2.2181	0.8175	2.6708	2.074	1.2752	2.377	2.92	2.8807	2.3918	1.7206	1.3166	0.4265	0.7163	1.6222	0.6655	-0.5679	0.0708
179.6875	0.9014	2.078	0.5271	2.3699	2.366	1.8568	1.3442	0.7671	0.7436	0.8112	0.8323	0.6678	1.9627	2.1326	0.8396	2.5294	1.9912	1.341	2.3115	2.8014	2.7745	2.3402	1.7429	1.2643	0.4143	0.684	1.5485	0.6345	-0.5523	0.0772
183.5938	0.8855	1.9605	0.4759	2.2428	2.264	1.7648	1.3039	0.7768	0.7432	0.7819	0.8063	0.6422	1.8752	2.0571	0.861	2.3978	1.9136	1.3823	2.234	2.6901	2.6746	2.2758	1.7475	1.2087	0.3967	0.6473	1.4684	0.5956	-0.5379	0.0765
187.5	0.8634	1.8446	0.4161	2.1161	2.1725	1.6762	1.2812	0.8022	0.7565	0.7703	0.7838	0.6196	1.7997	1.9946	0.878	2.2808	1.844	1.3985	2.1489	2.5881	2.5834	2.2059	1.7383	1.157	0.3807	0.6133	1.3919	0.5533	-0.5226	0.0724
191.4062	0.8387	1.7339	0.3543	1.9929	2.0898	1.5937	1.2715	0.8375	0.7786	0.7735	0.7655	0.6028	1.7379	1.9468	0.8877	2.1804	1.7838	1.3948	2.0637	2.495	2.502	2.138	1.7218	1.1158	0.3733	0.5897	1.3288	0.5132	-0.5039	0.0694
195.3125	0.8163	1.6317	0.2991	1.8773	2.0137	1.5196	1.2697	0.8761	0.8038	0.7866	0.752	0.5942	1.6903	1.9137	0.8892	2.0958	1.7327	1.3801	1.9866	2.4089	2.4294	2.0794	1.7054	1.09	0.3801	0.5827	1.2869	0.4804	-0.4796	0.0716
199.2188	0.8008	1.5403	0.2588	1.7737	1.9432	1.4565	1.2707	0.9119	0.8264	0.8044	0.743	0.5945	1.6556	1.894	0.8834	2.0239	1.6885	1.3645	1.925	2.3269	2.3639	2.035	1.6961	1.0819	0.4042	0.5961	1.2702	0.4589	-0.4477	0.0824
203.125	0.7956	1.4609	0.2396	1.6862	1.8783	1.407	1.2709	0.9407	0.8421	0.8221	0.738	0.6032	1.6312	1.8849	0.8724	1.96	1.6478	1.3568	1.8835	2.2467	2.3032	2.0076	1.6992	1.091	0.4461	0.6306	1.2787	0.4506	-0.4064	0.1038
207.0312	0.8014	1.3932	0.2438	1.617	1.8197	1.3727	1.268	0.9611	0.8491	0.8361	0.7356	0.618	1.6135	1.8829	0.8588	1.8993	1.6065	1.3626	1.8619	2.1668	2.2451	1.9971	1.717	1.1142	0.5037	0.6832	1.3084	0.4551	-0.3545	0.1362
210.9375	0.8157	1.3351	0.2689	1.5655	1.768	1.3532	1.261	0.9738	0.8475	0.8437	0.7341	0.6354	1.5981	1.8833	0.8443	1.837	1.5608	1.3829	1.8549	2.0867	2.1871	2.0007	1.7485	1.1465	0.5732	0.7481	1.3522	0.4698	-0.2919	0.1789
214.8438	0.8325	1.2826	0.3079	1.5274	1.7213	1.3451	1.2483	0.9806	0.8387	0.8431	0.7311	0.6506	1.5794	1.88	0.8291	1.769	1.5072	1.4144	1.8525	2.0061	2.1263	2.0128	1.7889	1.1811	0.6491	0.8168	1.4004	0.4897	-0.2198	0.2291
218.75	0.8439	1.2307	0.3511	1.4945	1.6754	1.3416	1.2274	0.9829	0.8244	0.832	0.7229	0.6582	1.5508	1.8658	0.8112	1.6917	1.4428	1.4495	1.841	1.9239	2.0588	2.025	1.8301	1.2098	0.7248	0.8797	1.442	0.5079	-0.1414	0.2829
222.6562	0.8413	1.1736	0.3876	1.4559	1.6234	1.3332	1.194	0.9809	0.8052	0.8075	0.7052	0.6525	1.5047	1.8323	0.7862	1.6019	1.3648	1.4781	1.8062	1.8376	1.9793	2.0268	1.8614	1.2238	0.7926	0.9267	1.4655	0.516	-0.0613	0.3347
226.5625	0.8177	1.1058	0.4086	1.4002	1.5572	1.3096	1.1426	0.9729	0.7801	0.7662	0.6733	0.6282	1.4331	1.7709	0.7488	1.4972	1.2705	1.4898	1.7352	1.7429	1.882	2.0067	1.8714	1.2138	0.8451	0.9493	1.4609	0.5054	0.015	0.3786
230.4688	0.7696	1.023	0.4082	1.3178	1.4691	1.2617	1.0677	0.956	0.7469	0.705	0.6231	0.5814	1.3289	1.6742	0.6937	1.3753	1.1574	1.4751	1.6197	1.6346	1.761	1.9537	1.8493	1.1719	0.8754	0.9411	1.4203	0.4692	0.0819	0.4083
234.375	0.6981	0.9228	0.3846	1.2024	1.3543	1.1832	0.9658	0.9268	0.7032	0.6221	0.5529	0.5105	1.1869	1.537	0.6172	1.2352	1.0236	1.4278	1.4572	1.5071	1.6118	1.8592	1.7877	1.0926	0.8785	0.8997	1.3395	0.4034	0.1348	0.4188
238.2812	0.6082	0.8046	0.3394	1.0531	1.2116	1.0723	0.8367	0.883	0.6474	0.5181	0.4635	0.4172	1.0059	1.3584	0.5184	1.0771	0.8678	1.3456	1.2518	1.3567	1.4329	1.7193	1.6835	0.974	0.8518	0.8262	1.2185	0.3086	0.1711	0.4071
242.1875	0.5084	0.6706	0.2769	0.8739	1.0446	0.9321	0.6846	0.8243	0.5799	0.3968	0.3593	0.3068	0.7895	1.1427	0.3995	0.9029	0.6911	1.2309	1.0133	1.1823	1.2265	1.5358	1.5392	0.8196	0.7966	0.7262	1.0621	0.1905	0.1907	0.3731
246.0938	0.4083	0.5249	0.2029	0.6739	0.8608	0.7699	0.5185	0.7528	0.5036	0.2658	0.2479	0.188	0.547	0.9	0.2659	0.717	0.4967	1.0901	0.756	0.9871	0.9998	1.3171	1.3631	0.6381	0.7176	0.6088	0.8797	0.0595	0.1958	0.3201
250	0.3171	0.374	0.1236	0.4652	0.6711	0.596	0.351	0.6733	0.4241	0.1351	0.1388	0.0722	0.2927	0.6462	0.1252	0.5266	0.2914	0.9329	0.4969	0.7786	0.7647	1.0783	1.1683	0.4436	0.6232	0.4859	0.6847	-0.0705	0.1907	0.2543
253.9062	0.2417	0.2261	0.0454	0.2619	0.4877	0.4228	0.1967	0.5928	0.3488	0.0167	0.0424	-0.0287	0.0446	0.4008	-0.013	0.3408	0.0847	0.7714	0.2531	0.5686	0.5362	0.8385	0.9712	0.2532	0.524	0.3702	0.4929	-0.1849	0.18	0.184
257.8125	0.1865	0.09	-0.0256	0.0775	0.3223	0.2625	0.0693	0.5191	0.2851	-0.0782	-0.0325	-0.1039	-0.1785	0.1842	-0.1393	0.17	-0.1117	0.6181	0.0403	0.3711	0.3304	0.6188	0.7893	0.0851	0.4314	0.274	0.3199	-0.2711	0.1681	0.1181
261.7188	0.1522	-0.0256	-0.0842	-0.0765	0.1845	0.1254	-0.021	0.4593	0.2393	-0.1412	-0.0795	-0.146	-0.3602	0.0143	-0.2448	0.0243	-0.2855	0.4844	-0.1299	0.1999	0.1611	0.4379	0.6383	-0.0448	0.356	0.2066	0.1788	-0.3206	0.1579	0.0644
265.625	0.1368	-0.1141	-0.1265	-0.193	0.0798	0.0191	-0.0692	0.4188	0.2146	-0.1684	-0.0969	-0.1526	-0.4889	-0.0972	-0.3232	-0.0888	-0.4266	0.3783	-0.2515	0.0662	0.0373	0.3088	0.5292	-0.1261	0.3055	0.1732	0.078	-0.3308	0.151	0.0287
269.5312	0.1356	-0.1723	-0.1506	-0.2697	0.0092	-0.0532	-0.0773	0.3995	0.2107	-0.1615	-0.0871	-0.1265	-0.5606	-0.1473	-0.3716	-0.1659	-0.5286	0.3038	-0.3256	-0.0244	-0.0389	0.2358	0.4667	-0.1554	0.2835	0.1734	0.0196	-0.3051	0.1482	0.014
273.4375	0.1424	-0.2013	-0.1568	-0.3094	-0.0312	-0.0922	-0.0529	0.3999	0.2232	-0.1275	-0.0569	-0.0755	-0.5787	-0.1424	-0.3909	-0.2089	-0.5907	0.2602	-0.36	-0.0733	-0.0733	0.2135	0.4478	-0.1379	0.2885	0.202	-0.0003	-0.2518	0.1503	0.0201
277.3438	0.151	-0.207	-0.1478	-0.3197	-0.0489	-0.1027	-0.0085	0.4154	0.2455	-0.0771	-0.0156	-0.0105	-0.5529	-0.0967	-0.3857	-0.2249	-0.618	0.2426	-0.3681	-0.0891	-0.0777	0.2282	0.4624	-0.0854	0.3147	0.2492	0.0092	-0.1822	0.1588	0.044
281.25	0.156	-0.1984	-0.1279	-0.3108	-0.0532	-0.0919	0.0425	0.4397	0.2703	-0.0226	0.0271	0.0565	-0.4975	-0.0295	-0.3632	-0.2243	-0.6205	0.2428	-0.3662	-0.0852	-0.0675	0.2604	0.4956	-0.0147	0.353	0.3036	0.0359	-0.108	0.1763	0.0812
285.1562	0.1542	-0.1857	-0.102	-0.2936	-0.0529	-0.0677	0.0877	0.4665	0.2916	0.0255	0.063	0.1155	-0.4274	0.0396	-0.332	-0.2193	-0.6108	0.2515	-0.3697	-0.077	-0.0584	0.2898	0.5303	0.0566	0.3932	0.354	0.0672	-0.0391	0.2055	0.1262
289.0625	0.145	-0.1785	-0.0742	-0.2774	-0.054	-0.0378	0.119	0.4909	0.3063	0.0605	0.0878	0.16	-0.3564	0.0942	-0.3002	-0.2207	-0.6019	0.2594	-0.3897	-0.0782	-0.0624	0.299	0.5507	0.1132	0.4259	0.3918	0.0925	0.0182	0.2487	0.1734
292.9688	0.1302	-0.1834	-0.0475	-0.2686	-0.0598	-0.0081	0.133	0.5103	0.3142	0.0798	0.1005	0.1878	-0.2953	0.1235	-0.2743	-0.2362	-0.6043	0.2591	-0.431	-0.0982	-0.0862	0.2773	0.5456	0.1444	0.4443	0.4126	0.1043	0.0613	0.3062	0.2181
296.875	0.1133	-0.2035	-0.0237	-0.2704	-0.07	0.017	0.1309	0.5241	0.3176	0.0853	0.1035	0.2005	-0.2513	0.1237	-0.2582	-0.2696	-0.6244	0.2459	-0.4917	-0.1408	-0.1309	0.222	0.5094	0.1453	0.4451	0.4158	0.099	0.0909	0.3756	0.256
300.7812	0.0986	-0.2383	-0.0037	-0.2834	-0.0826	0.0344	0.1168	0.5332	0.3195	0.0809	0.1009	0.202	-0.2285	0.097	-0.2529	-0.3204	-0.6644	0.2176	-0.565	-0.2045	-0.1924	0.1379	0.4433	0.1168	0.4282	0.4041	0.0766	0.1096	0.4513	0.2841
304.6875	0.0898	-0.2849	0.0118	-0.306	-0.0951	0.0419	0.096	0.5391	0.3226	0.0712	0.0966	0.1965	-0.2287	0.0493	-0.2573	-0.3853	-0.7221	0.1743	-0.6412	-0.2833	-0.2637	0.0357	0.3534	0.0639	0.3959	0.3819	0.0397	0.1206	0.5256	0.3
308.5938	0.0898	-0.3386	0.0217	-0.3358	-0.1055	0.0381	0.0728	0.5431	0.3282	0.0594	0.0935	0.1877	-0.252	-0.0114	-0.2681	-0.4586	-0.7921	0.1182	-0.7105	-0.3695	-0.337	-0.0716	0.2497	-0.0053	0.3525	0.3539	-0.0075	0.1264	0.5897	0.3023
312.5	0.1001	-0.3941	0.0247	-0.3703	-0.1134	0.0225	0.0499	0.5457	0.3359	0.0467	0.0925	0.1775	-0.2974	-0.0771	-0.2815	-0.534	-0.8673	0.0526	-0.7652	-0.4544	-0.4051	-0.1709	0.1431	-0.0819	0.3026	0.3238	-0.0607	0.1285	0.6354	0.2909
316.4062	0.1204	-0.4466	0.0198	-0.4071	-0.1199	-0.0049	0.0279	0.5469	0.3443	0.0323	0.093	0.1665	-0.3625	-0.1421	-0.2933	-0.606	-0.9404	-0.0185	-0.8009	-0.5312	-0.4632	-0.2527	0.0438	-0.1575	0.2507	0.2941	-0.1159	0.127	0.6568	0.2667
320.3125	0.1489	-0.492	0.0064	-0.4444	-0.127	-0.0424	0.0055	0.5464	0.3512	0.0142	0.093	0.1539	-0.4444	-0.2029	-0.2999	-0.6702	-1.0055	-0.0909	-0.8176	-0.5954	-0.5089	-0.3119	-0.0412	-0.2261	0.2001	0.2651	-0.1706	0.1209	0.6521	0.2317
324.2188	0.1825	-0.5277	-0.0145	-0.4805	-0.1373	-0.0874	-0.0199	0.5441	0.3545	-0.0101	0.0903	0.138	-0.5393	-0.2591	-0.2997	-0.7247	-1.059	-0.1614	-0.8189	-0.6454	-0.543	-0.3495	-0.1091	-0.2846	0.1525	0.2361	-0.224	0.1087	0.6234	0.1891
328.125	0.2169	-0.5525	-0.0406	-0.5142	-0.1524	-0.1364	-0.0504	0.54	0.353	-0.0419	0.0832	0.1176	-0.6424	-0.3123	-0.2926	-0.7695	-1.1002	-0.2277	-0.8116	-0.683	-0.5686	-0.3713	-0.1609	-0.3333	0.1079	0.2055	-0.2764	0.0882	0.577	0.1423
332.0312	0.2478	-0.5666	-0.0685	-0.5442	-0.1731	-0.1851	-0.0875	0.5349	0.3467	-0.0809	0.0712	0.0921	-0.7485	-0.365	-0.281	-0.8061	-1.131	-0.2892	-0.8038	-0.7119	-0.5904	-0.3859	-0.2013	-0.3747	0.0654	0.1717	-0.3286	0.0576	0.5215	0.0947
335.9375	0.271	-0.5715	-0.0941	-0.5698	-0.1983	-0.2292	-0.1305	0.53	0.3367	-0.1243	0.0557	0.0624	-0.8513	-0.4194	-0.2686	-0.8366	-1.1547	-0.3465	-0.8036	-0.7368	-0.6131	-0.4029	-0.2364	-0.4128	0.0237	0.1346	-0.3803	0.0161	0.4667	0.0494
339.8438	0.2838	-0.5695	-0.1136	-0.5906	-0.226	-0.2653	-0.1762	0.5269	0.3253	-0.1671	0.0397	0.0313	-0.9442	-0.4752	-0.2601	-0.8629	-1.1755	-0.4008	-0.8164	-0.7618	-0.6405	-0.4294	-0.2716	-0.4505	-0.0178	0.0956	-0.4294	-0.0351	0.4215	0.0092
343.75	0.2852	-0.5632	-0.1245	-0.6064	-0.253	-0.291	-0.2191	0.527	0.316	-0.2024	0.0284	0.0036	-1.0195	-0.5298	-0.2595	-0.8855	-1.1967	-0.4534	-0.8442	-0.7892	-0.6738	-0.4685	-0.3106	-0.4885	-0.0584	0.0584	-0.4713	-0.0927	0.3923	-0.024
347.6562	0.2765	-0.5553	-0.1262	-0.6173	-0.2763	-0.3056	-0.2522	0.5322	0.3127	-0.2221	0.0279	-0.0146	-1.0695	-0.5772	-0.2686	-0.9038	-1.2197	-0.5045	-0.8844	-0.8187	-0.7114	-0.5182	-0.3535	-0.5242	-0.0951	0.0283	-0.4988	-0.1503	0.3821	-0.0486
351.5625	0.2614	-0.5477	-0.1196	-0.6239	-0.2932	-0.3096	-0.268	0.5437	0.3192	-0.2191	0.0442	-0.0163	-1.0872	-0.6096	-0.2861	-0.9154	-1.2437	-0.5526	-0.9299	-0.8473	-0.7486	-0.5723	-0.3973	-0.5517	-0.1237	0.0115	-0.5037	-0.1991	0.3905	-0.0631
355.4688	0.2451	-0.5415	-0.1074	-0.6264	-0.302	-0.305	-0.261	0.5623	0.3386	-0.1883	0.0819	0.0041	-1.0678	-0.6191	-0.3073	-0.9176	-1.2653	-0.5948	-0.9707	-0.8702	-0.779	-0.6219	-0.4371	-0.5639	-0.139	0.0133	-0.4786	-0.2295	0.4141	-0.067
359.375	0.2333	-0.5363	-0.0933	-0.6251	-0.3018	-0.2948	-0.2286	0.5875	0.3718	-0.1289	0.1423	0.0494	-1.0103	-0.6001	-0.3256	-0.9076	-1.279	-0.6272	-0.996	-0.8814	-0.7957	-0.6584	-0.4672	-0.5541	-0.1364	0.0364	-0.4192	-0.2329	0.4465	-0.0604
363.2812	0.2303	-0.5307	-0.0808	-0.62	-0.2932	-0.282	-0.173	0.6174	0.4173	-0.0453	0.2218	0.1182	-0.9191	-0.5515	-0.334	-0.8834	-1.2785	-0.6463	-0.9965	-0.8758	-0.7934	-0.6754	-0.4837	-0.5189	-0.1142	0.0802	-0.3269	-0.2046	0.4799	-0.0449
367.1875	0.2388	-0.5224	-0.0729	-0.6102	-0.2772	-0.2698	-0.101	0.6488	0.4704	0.053	0.3123	0.2037	-0.8041	-0.4773	-0.3269	-0.8444	-1.2576	-0.65	-0.9671	-0.8502	-0.7693	-0.6701	-0.4849	-0.4599	-0.0737	0.1396	-0.2094	-0.1453	0.5055	-0.0239
371.0938	0.259	-0.5082	-0.071	-0.5946	-0.255	-0.2601	-0.0229	0.6775	0.5241	0.1528	0.4018	0.2948	-0.6797	-0.3864	-0.3022	-0.7915	-1.2117	-0.639	-0.9082	-0.8036	-0.7241	-0.6438	-0.4719	-0.3837	-0.0204	0.2061	-0.08	-0.0623	0.5153	-0.0023
375	0.2888	-0.4855	-0.0744	-0.5716	-0.2278	-0.2533	0.0496	0.6993	0.5703	0.2399	0.4769	0.3781	-0.5621	-0.2907	-0.2611	-0.7268	-1.1399	-0.6164	-0.8261	-0.7382	-0.6612	-0.6011	-0.4478	-0.3008	0.0375	0.2689	0.0445	0.0324	0.5032	0.0144
378.9062	0.3248	-0.4527	-0.081	-0.5398	-0.1967	-0.2484	0.1061	0.7109	0.6012	0.3016	0.5258	0.4405	-0.4664	-0.2026	-0.2086	-0.6534	-1.0452	-0.5877	-0.7323	-0.6586	-0.5863	-0.5487	-0.4169	-0.2232	0.0906	0.318	0.1478	0.1238	0.4668	0.0212
382.8125	0.3624	-0.4102	-0.0872	-0.4994	-0.1631	-0.2432	0.1401	0.7108	0.6118	0.33	0.5407	0.4722	-0.4033	-0.1328	-0.1524	-0.5757	-0.9361	-0.559	-0.6422	-0.5721	-0.5063	-0.4939	-0.3839	-0.162	0.1304	0.3454	0.217	0.1978	0.4091	0.0152
386.7188	0.3965	-0.3615	-0.0898	-0.4522	-0.1293	-0.2354	0.1496	0.6995	0.6004	0.323	0.52	0.4688	-0.3775	-0.088	-0.1018	-0.4996	-0.8253	-0.5365	-0.572	-0.4881	-0.4287	-0.444	-0.3531	-0.1249	0.1504	0.3473	0.2458	0.2435	0.338	-0.0035
390.625	0.4225	-0.3126	-0.0862	-0.4022	-0.0987	-0.2233	0.1379	0.6793	0.5696	0.2852	0.4684	0.4318	-0.3872	-0.0711	-0.0664	-0.4321	-0.7289	-0.525	-0.5363	-0.4167	-0.3611	-0.4052	-0.3284	-0.1154	0.1479	0.324	0.2349	0.2557	0.266	-0.0319
394.5312	0.4361	-0.2709	-0.0755	-0.355	-0.0752	-0.2063	0.1121	0.6542	0.5256	0.226	0.3956	0.369	-0.4254	-0.0804	-0.0541	-0.3803	-0.6629	-0.5271	-0.5445	-0.3677	-0.3102	-0.3823	-0.3132	-0.1323	0.1236	0.2798	0.1916	0.2356	0.2069	-0.0647
398.4375	0.4351	-0.2431	-0.058	-0.3163	-0.0627	-0.1851	0.0811	0.6287	0.4765	0.1582	0.3149	0.2917	-0.4817	-0.1113	-0.0695	-0.3506	-0.64	-0.5429	-0.5991	-0.3481	-0.2812	-0.3781	-0.3101	-0.1708	0.0813	0.222	0.1275	0.19	0.1733	-0.0955
402.3438	0.4191	-0.2336	-0.0351	-0.2905	-0.0639	-0.1615	0.0538	0.6071	0.4312	0.0945	0.24	0.2135	-0.5446	-0.1571	-0.1121	-0.3468	-0.6663	-0.5701	-0.6943	-0.3607	-0.2767	-0.3927	-0.3204	-0.2233	0.0273	0.1587	0.0557	0.1298	0.1734	-0.1185
406.25	0.3905	-0.2431	-0.0086	-0.2798	-0.0802	-0.1372	0.0364	0.5926	0.397	0.0453	0.1823	0.1468	-0.6042	-0.2107	-0.1769	-0.3688	-0.7391	-0.6043	-0.817	-0.4035	-0.2963	-0.4236	-0.3438	-0.2813	-0.0312	0.0978	-0.0117	0.0679	0.2085	-0.1297
410.1562	0.353	-0.2681	0.0199	-0.284	-0.1109	-0.1145	0.0312	0.5864	0.3784	0.0167	0.1491	0.1007	-0.6535	-0.266	-0.2548	-0.4127	-0.8472	-0.6403	-0.9491	-0.4697	-0.337	-0.4662	-0.378	-0.337	-0.0872	0.0455	-0.0662	0.0161	0.2734	-0.1276
414.0625	0.3116	-0.3023	0.0487	-0.3003	-0.1539	-0.0952	0.0364	0.5877	0.376	0.0093	0.1424	0.0795	-0.6893	-0.3186	-0.3354	-0.4712	-0.9731	-0.6727	-1.0704	-0.5496	-0.3933	-0.5143	-0.4191	-0.3845	-0.1349	0.0053	-0.1031	-0.017	0.3569	-0.1136
417.9688	0.2708	-0.3384	0.0765	-0.3253	-0.2062	-0.0816	0.0463	0.5933	0.3869	0.0187	0.1592	0.0822	-0.7118	-0.3666	-0.4085	-0.5351	-1.0961	-0.6975	-1.1629	-0.6323	-0.4583	-0.561	-0.462	-0.4202	-0.1706	-0.0213	-0.1222	-0.0277	0.4451	-0.0909
421.875	0.2343	-0.3698	0.1014	-0.3549	-0.2642	-0.0756	0.0535	0.599	0.4053	0.0373	0.1924	0.1038	-0.7232	-0.4095	-0.4666	-0.5946	-1.1969	-0.7118	-1.2129	-0.7077	-0.5248	-0.5997	-0.501	-0.4427	-0.1927	-0.035	-0.1262	-0.0173	0.5237	-0.0639
425.7812	0.2045	-0.3919	0.1218	-0.3858	-0.3243	-0.0786	0.0515	0.6007	0.4246	0.0568	0.2339	0.137	-0.726	-0.4472	-0.5054	-0.641	-1.2604	-0.7142	-1.2137	-0.7677	-0.5854	-0.6251	-0.5301	-0.4522	-0.2009	-0.037	-0.1194	0.0089	0.5814	-0.0369
429.6875	0.1834	-0.4027	0.1363	-0.415	-0.3822	-0.0907	0.0364	0.5955	0.4395	0.0705	0.2758	0.1745	-0.7217	-0.479	-0.5234	-0.668	-1.2781	-0.7043	-1.1659	-0.807	-0.6335	-0.6331	-0.5444	-0.45	-0.1961	-0.029	-0.1058	0.0435	0.6111	-0.0133
433.5938	0.1727	-0.4026	0.144	-0.4399	-0.4335	-0.1104	0.0087	0.583	0.4471	0.0752	0.313	0.2105	-0.71	-0.503	-0.5211	-0.6719	-1.2492	-0.6819	-1.0778	-0.823	-0.664	-0.6219	-0.5405	-0.4375	-0.1799	-0.0122	-0.0887	0.0792	0.611	0.0047
437.5	0.1738	-0.3934	0.1457	-0.4584	-0.4732	-0.1342	-0.0268	0.5651	0.4474	0.0717	0.3427	0.2414	-0.6892	-0.5163	-0.5007	-0.6528	-1.1795	-0.6475	-0.9631	-0.8162	-0.6736	-0.5922	-0.5174	-0.4165	-0.1543	0.0124	-0.07	0.1107	0.5846	0.0165
441.4062	0.1874	-0.3776	0.1429	-0.4687	-0.4971	-0.1573	-0.0627	0.5454	0.4429	0.0634	0.3647	0.2658	-0.6577	-0.5159	-0.4654	-0.614	-1.0806	-0.6019	-0.8394	-0.7896	-0.662	-0.5476	-0.4771	-0.3896	-0.1223	0.0431	-0.0506	0.135	0.5388	0.0223
445.3125	0.2127	-0.3581	0.1383	-0.4694	-0.5022	-0.1748	-0.0912	0.5281	0.4368	0.0553	0.3802	0.2834	-0.6155	-0.5008	-0.4194	-0.5622	-0.9668	-0.5469	-0.7243	-0.7486	-0.6321	-0.4941	-0.4245	-0.3603	-0.0875	0.0776	-0.0315	0.1516	0.4833	0.0229
449.2188	0.2465	-0.3374	0.1345	-0.4606	-0.4877	-0.1825	-0.1067	0.5165	0.4323	0.0511	0.3901	0.2938	-0.5653	-0.4721	-0.3683	-0.5057	-0.8535	-0.4856	-0.6336	-0.7001	-0.5895	-0.4396	-0.3667	-0.333	-0.0545	0.1127	-0.0141	0.162	0.4279	0.0197
453.125	0.2836	-0.3176	0.1333	-0.4437	-0.4559	-0.1783	-0.1073	0.5117	0.4307	0.0525	0.3949	0.2967	-0.5125	-0.4343	-0.3183	-0.4534	-0.7536	-0.4222	-0.5781	-0.6515	-0.5419	-0.3923	-0.3114	-0.3124	-0.0276	0.1443	-0.0001	0.1682	0.3811	0.014
457.0312	0.3169	-0.3003	0.1353	-0.4214	-0.4121	-0.1632	-0.0959	0.5124	0.4312	0.0577	0.3938	0.2913	-0.4641	-0.3939	-0.2761	-0.4126	-0.6758	-0.3612	-0.5622	-0.6089	-0.4977	-0.359	-0.2656	-0.3026	-0.0107	0.1683	0.0083	0.1722	0.3485	0.0072
460.9375	0.3392	-0.2871	0.1389	-0.3975	-0.3636	-0.1405	-0.0794	0.5147	0.431	0.0626	0.3857	0.2768	-0.4276	-0.3587	-0.2472	-0.3877	-0.6231	-0.3063	-0.5834	-0.5769	-0.4636	-0.3433	-0.2334	-0.3058	-0.0055	0.182	0.0094	0.1756	0.3318	0.0009
464.8438	0.3451	-0.2785	0.1417	-0.3757	-0.3182	-0.1158	-0.0665	0.5136	0.4261	0.0616	0.3691	0.253	-0.4085	-0.3355	-0.2353	-0.3792	-0.5931	-0.2603	-0.6331	-0.557	-0.444	-0.3455	-0.2159	-0.3219	-0.0115	0.1847	0.0026	0.1788	0.3291	-0.0039
468.75	0.3322	-0.2743	0.1402	-0.3591	-0.2827	-0.0951	-0.0655	0.5039	0.4126	0.0495	0.3437	0.2211	-0.4089	-0.329	-0.2413	-0.3836	-0.579	-0.2237	-0.6984	-0.5481	-0.4399	-0.3619	-0.2111	-0.3481	-0.026	0.178	-0.0117	0.1812	0.3351	-0.0067
472.6562	0.3025	-0.273	0.1321	-0.3489	-0.2606	-0.0834	-0.0822	0.4823	0.3878	0.0234	0.3104	0.1832	-0.4272	-0.3403	-0.2626	-0.3946	-0.5722	-0.1956	-0.7649	-0.5468	-0.4484	-0.387	-0.2145	-0.3799	-0.0447	0.1654	-0.0315	0.1817	0.343	-0.0075
476.5625	0.2617	-0.2717	0.1165	-0.3444	-0.2517	-0.0834	-0.1176	0.448	0.3516	-0.0166	0.2717	0.143	-0.4582	-0.3669	-0.2939	-0.4047	-0.5647	-0.1743	-0.8195	-0.5483	-0.4644	-0.4136	-0.2212	-0.4117	-0.0628	0.1517	-0.0545	0.1789	0.3461	-0.0072
480.4688	0.2181	-0.2668	0.0944	-0.3427	-0.2519	-0.0944	-0.1676	0.4038	0.3063	-0.0665	0.2318	0.1047	-0.4941	-0.4028	-0.3283	-0.4063	-0.5506	-0.1576	-0.8521	-0.5475	-0.4807	-0.435	-0.2263	-0.4378	-0.076	0.1419	-0.078	0.1718	0.3392	-0.0071
484.375	0.1807	-0.2542	0.0687	-0.3392	-0.254	-0.1126	-0.2238	0.3552	0.2574	-0.1193	0.1955	0.0728	-0.5263	-0.4395	-0.3584	-0.3939	-0.5276	-0.1434	-0.857	-0.5395	-0.4903	-0.4454	-0.226	-0.4534	-0.0811	0.1401	-0.099	0.1606	0.3199	-0.0084
488.2812	0.157	-0.2307	0.043	-0.329	-0.2497	-0.1317	-0.2746	0.3095	0.2117	-0.1661	0.168	0.0514	-0.5465	-0.4676	-0.378	-0.364	-0.4957	-0.1302	-0.8326	-0.5204	-0.4869	-0.4398	-0.2175	-0.4543	-0.0761	0.15	-0.1137	0.1474	0.2892	-0.0117
492.1875	0.1514	-0.1941	0.0209	-0.3075	-0.2313	-0.1443	-0.3086	0.2741	0.1766	-0.1979	0.1535	0.0438	-0.5485	-0.4785	-0.3825	-0.3157	-0.4572	-0.1165	-0.7806	-0.4872	-0.4661	-0.415	-0.1989	-0.4377	-0.0598	0.1738	-0.1179	0.1357	0.2506	-0.0167
496.0938	0.1646	-0.144	0.005	-0.2715	-0.1934	-0.1442	-0.3164	0.2549	0.1581	-0.2079	0.1546	0.0516	-0.5286	-0.4659	-0.3703	-0.2502	-0.4145	-0.1008	-0.705	-0.4379	-0.4254	-0.3685	-0.1688	-0.4025	-0.0317	0.2125	-0.1072	0.1297	0.2092	-0.0221
500	0.1936	-0.0817	-0.0034	-0.2201	-0.1339	-0.127	-0.2933	0.2547	0.1593	-0.1927	0.1718	0.0745	-0.4861	-0.4267	-0.3422	-0.1698	-0.3696	-0.0815	-0.611	-0.3717	-0.3649	-0.2996	-0.1259	-0.3491	0.0076	0.2657	-0.0777	0.1337	0.17	-0.0261
503.9062	0.233	-0.0095	-0.0041	-0.1545	-0.0545	-0.0916	-0.2397	0.2727	0.1802	-0.153	0.2034	0.1101	-0.4232	-0.3617	-0.3015	-0.0772	-0.323	-0.0567	-0.504	-0.2889	-0.2861	-0.2089	-0.0696	-0.2798	0.0569	0.3312	-0.0277	0.1502	0.1365	-0.0271
507.8125	0.2772	0.0695	0.0021	-0.0778	0.0398	-0.0397	-0.1613	0.3052	0.2173	-0.0933	0.2459	0.1545	-0.3436	-0.2748	-0.2524	0.0245	-0.2743	-0.0247	-0.3894	-0.191	-0.1921	-0.099	0.0001	-0.1983	0.1139	0.4052	0.0423	0.1799	0.1097	-0.0244
511.7188	0.3211	0.1521	0.014	0.0059	0.142	0.0245	-0.0669	0.3464	0.2652	-0.0206	0.295	0.2032	-0.2521	-0.1722	-0.1996	0.1324	-0.2223	0.0164	-0.2714	-0.0811	-0.0871	0.0262	0.0824	-0.1091	0.1757	0.483	0.129	0.2212	0.0886	-0.0179
515.625	0.362	0.2354	0.0308	0.0921	0.2447	0.0957	0.0329	0.3902	0.3177	0.0572	0.3462	0.2521	-0.153	-0.0604	-0.147	0.2434	-0.1658	0.0676	-0.1538	0.0367	0.0246	0.1612	0.1749	-0.0166	0.2387	0.5594	0.2272	0.2707	0.0711	-0.0083
519.5312	0.3993	0.3169	0.0519	0.1772	0.3415	0.1686	0.1287	0.431	0.3692	0.133	0.3959	0.2977	-0.0499	0.0545	-0.0974	0.3541	-0.1049	0.1288	-0.0391	0.1572	0.1385	0.2993	0.2743	0.0752	0.2996	0.6299	0.3308	0.3239	0.0548	0.0033
523.4375	0.4341	0.395	0.0774	0.2584	0.4284	0.2388	0.2133	0.4651	0.4155	0.2009	0.441	0.3383	0.0542	0.1683	-0.0523	0.461	-0.041	0.1984	0.0704	0.2751	0.2505	0.4337	0.3761	0.1633	0.3556	0.691	0.4344	0.3762	0.0383	0.0159
527.3438	0.468	0.4687	0.1072	0.3348	0.5042	0.304	0.2832	0.4907	0.4542	0.2577	0.4796	0.3731	0.1574	0.2785	-0.0124	0.5605	0.0232	0.2731	0.1734	0.3857	0.3576	0.5577	0.475	0.246	0.4046	0.741	0.534	0.4236	0.0217	0.0286
531.25	0.5023	0.538	0.1417	0.4066	0.5708	0.3634	0.3386	0.5084	0.4849	0.3023	0.5112	0.4029	0.258	0.3846	0.0225	0.6498	0.084	0.3476	0.2689	0.4855	0.4584	0.6661	0.5659	0.323	0.4454	0.7797	0.628	0.4629	0.007	0.0413
535.1562	0.5378	0.6046	0.1813	0.4759	0.6328	0.419	0.3828	0.5204	0.5087	0.3364	0.5363	0.4289	0.3544	0.4875	0.053	0.7281	0.1375	0.416	0.3563	0.5735	0.5531	0.7554	0.6442	0.3943	0.4782	0.8084	0.7169	0.4926	-0.0029	0.054
539.0625	0.5748	0.6712	0.2263	0.5457	0.6959	0.474	0.4218	0.5305	0.5282	0.3633	0.5569	0.4529	0.4457	0.5885	0.0803	0.7962	0.1811	0.4728	0.4354	0.6509	0.6438	0.8249	0.7072	0.4606	0.5037	0.8294	0.8022	0.513	-0.0049	0.0668
542.9688	0.6135	0.7414	0.2768	0.6195	0.7661	0.5329	0.462	0.5432	0.5466	0.3878	0.5757	0.4771	0.531	0.6889	0.1062	0.8571	0.2135	0.5149	0.5064	0.7209	0.7335	0.8762	0.7545	0.5226	0.5237	0.8451	0.8858	0.5258	0.0028	0.0796
546.875	0.6543	0.8183	0.3324	0.7002	0.8471	0.5993	0.5089	0.5626	0.5674	0.415	0.5961	0.5037	0.6097	0.7887	0.1325	0.9148	0.2355	0.5415	0.5697	0.7874	0.8251	0.9127	0.7875	0.5804	0.5402	0.8584	0.9689	0.5342	0.0207	0.0921
550.7812	0.6975	0.9034	0.392	0.7886	0.9393	0.6751	0.5657	0.5917	0.5933	0.4488	0.6214	0.5345	0.6814	0.8867	0.161	0.9733	0.2495	0.5549	0.6262	0.8537	0.9202	0.9387	0.8099	0.6338	0.5557	0.8713	1.0511	0.5416	0.0474	0.1041
554.6875	0.7427	0.9955	0.453	0.8826	1.0388	0.7591	0.6319	0.6311	0.6253	0.4912	0.6535	0.5703	0.7455	0.9798	0.1923	1.0346	0.2591	0.5593	0.6772	0.9212	1.0178	0.9587	0.8259	0.6817	0.572	0.8852	1.1306	0.5517	0.08	0.1152
558.5938	0.7881	1.0898	0.5117	0.9766	1.1378	0.8463	0.7033	0.6782	0.6626	0.5411	0.6924	0.6104	0.8007	1.0636	0.2251	1.098	0.2679	0.5597	0.7238	0.9882	1.1138	0.976	0.8398	0.7227	0.59	0.9002	1.2041	0.5665	0.1149	0.1251
562.5	0.8303	1.1789	0.5631	1.0625	1.2259	0.9289	0.7722	0.7277	0.7014	0.5936	0.7352	0.6522	0.8448	1.1329	0.2566	1.1599	0.279	0.5609	0.7672	1.0502	1.2022	0.9927	0.8549	0.7547	0.6097	0.9152	1.2673	0.5859	0.1485	0.1341
566.4062	0.8644	1.2536	0.6019	1.1312	1.2924	0.9977	0.8292	0.7719	0.7365	0.6414	0.7772	0.6912	0.8744	1.183	0.2827	1.2146	0.2942	0.5666	0.8082	1.1013	1.2756	1.0094	0.8727	0.7753	0.6295	0.9283	1.3159	0.6076	0.1774	0.1423
570.3125	0.8848	1.3054	0.6232	1.1745	1.3292	1.0438	0.8655	0.8027	0.7615	0.6756	0.8116	0.7219	0.8857	1.2108	0.2994	1.2561	0.3136	0.5793	0.8472	1.1356	1.3274	1.0254	0.8934	0.7824	0.6473	0.937	1.346	0.6266	0.1987	0.1499
574.2188	0.8873	1.3291	0.6241	1.188	1.3327	1.0617	0.8746	0.8131	0.7711	0.6884	0.8322	0.7387	0.8751	1.2158	0.3037	1.2798	0.3363	0.6	0.8846	1.1492	1.3532	1.0397	0.9162	0.775	0.6606	0.9396	1.355	0.6369	0.2107	0.157
578.125	0.8697	1.3239	0.6049	1.1722	1.3057	1.0504	0.8546	0.7996	0.7622	0.6749	0.8344	0.7379	0.8411	1.2008	0.2947	1.2843	0.3604	0.6285	0.92	1.142	1.3528	1.0509	0.9397	0.753	0.6676	0.9354	1.343	0.6329	0.2126	0.1631
582.0312	0.8337	1.2949	0.5691	1.1332	1.2567	1.014	0.809	0.7633	0.7357	0.6347	0.8171	0.7185	0.7849	1.1712	0.274	1.2722	0.3839	0.6635	0.9529	1.1175	1.3297	1.0585	0.9625	0.7186	0.6675	0.9253	1.3125	0.6111	0.2044	0.1674
585.9375	0.784	1.2511	0.5229	1.0808	1.1986	0.961	0.7457	0.7095	0.6958	0.5726	0.783	0.6827	0.7108	1.1342	0.2448	1.2491	0.4053	0.7021	0.9821	1.0822	1.2907	1.0622	0.9835	0.6754	0.6607	0.9114	1.2683	0.5709	0.1872	0.1688
589.8438	0.7275	1.2037	0.4742	1.0268	1.145	0.9022	0.6757	0.6471	0.6501	0.4971	0.7386	0.6355	0.6262	1.0965	0.2115	1.2221	0.4237	0.7404	1.0051	1.044	1.2443	1.0623	1.0012	0.6279	0.6483	0.8965	1.2164	0.5154	0.1627	0.1663
593.75	0.6719	1.1631	0.43	0.9812	1.1076	0.8475	0.6105	0.5864	0.607	0.4191	0.6924	0.5839	0.5394	1.063	0.1782	1.1979	0.4386	0.7736	1.0189	1.0098	1.1979	1.059	1.0142	0.5806	0.6314	0.8827	1.1627	0.4505	0.1333	0.1591
597.6562	0.6235	1.1364	0.3955	0.9503	1.0925	0.8045	0.5592	0.5364	0.5739	0.349	0.6529	0.5348	0.4588	1.0352	0.1482	1.1807	0.4495	0.7971	1.0203	0.9838	1.1571	1.0524	1.02	0.537	0.6105	0.871	1.1119	0.3838	0.1017	0.1466
601.5625	0.5865	1.1261	0.373	0.9358	1.0998	0.7767	0.5271	0.5036	0.5557	0.2948	0.6266	0.4937	0.3908	1.0113	0.1235	1.1715	0.456	0.807	1.0066	0.9667	1.1236	1.0423	1.016	0.499	0.5855	0.8612	1.0674	0.323	0.0707	0.1292
605.4688	0.5624	1.1303	0.3617	0.9342	1.1235	0.7634	0.5145	0.4903	0.5531	0.2602	0.6162	0.4641	0.3388	0.9872	0.1045	1.1682	0.4568	0.8006	0.9773	0.9561	1.0962	1.0286	0.9999	0.4672	0.5559	0.8518	1.0308	0.2744	0.0429	0.1076
609.375	0.5497	1.1443	0.3584	0.9394	1.1541	0.7608	0.5175	0.4951	0.5635	0.2451	0.6207	0.4466	0.304	0.9588	0.0902	1.1667	0.451	0.7774	0.9338	0.9479	1.0717	1.0111	0.9703	0.4414	0.5215	0.8411	1.003	0.2421	0.0205	0.0835
613.2812	0.5453	1.1616	0.3587	0.9442	1.1808	0.7637	0.5293	0.5132	0.5814	0.2458	0.6359	0.4402	0.2851	0.9234	0.079	1.1626	0.4379	0.7388	0.8801	0.9381	1.0463	0.9908	0.9279	0.4214	0.4831	0.8277	0.9849	0.2273	0.0049	0.059
617.1875	0.5453	1.1768	0.3576	0.943	1.1951	0.7667	0.5428	0.5383	0.6005	0.2566	0.6558	0.4425	0.2802	0.8817	0.0694	1.1533	0.4181	0.6892	0.8219	0.9246	1.0179	0.9694	0.8759	0.4076	0.443	0.8117	0.977	0.2291	-0.0038	0.0366
621.0938	0.5464	1.1863	0.3514	0.933	1.1925	0.7657	0.5523	0.564	0.6151	0.2717	0.6749	0.4509	0.2869	0.8377	0.0605	1.1389	0.3948	0.635	0.7663	0.9083	0.9871	0.95	0.8201	0.4011	0.4052	0.7943	0.9803	0.2449	-0.007	0.0187
625	0.5467	1.1895	0.3378	0.9149	1.1728	0.7587	0.5547	0.5849	0.6214	0.2862	0.6894	0.4637	0.3038	0.7978	0.0528	1.123	0.373	0.5847	0.7212	0.8932	0.9575	0.9363	0.768	0.4037	0.3745	0.7783	0.9949	0.2715	-0.0075	0.007
628.9062	0.5462	1.1878	0.3165	0.8922	1.1402	0.7455	0.5502	0.5974	0.6182	0.2968	0.6981	0.4797	0.3296	0.7691	0.0481	1.1116	0.3595	0.5472	0.6941	0.885	0.9349	0.9322	0.7275	0.4163	0.3558	0.7666	1.0195	0.3056	-0.0098	0.0024
632.8125	0.546	1.1842	0.2894	0.8695	1.1012	0.7272	0.541	0.5998	0.6068	0.3023	0.7023	0.499	0.3632	0.7568	0.0483	1.1112	0.3604	0.5302	0.6914	0.8895	0.9255	0.9404	0.7049	0.4392	0.3527	0.762	1.051	0.3443	-0.0179	0.0048
636.7188	0.5476	1.1815	0.2593	0.8515	1.0629	0.7055	0.5308	0.5923	0.5901	0.3029	0.7055	0.5215	0.4033	0.7627	0.0549	1.1269	0.3796	0.5379	0.7166	0.9103	0.9337	0.9615	0.7039	0.4706	0.3662	0.7659	1.0842	0.3849	-0.0353	0.0131
640.625	0.5518	1.1822	0.2301	0.8413	1.0311	0.6821	0.5233	0.5762	0.572	0.2994	0.7112	0.5471	0.4481	0.7843	0.0678	1.1607	0.4166	0.5703	0.7697	0.9482	0.9609	0.9933	0.7237	0.5068	0.3945	0.778	1.1127	0.4248	-0.0631	0.0253
644.5312	0.5581	1.1876	0.2052	0.8403	1.0097	0.6587	0.5211	0.5538	0.5559	0.2934	0.7225	0.5747	0.4954	0.8158	0.0846	1.2106	0.4666	0.6222	0.8459	1.0004	1.0048	1.0314	0.7597	0.543	0.433	0.7964	1.1298	0.461	-0.1001	0.0391
648.4375	0.5647	1.1981	0.1877	0.8489	1.0003	0.6369	0.5255	0.5273	0.5441	0.2862	0.7402	0.6023	0.543	0.8501	0.1017	1.2719	0.5216	0.6848	0.937	1.0622	1.0607	1.0704	0.8046	0.5737	0.4753	0.8175	1.1308	0.4905	-0.1431	0.052
652.3438	0.5694	1.2137	0.1791	0.8661	1.0026	0.6184	0.5365	0.4992	0.537	0.279	0.763	0.6271	0.5898	0.8808	0.1148	1.338	0.5723	0.7478	1.0323	1.128	1.1223	1.1053	0.8503	0.5949	0.5149	0.8375	1.1136	0.5108	-0.1876	0.0617
656.25	0.5704	1.2344	0.1794	0.8911	1.0154	0.605	0.5532	0.4719	0.534	0.2729	0.7878	0.6463	0.6361	0.9048	0.1212	1.4031	0.6117	0.8024	1.1213	1.1934	1.1842	1.1334	0.8904	0.6052	0.5465	0.8532	1.0801	0.5206	-0.2293	0.067
660.1562	0.5669	1.2602	0.1868	0.9231	1.0373	0.5987	0.5745	0.4474	0.5337	0.2687	0.8105	0.6576	0.6841	0.9231	0.1207	1.4631	0.6369	0.8434	1.1961	1.256	1.243	1.1549	0.9213	0.6062	0.5679	0.8631	1.036	0.5205	-0.2649	0.0675
664.0625	0.56	1.2907	0.1978	0.9615	1.0672	0.6011	0.5993	0.4276	0.5343	0.2673	0.8275	0.66	0.7373	0.9402	0.1163	1.5169	0.6503	0.8701	1.2529	1.316	1.2981	1.1734	0.9438	0.6027	0.5799	0.8675	0.9899	0.513	-0.2926	0.0643
667.9688	0.552	1.3247	0.208	1.0053	1.1041	0.6131	0.627	0.414	0.5351	0.2695	0.8364	0.6541	0.7993	0.9625	0.1138	1.5659	0.6589	0.8863	1.2926	1.3748	1.3507	1.1943	0.962	0.6014	0.586	0.8683	0.9514	0.502	-0.3122	0.0594
671.875	0.5461	1.3601	0.2126	1.0531	1.1466	0.6345	0.6566	0.4077	0.5357	0.2756	0.8365	0.6419	0.8722	0.996	0.1194	1.6126	0.672	0.8982	1.3196	1.4342	1.4031	1.2235	0.9822	0.609	0.5917	0.8684	0.9291	0.4923	-0.3249	0.0555
675.7812	0.5452	1.3937	0.2078	1.1024	1.1927	0.6632	0.6867	0.4089	0.5363	0.285	0.8286	0.6257	0.9545	1.0434	0.1387	1.6596	0.698	0.9128	1.3405	1.495	1.4565	1.2652	1.0106	0.6302	0.6022	0.8704	0.9286	0.4875	-0.3325	0.0547
679.6875	0.5509	1.422	0.1916	1.1499	1.2388	0.6959	0.7153	0.4166	0.5376	0.2961	0.8143	0.6085	1.0408	1.1034	0.1743	1.7078	0.742	0.9349	1.3615	1.5558	1.5105	1.321	1.0516	0.6662	0.6212	0.8757	0.9506	0.4899	-0.3372	0.0586
683.5938	0.5631	1.4416	0.1639	1.1921	1.2806	0.7279	0.7395	0.4294	0.5398	0.3065	0.796	0.5922	1.1222	1.1704	0.2252	1.7563	0.8043	0.9663	1.3872	1.6134	1.5621	1.3888	1.106	0.7139	0.6499	0.8841	0.9916	0.4994	-0.341	0.0671
687.5	0.5804	1.4502	0.1274	1.2256	1.3136	0.7551	0.7565	0.4453	0.543	0.3138	0.776	0.5787	1.188	1.236	0.2872	1.8025	0.8803	1.0058	1.4196	1.6633	1.6074	1.4639	1.1713	0.7669	0.6861	0.8938	1.0444	0.5143	-0.3458	0.0789
691.4062	0.6002	1.4478	0.0869	1.2487	1.3346	0.7741	0.7644	0.4624	0.5473	0.3161	0.7568	0.5693	1.2284	1.2917	0.3536	1.8431	0.9622	1.0496	1.4581	1.7018	1.6424	1.5397	1.2418	0.8171	0.7253	0.9021	1.1001	0.5317	-0.3529	0.0917
695.3125	0.6198	1.4363	0.0484	1.2619	1.3421	0.7842	0.7636	0.4796	0.553	0.313	0.7411	0.565	1.2373	1.3312	0.4164	1.8756	1.0406	1.0932	1.5007	1.7272	1.6652	1.6097	1.3104	0.8568	0.7619	0.907	1.1509	0.5492	-0.3628	0.1031
699.2188	0.6374	1.4197	0.0178	1.2677	1.3379	0.7873	0.7566	0.4969	0.5607	0.3062	0.7317	0.5671	1.2146	1.3525	0.4687	1.8993	1.1074	1.1324	1.5449	1.7409	1.6768	1.6688	1.3703	0.8809	0.7905	0.9072	1.1917	0.5649	-0.3752	0.1112
703.125	0.6519	1.4034	-0.0001	1.2707	1.3264	0.7878	0.7486	0.5153	0.5713	0.2994	0.7308	0.5768	1.1662	1.3584	0.5055	1.9155	1.1571	1.1645	1.5887	1.747	1.6817	1.7147	1.4167	0.8885	0.8074	0.9036	1.2211	0.5786	-0.3888	0.1152
707.0312	0.6638	1.3925	-0.0029	1.2761	1.3141	0.7914	0.746	0.5368	0.5859	0.2975	0.7401	0.595	1.1039	1.3556	0.5245	1.9279	1.1881	1.1884	1.631	1.752	1.6863	1.7482	1.4473	0.8828	0.8114	0.8981	1.2416	0.591	-0.402	0.1156
710.9375	0.6742	1.3913	0.0093	1.2889	1.3084	0.8043	0.7554	0.5635	0.6049	0.3054	0.7603	0.6217	1.0425	1.3537	0.5266	1.9408	1.2024	1.2047	1.6718	1.7631	1.6982	1.7725	1.4631	0.8706	0.8034	0.8934	1.2581	0.6033	-0.4129	0.1137
714.8438	0.6847	1.4027	0.0338	1.3128	1.3165	0.8313	0.7824	0.5976	0.6287	0.3273	0.7907	0.6559	0.9968	1.3625	0.5153	1.9588	1.2052	1.2152	1.7114	1.7866	1.7239	1.7924	1.4677	0.8601	0.7866	0.892	1.2766	0.6166	-0.4203	0.1113
718.75	0.697	1.4277	0.0661	1.3499	1.3443	0.8754	0.8299	0.6403	0.657	0.366	0.8299	0.6958	0.9793	1.3907	0.496	1.9857	1.2037	1.2225	1.7502	1.8267	1.7683	1.8136	1.4661	0.8596	0.7652	0.8958	1.302	0.6314	-0.4236	0.1105
722.6562	0.7128	1.4656	0.1016	1.4004	1.3955	0.9369	0.8983	0.6917	0.6894	0.4218	0.8756	0.7393	0.9981	1.4439	0.4754	2.0237	1.2056	1.2297	1.7882	1.8855	1.8335	1.8414	1.4647	0.8757	0.7443	0.9058	1.3377	0.6481	-0.4233	0.1126
726.5625	0.7339	1.5148	0.1366	1.4632	1.4709	1.0141	0.9855	0.7505	0.7259	0.4933	0.926	0.7843	1.0558	1.5243	0.4604	2.0735	1.2178	1.24	1.8253	1.962	1.9191	1.8801	1.4695	0.9123	0.7286	0.9226	1.3846	0.6666	-0.4203	0.1189
730.4688	0.7621	1.5728	0.1694	1.5358	1.5688	1.1037	1.0869	0.8145	0.7665	0.5776	0.9792	0.8296	1.1497	1.6302	0.4575	2.1339	1.2447	1.2557	1.861	2.0529	2.0219	1.9325	1.4856	0.9699	0.7224	0.9464	1.4412	0.6875	-0.4158	0.1298
734.375	0.7986	1.6366	0.2005	1.615	1.6842	1.2013	1.197	0.8805	0.8116	0.6703	1.0342	0.8746	1.2729	1.7563	0.4714	2.2021	1.2874	1.2783	1.8944	2.1528	2.1369	1.999	1.5163	1.0462	0.7285	0.9767	1.5043	0.7114	-0.4105	0.1452
738.2812	0.844	1.7028	0.2318	1.6971	1.8104	1.3021	1.3096	0.9453	0.8614	0.7667	1.0896	0.9189	1.4148	1.894	0.5044	2.2735	1.3433	1.3078	1.9242	2.2548	2.2573	2.0776	1.562	1.1357	0.7476	1.0119	1.5695	0.7388	-0.4043	0.1646
742.1875	0.8974	1.7676	0.2658	1.7785	1.9394	1.4018	1.4188	1.0063	0.9154	0.8618	1.1445	0.9618	1.5635	2.0336	0.5552	2.343	1.4065	1.3423	1.9495	2.3521	2.3757	2.1641	1.6204	1.2312	0.7784	1.0493	1.6322	0.7699	-0.3961	0.1869
746.0938	0.956	1.8278	0.3041	1.8564	2.0639	1.497	1.5195	1.0621	0.9731	0.9513	1.1973	1.0025	1.7066	2.1651	0.6197	2.4052	1.4692	1.3794	1.9695	2.4384	2.4855	2.253	1.6872	1.3247	0.8173	1.0853	1.6886	0.8042	-0.3839	0.211
750	1.0161	1.8808	0.3472	1.9287	2.1779	1.5857	1.608	1.1128	1.0331	1.0322	1.2467	1.0397	1.8335	2.2798	0.6916	2.4562	1.5237	1.4163	1.985	2.5098	2.5814	2.3383	1.7568	1.4089	0.8598	1.116	1.7359	0.84	-0.3657	0.2358
753.9062	1.073	1.925	0.3937	1.9947	2.2774	1.6674	1.682	1.1594	1.0935	1.1021	1.2909	1.0718	1.9354	2.3717	0.7635	2.4938	1.5639	1.4503	1.998	2.5645	2.6605	2.4148	1.8232	1.4779	0.9008	1.138	1.7732	0.875	-0.3396	0.2601
757.8125	1.1225	1.9596	0.4407	2.054	2.36	1.7416	1.7397	1.2031	1.1517	1.1595	1.3281	1.0968	2.0061	2.4373	0.8284	2.5177	1.5861	1.4793	2.0112	2.603	2.7214	2.478	1.8811	1.5277	0.9359	1.1487	1.8001	0.9057	-0.3054	0.2827
761.7188	1.1612	1.9838	0.4846	2.1056	2.4237	1.8073	1.7792	1.2442	1.2039	1.202	1.3551	1.1118	2.0416	2.475	0.88	2.5285	1.589	1.5008	2.027	2.6262	2.7637	2.5243	1.9263	1.5557	0.9615	1.1467	1.8166	0.9277	-0.2649	0.3019
765.625	1.1871	1.9957	0.5206	2.1462	2.4658	1.8615	1.7976	1.2809	1.245	1.2261	1.3679	1.1132	2.0392	2.4836	0.9133	2.5259	1.5723	1.5118	2.046	2.6341	2.7855	2.5503	1.9551	1.56	0.9744	1.131	1.8219	0.9354	-0.2217	0.3153
769.5312	1.1999	1.9919	0.5445	2.1702	2.4816	1.8986	1.7907	1.3093	1.2688	1.2264	1.3611	1.0962	1.997	2.4613	0.9252	2.508	1.5361	1.5089	2.0667	2.6245	2.7829	2.553	1.9654	1.5387	0.9726	1.1008	1.8136	0.9226	-0.1812	0.3197
773.4375	1.2014	1.9675	0.5526	2.1698	2.4649	1.9111	1.7534	1.3242	1.2692	1.1963	1.3289	1.0558	1.9137	2.4055	0.9145	2.4711	1.4799	1.4883	2.0862	2.5924	2.7498	2.5295	1.9559	1.4901	0.9543	1.0554	1.7881	0.8828	-0.1494	0.3113
777.3438	1.1949	1.9172	0.5426	2.1365	2.4097	1.8913	1.681	1.3199	1.2406	1.1297	1.2663	0.9878	1.7893	2.3132	0.8829	2.4101	1.4031	1.4473	2.1006	2.5315	2.6795	2.4781	1.9266	1.4125	0.9186	0.9938	1.7413	0.811	-0.1324	0.2865
781.25	1.1853	1.8371	0.514	2.0636	2.3114	1.8331	1.5705	1.2922	1.1803	1.0224	1.1703	0.8896	1.6255	2.1825	0.834	2.3203	1.3051	1.3848	2.1069	2.4363	2.5665	2.3986	1.8791	1.3054	0.8657	0.916	1.67	0.7047	-0.1346	0.2426
785.1562	1.177	1.7258	0.4684	1.9488	2.1697	1.7345	1.4224	1.2396	1.0886	0.8744	1.0412	0.7618	1.4263	2.0141	0.7731	2.1999	1.1869	1.3018	2.1039	2.3042	2.4094	2.2932	1.8162	1.1705	0.7971	0.8226	1.573	0.5648	-0.1578	0.1788
789.0625	1.1737	1.586	0.4092	1.7953	1.9892	1.599	1.2411	1.1641	0.9695	0.6901	0.883	0.608	1.198	1.8125	0.7059	2.0507	1.0511	1.2015	2.0921	2.1374	2.2121	2.1665	1.742	1.0118	0.7155	0.7158	1.4526	0.396	-0.2007	0.097
792.9688	1.1764	1.4246	0.3411	1.6122	1.7799	1.4357	1.0354	1.0713	0.8307	0.4791	0.7037	0.4352	0.9498	1.5865	0.6369	1.8792	0.9023	1.0893	2.0735	1.9437	1.9845	2.0251	1.661	0.8361	0.6248	0.5992	1.3143	0.2065	-0.2587	0.0014
796.875	1.184	1.2519	0.2692	1.4136	1.5562	1.2579	0.8175	0.9694	0.6823	0.2545	0.5136	0.2528	0.6926	1.3483	0.5691	1.6957	0.7471	0.9712	2.051	1.7356	1.7412	1.8773	1.5779	0.6523	0.5303	0.4776	1.1664	0.0067	-0.3245	-0.1012
