FP1,F3,F7,FC3,C3,C5,P3,P7,PO7,PO3,O1,Oz,Pz,CPz,FP2,Fz,F4,F8,FC4,FCz,Cz,C4,C6,P4,P8,PO8,PO4,O2,(corr) HEOG,(corr) VEOG
-0.8237,-0.4794,-0.1901,-0.4395,-0.2071,-0.1854,0.4416,0.3664,0.3376,0.573,0.364,0.21,0.3376,0.1622,-0.8396,-0.6348,-0.768,-0.5508,-0.5541,-0.4348,-0.0993,-0.2221,-0.4678,0.2992,0.0112,0.021,0.3099,0.1214,0.3095,0.2044
-0.7535,-0.5364,-0.3535,-0.4555,-0.1528,-0.1222,0.4491,0.4023,0.3843,0.5754,0.4219,0.2987,0.319,0.1399,-0.7328,-0.6309,-0.6869,-0.4847,-0.529,-0.4533,-0.1157,-0.2458,-0.4696,0.2762,0.0261,0.0919,0.3412,0.2186,0.2853,0.1515
-0.6776,-0.5802,-0.4903,-0.463,-0.0998,-0.0586,0.4527,0.43,0.423,0.572,0.4717,0.3773,0.2971,0.1158,-0.6379,-0.6213,-0.6104,-0.4276,-0.5065,-0.4671,-0.1325,-0.2718,-0.4746,0.2456,0.0335,0.1494,0.3619,0.3022,0.2647,0.113
-0.5915,-0.6007,-0.5763,-0.4564,-0.0512,0.0037,0.4483,0.4431,0.4469,0.558,0.5057,0.436,0.2689,0.0882,-0.5631,-0.6012,-0.541,-0.3861,-0.4876,-0.4726,-0.1502,-0.3018,-0.4852,0.2007,0.0267,0.1822,0.3628,0.3601,0.2522,0.0996
-0.4943,-0.5921,-0.5977,-0.4332,-0.0099,0.0625,0.4331,0.4378,0.4518,0.5313,0.5186,0.4678,0.2328,0.0568,-0.5088,-0.5677,-0.4799,-0.362,-0.4718,-0.4672,-0.1685,-0.3347,-0.5012,0.1397,0.0041,0.1858,0.3394,0.3853,0.2501,0.1122
-0.3891,-0.5544,-0.5529,-0.3937,0.0207,0.1145,0.4057,0.4133,0.437,0.4924,0.5081,0.47,0.1894,0.0223,-0.4681,-0.5201,-0.4275,-0.3522,-0.457,-0.4495,-0.1864,-0.3667,-0.5193,0.0658,-0.031,0.1625,0.2928,0.3763,0.2581,0.1422
-0.2833,-0.4925,-0.4533,-0.3421,0.0372,0.1557,0.3661,0.372,0.4049,0.4441,0.4754,0.4434,0.1404,-0.0134,-0.4294,-0.4604,-0.3831,-0.3496,-0.4407,-0.42,-0.2027,-0.3924,-0.5345,-0.014,-0.0717,0.1205,0.2284,0.3367,0.2736,0.1738
-0.1866,-0.4154,-0.3196,-0.285,0.0363,0.1815,0.3157,0.3184,0.3605,0.3908,0.4243,0.3921,0.0888,-0.0487,-0.381,-0.3929,-0.3455,-0.3463,-0.4205,-0.3812,-0.2169,-0.4067,-0.5416,-0.091,-0.1098,0.0701,0.1544,0.274,0.2923,0.1902
-0.1093,-0.334,-0.1766,-0.2307,0.0157,0.1879,0.2566,0.2584,0.3105,0.3367,0.3604,0.3222,0.0374,-0.0828,-0.3156,-0.3238,-0.3135,-0.3356,-0.3956,-0.3379,-0.2295,-0.4064,-0.5368,-0.1572,-0.1385,0.0214,0.0791,0.1967,0.3096,0.1782
-0.0591,-0.2586,-0.0477,-0.187,-0.0254,0.1729,0.1917,0.1984,0.2619,0.2855,0.2902,0.2412,-0.012,-0.1158,-0.2331,-0.2602,-0.2862,-0.3148,-0.3666,-0.2963,-0.2421,-0.3917,-0.5188,-0.2076,-0.1547,-0.0189,0.009,0.1134,0.3217,0.1333
-0.0398,-0.1979,0.0503,-0.1596,-0.0852,0.1373,0.1244,0.1444,0.2208,0.2388,0.2195,0.1562,-0.0584,-0.1485,-0.1417,-0.2087,-0.2636,-0.2855,-0.3361,-0.2626,-0.2565,-0.3659,-0.4896,-0.2413,-0.1594,-0.0485,-0.052,0.0311,0.3263,0.0603
-0.0503,-0.1573,0.1093,-0.151,-0.1593,0.0854,0.058,0.1011,0.1911,0.1967,0.153,0.0733,-0.1018,-0.1825,-0.0554,-0.1743,-0.2466,-0.2535,-0.3079,-0.2416,-0.2748,-0.3349,-0.4532,-0.2608,-0.1566,-0.0689,-0.1032,-0.0453,0.323,-0.0278
-0.085,-0.1382,0.1297,-0.1599,-0.2406,0.0243,-0.0045,0.0712,0.1736,0.1576,0.0938,-0.0026,-0.1426,-0.2185,0.0097,-0.1594,-0.2364,-0.2262,-0.2855,-0.2355,-0.2975,-0.305,-0.4143,-0.271,-0.1519,-0.0843,-0.1464,-0.1131,0.313,-0.1139
-0.1357,-0.1385,0.1179,-0.1813,-0.3206,-0.0374,-0.0606,0.0546,0.1661,0.1196,0.0435,-0.0682,-0.1808,-0.256,0.0405,-0.1631,-0.2341,-0.2099,-0.2711,-0.243,-0.3231,-0.2807,-0.377,-0.277,-0.1501,-0.0994,-0.1839,-0.171,0.2983,-0.1819
-0.1934,-0.1524,0.0829,-0.2079,-0.3897,-0.0916,-0.1084,0.0485,0.1641,0.081,0.0026,-0.1212,-0.2151,-0.2926,0.0305,-0.1806,-0.2388,-0.2076,-0.2642,-0.2592,-0.3479,-0.2639,-0.3428,-0.2823,-0.1534,-0.1173,-0.2177,-0.2187,0.2809,-0.2197
-0.2495,-0.1718,0.0348,-0.2312,-0.4394,-0.1321,-0.1466,0.0483,0.1613,0.0413,-0.0292,-0.1607,-0.2429,-0.3234,-0.0181,-0.2042,-0.247,-0.2176,-0.2613,-0.2763,-0.3662,-0.2526,-0.311,-0.2882,-0.1614,-0.1393,-0.2484,-0.256,0.2625,-0.2221
-0.2964,-0.1875,-0.0175,-0.2434,-0.4625,-0.1558,-0.174,0.0482,0.1517,0.0016,-0.0528,-0.1862,-0.2604,-0.3424,-0.0953,-0.2248,-0.2526,-0.2337,-0.2563,-0.2855,-0.3712,-0.2422,-0.279,-0.2932,-0.1713,-0.164,-0.2748,-0.2827,0.2448,-0.1902
-0.328,-0.1912,-0.0657,-0.2388,-0.4543,-0.1623,-0.1897,0.0431,0.1305,-0.0356,-0.0694,-0.1981,-0.2638,-0.343,-0.1854,-0.2333,-0.2484,-0.2474,-0.2422,-0.2789,-0.3567,-0.2274,-0.2434,-0.2945,-0.1789,-0.1884,-0.2944,-0.2981,0.2292,-0.1309
-0.339,-0.1769,-0.1023,-0.2144,-0.4135,-0.1533,-0.1931,0.0297,0.0952,-0.0673,-0.0805,-0.1974,-0.25,-0.3201,-0.2704,-0.2229,-0.2278,-0.2501,-0.2133,-0.2513,-0.3187,-0.2038,-0.2017,-0.2892,-0.1803,-0.2085,-0.3043,-0.3014,0.2173,-0.0546
-0.3255,-0.1422,-0.1211,-0.1706,-0.3417,-0.1317,-0.1839,0.007,0.0463,-0.0908,-0.0881,-0.1859,-0.218,-0.2716,-0.3333,-0.1908,-0.1879,-0.2358,-0.1668,-0.2018,-0.2565,-0.1696,-0.1535,-0.2754,-0.1731,-0.2212,-0.3025,-0.2921,0.2102,0.0264
-0.2852,-0.0887,-0.1181,-0.1105,-0.244,-0.0998,-0.1632,-0.0235,-0.013,-0.1049,-0.0945,-0.1664,-0.1698,-0.1996,-0.3624,-0.1385,-0.1304,-0.2027,-0.1048,-0.1338,-0.1737,-0.1269,-0.1009,-0.2532,-0.1572,-0.2245,-0.2887,-0.2711,0.208,0.1004
-0.2188,-0.0215,-0.0924,-0.0395,-0.1282,-0.0597,-0.1331,-0.0582,-0.0776,-0.11,-0.1018,-0.1421,-0.1103,-0.1108,-0.3524,-0.0715,-0.0621,-0.1539,-0.0337,-0.0547,-0.0778,-0.0806,-0.0483,-0.225,-0.1352,-0.2189,-0.265,-0.2404,0.2091,0.1583
-0.1301,0.0519,-0.0476,0.0357,-0.0042,-0.0132,-0.0978,-0.0925,-0.1413,-0.1088,-0.1118,-0.117,-0.0473,-0.0159,-0.3062,0.0017,0.0072,-0.0965,0.037,0.0259,0.0205,-0.0375,-0.0012,-0.1946,-0.1112,-0.2062,-0.2356,-0.2038,0.2104,0.1949
-0.026,0.1236,0.009,0.1083,0.1168,0.0375,-0.0625,-0.1217,-0.198,-0.1048,-0.1253,-0.0944,0.0103,0.0727,-0.2321,0.0723,0.0671,-0.039,0.0968,0.098,0.1097,-0.004,0.0359,-0.1663,-0.0897,-0.1894,-0.2056,-0.1655,0.207,0.2089
0.084,0.1868,0.0682,0.1726,0.2238,0.0889,-0.0328,-0.1422,-0.2431,-0.1025,-0.1416,-0.0769,0.0538,0.143,-0.1413,0.1325,0.1096,0.0108,0.1376,0.1539,0.1794,0.0157,0.0602,-0.1436,-0.0742,-0.1713,-0.1797,-0.1295,0.1932,0.2022
0.1893,0.2371,0.1209,0.2244,0.3073,0.1361,-0.0137,-0.1522,-0.2731,-0.1053,-0.1592,-0.0655,0.0767,0.1858,-0.0445,0.1779,0.1316,0.0487,0.1554,0.1892,0.222,0.0208,0.0724,-0.1283,-0.0662,-0.1541,-0.1611,-0.0987,0.1638,0.1783
0.2796,0.2732,0.1611,0.2619,0.3604,0.1732,-0.0086,-0.1514,-0.287,-0.1153,-0.1753,-0.0599,0.0758,0.1969,0.0505,0.2077,0.1361,0.0746,0.1516,0.2037,0.2348,0.0143,0.076,-0.1203,-0.065,-0.1388,-0.1508,-0.0744,0.1157,0.1412
0.347,0.2964,0.1866,0.2852,0.3801,0.1942,-0.0184,-0.1415,-0.2852,-0.1326,-0.1872,-0.0588,0.0519,0.1773,0.1391,0.2248,0.1313,0.0921,0.1332,0.2013,0.22,0.0024,0.077,-0.1177,-0.0681,-0.1261,-0.1477,-0.0566,0.0487,0.095
0.3871,0.3099,0.1993,0.296,0.3671,0.1946,-0.0413,-0.1247,-0.2701,-0.1557,-0.1927,-0.0607,0.0097,0.1332,0.2196,0.2345,0.1285,0.1074,0.1107,0.1887,0.184,-0.0071,0.0818,-0.1175,-0.0724,-0.1162,-0.1492,-0.0449,-0.0336,0.0438
0.4006,0.3167,0.2033,0.2969,0.3262,0.1727,-0.0732,-0.1041,-0.2454,-0.1816,-0.191,-0.0643,-0.043,0.075,0.292,0.2429,0.1389,0.127,0.0953,0.1735,0.1367,-0.0063,0.096,-0.1161,-0.0748,-0.1092,-0.1515,-0.0385,-0.1243,-0.0085
0.3922,0.3194,0.2023,0.2901,0.2655,0.1299,-0.1086,-0.0826,-0.2155,-0.207,-0.1825,-0.0692,-0.0966,0.0147,0.3553,0.255,0.1701,0.1554,0.0968,0.1631,0.0892,0.0108,0.1236,-0.1097,-0.0729,-0.1046,-0.1507,-0.0368,-0.2149,-0.0578
0.3693,0.3188,0.1977,0.2781,0.1942,0.071,-0.1415,-0.0633,-0.1855,-0.229,-0.1695,-0.075,-0.1416,-0.0357,0.4074,0.2738,0.2241,0.1942,0.1208,0.1627,0.0521,0.0478,0.166,-0.0947,-0.0653,-0.1007,-0.1429,-0.0387,-0.297,-0.0999
0.3395,0.3151,0.1876,0.2623,0.1219,0.0033,-0.1671,-0.0497,-0.1601,-0.2457,-0.1548,-0.0818,-0.1698,-0.0669,0.4438,0.2993,0.2969,0.2418,0.1677,0.1744,0.0332,0.105,0.2225,-0.0684,-0.0511,-0.0947,-0.1251,-0.0424,-0.3641,-0.1304
0.3082,0.3077,0.1679,0.2439,0.0563,-0.0647,-0.1822,-0.0447,-0.1437,-0.2569,-0.1423,-0.0897,-0.1763,-0.0737,0.4594,0.3288,0.3794,0.2938,0.2334,0.1974,0.0359,0.1791,0.2903,-0.0294,-0.0301,-0.0831,-0.0957,-0.0459,-0.413,-0.146
0.278,0.2963,0.1343,0.2237,0.0025,-0.1254,-0.1864,-0.0509,-0.1395,-0.264,-0.1353,-0.0989,-0.1601,-0.0563,0.4505,0.3575,0.46,0.3443,0.3095,0.2281,0.0594,0.2642,0.365,0.0221,-0.0028,-0.0624,-0.0551,-0.0471,-0.4443,-0.1453
0.2488,0.281,0.0855,0.2023,-0.0373,-0.1732,-0.1813,-0.0695,-0.1488,-0.2691,-0.1365,-0.1094,-0.1238,-0.019,0.4172,0.3802,0.5265,0.3877,0.386,0.2613,0.0984,0.3526,0.4413,0.0835,0.0294,-0.0311,-0.0057,-0.0446,-0.4609,-0.1295
0.2195,0.2628,0.0249,0.1801,-0.0634,-0.205,-0.1696,-0.0995,-0.1709,-0.2746,-0.1472,-0.1218,-0.0735,0.0303,0.3646,0.3921,0.5687,0.4193,0.4524,0.2916,0.1454,0.4352,0.5129,0.15,0.0646,0.0101,0.0479,-0.0385,-0.4675,-0.1033
0.1892,0.2428,-0.0394,0.1583,-0.0772,-0.2202,-0.1548,-0.1374,-0.2023,-0.2817,-0.1669,-0.1363,-0.0171,0.0822,0.3018,0.39,0.5797,0.436,0.4999,0.3144,0.1919,0.5035,0.5733,0.2154,0.1004,0.0575,0.1003,-0.0297,-0.4679,-0.0738
0.1581,0.2229,-0.0958,0.1381,-0.0802,-0.2197,-0.1396,-0.1778,-0.2372,-0.29,-0.1929,-0.1525,0.0371,0.1281,0.2404,0.3733,0.557,0.4365,0.5227,0.327,0.2308,0.5503,0.6161,0.273,0.1345,0.1055,0.1453,-0.0202,-0.4643,-0.0487
0.1283,0.2042,-0.132,0.1212,-0.0735,-0.2054,-0.1257,-0.2146,-0.2688,-0.2977,-0.2209,-0.1695,0.0818,0.1613,0.1915,0.3435,0.503,0.4216,0.5183,0.329,0.2572,0.5705,0.636,0.3167,0.1648,0.1478,0.1779,-0.0119,-0.4567,-0.0344
0.1034,0.1877,-0.1378,0.1094,-0.0572,-0.1795,-0.1136,-0.242,-0.29,-0.3014,-0.2459,-0.1853,0.112,0.1786,0.1628,0.3044,0.4249,0.3934,0.4885,0.3214,0.2695,0.5622,0.6299,0.3422,0.1901,0.1792,0.195,-0.0059,-0.4427,-0.0339
0.088,0.174,-0.1083,0.104,-0.0314,-0.1445,-0.1031,-0.2563,-0.2955,-0.2975,-0.2626,-0.1969,0.1257,0.1798,0.1568,0.2613,0.3336,0.3555,0.439,0.307,0.2688,0.5269,0.598,0.3477,0.2102,0.1963,0.1957,-0.002,-0.4197,-0.0457
0.0877,0.1634,-0.0449,0.1055,0.0035,-0.103,-0.0937,-0.2567,-0.2827,-0.2833,-0.2666,-0.2012,0.1238,0.168,0.1709,0.22,0.2421,0.3123,0.3779,0.2889,0.2582,0.4692,0.5436,0.3339,0.2248,0.1985,0.1819,0.001,-0.3857,-0.0639
0.1069,0.1562,0.0448,0.1136,0.0458,-0.0585,-0.0851,-0.2454,-0.2524,-0.2573,-0.2555,-0.1948,0.1095,0.1478,0.198,0.1859,0.1628,0.2683,0.3142,0.2703,0.2417,0.396,0.4733,0.3045,0.2337,0.188,0.1575,0.005,-0.3408,-0.0794
0.148,0.1534,0.1484,0.1276,0.0929,-0.015,-0.0775,-0.2272,-0.2087,-0.2204,-0.2285,-0.1756,0.0877,0.1246,0.2286,0.1629,0.1057,0.2277,0.2566,0.2539,0.2232,0.3155,0.3954,0.2644,0.2364,0.1686,0.1276,0.0121,-0.2876,-0.0822
0.2091,0.1567,0.2509,0.1465,0.1409,0.0235,-0.0713,-0.2077,-0.1574,-0.1751,-0.1868,-0.1423,0.064,0.1037,0.2535,0.1534,0.0771,0.194,0.2117,0.2421,0.2064,0.236,0.3188,0.2198,0.2317,0.1456,0.098,0.0244,-0.2311,-0.0643
0.2832,0.1688,0.3373,0.1703,0.1861,0.054,-0.0667,-0.192,-0.1046,-0.1253,-0.1332,-0.0955,0.044,0.0895,0.2658,0.1581,0.0796,0.1703,0.1836,0.2372,0.1943,0.165,0.2513,0.1772,0.2192,0.1239,0.0745,0.0433,-0.1769,-0.0222
0.3584,0.1935,0.3957,0.2,0.2263,0.0756,-0.0635,-0.1832,-0.0557,-0.0754,-0.0715,-0.0377,0.0327,0.0856,0.2623,0.1768,0.1123,0.1588,0.1745,0.2418,0.1902,0.1088,0.1988,0.1425,0.1989,0.1078,0.0613,0.0691,-0.1308,0.0419
0.4212,0.2347,0.4199,0.2383,0.2615,0.0902,-0.0605,-0.1817,-0.0141,-0.0298,-0.0065,0.0271,0.0336,0.0943,0.2441,0.2093,0.1724,0.1614,0.1844,0.2588,0.197,0.0717,0.1644,0.1201,0.1723,0.0999,0.061,0.1009,-0.0964,0.1196
0.4598,0.2953,0.4107,0.2889,0.2941,0.1023,-0.0561,-0.1854,0.0184,0.0078,0.0567,0.0925,0.0482,0.1164,0.2162,0.2551,0.2551,0.1789,0.2124,0.2913,0.2177,0.0565,0.1487,0.1128,0.1413,0.1001,0.0737,0.1355,-0.0751,0.198
0.4694,0.3757,0.3773,0.3549,0.3289,0.1182,-0.0486,-0.1908,0.0415,0.0344,0.1121,0.1511,0.0758,0.1512,0.1872,0.3144,0.3543,0.211,0.2562,0.3419,0.2543,0.0638,0.1504,0.1204,0.1086,0.1057,0.0967,0.1677,-0.065,0.2614
0.4539,0.4725,0.335,0.4378,0.3709,0.1445,-0.0366,-0.1942,0.0553,0.0478,0.1537,0.1946,0.1133,0.1967,0.1676,0.3864,0.4616,0.2555,0.3126,0.4116,0.3074,0.0926,0.1669,0.1402,0.0756,0.1117,0.1248,0.1904,-0.0626,0.2938
0.4268,0.5774,0.3037,0.5355,0.4242,0.1861,-0.02,-0.1933,0.0599,0.0465,0.1761,0.2153,0.1558,0.2492,0.1689,0.4691,0.5666,0.3087,0.3775,0.4989,0.3756,0.1402,0.1953,0.1675,0.0428,0.1117,0.1511,0.1958,-0.0632,0.2822
0.4083,0.6783,0.3034,0.6423,0.4904,0.2448,0,-0.1875,0.0553,0.0303,0.1755,0.2078,0.1975,0.3048,0.2013,0.5583,0.657,0.3656,0.4459,0.5994,0.4557,0.2028,0.2327,0.1959,0.0095,0.0997,0.1686,0.1775,-0.0633,0.2185
0.4201,0.7608,0.3508,0.7487,0.5671,0.3177,0.0207,-0.1786,0.0412,0.0001,0.1509,0.1708,0.2329,0.3592,0.272,0.6479,0.7205,0.4204,0.5126,0.7064,0.5425,0.2759,0.2765,0.2197,-0.0256,0.0719,0.1718,0.1322,-0.0606,0.1015
0.4795,0.8115,0.4544,0.8433,0.6482,0.3977,0.039,-0.1705,0.018,-0.0412,0.1047,0.1076,0.2578,0.4094,0.3834,0.7303,0.7464,0.4677,0.5727,0.8113,0.6301,0.3543,0.324,0.2343,-0.0627,0.0286,0.1581,0.062,-0.0548,-0.0621
0.5941,0.8206,0.6115,0.9145,0.7248,0.4741,0.0515,-0.1678,-0.0132,-0.0893,0.043,0.0272,0.2707,0.453,0.5312,0.7977,0.7287,0.5032,0.6217,0.9052,0.7122,0.4329,0.3723,0.2378,-0.1004,-0.025,0.1293,-0.0248,-0.0469,-0.2585
0.7571,0.7848,0.8065,0.9527,0.7857,0.534,0.0559,-0.1754,-0.0498,-0.1383,-0.0247,-0.0572,0.2723,0.489,0.7032,0.8433,0.6675,0.5242,0.6561,0.9797,0.7827,0.506,0.4175,0.2311,-0.1345,-0.0791,0.0913,-0.1144,-0.0389,-0.4672
0.947,0.7081,1.0117,0.9516,0.8197,0.5647,0.0504,-0.1967,-0.0886,-0.1822,-0.0875,-0.13,0.2656,0.5162,0.879,0.8621,0.5697,0.5296,0.6735,1.0275,0.8353,0.5677,0.4552,0.218,-0.1581,-0.1207,0.0535,-0.1896,-0.0327,-0.6638
1.1308,0.6013,1.1923,0.909,0.8163,0.5549,0.0344,-0.233,-0.1256,-0.2154,-0.1344,-0.1762,0.2541,0.533,1.0326,0.8516,0.4485,0.5195,0.6718,1.042,0.8632,0.6115,0.4799,0.2037,-0.1632,-0.1364,0.0266,-0.2325,-0.0293,-0.823
1.2714,0.4803,1.3136,0.8267,0.7675,0.4969,0.0076,-0.2835,-0.1576,-0.2343,-0.1571,-0.1841,0.2405,0.5358,1.1373,0.8123,0.3209,0.4947,0.6502,1.0188,0.8601,0.6312,0.486,0.1937,-0.1427,-0.1149,0.0206,-0.2289,-0.0281,-0.9223
1.3377,0.3632,1.3498,0.7107,0.669,0.3875,-0.0304,-0.3452,-0.1824,-0.2383,-0.1515,-0.1483,0.2258,0.5201,1.173,0.7482,0.205,0.4574,0.609,0.9561,0.8204,0.6219,0.4685,0.1921,-0.092,-0.0507,0.0417,-0.1716,-0.027,-0.9465
1.3138,0.2667,1.2914,0.5697,0.5218,0.2287,-0.08,-0.4136,-0.2003,-0.2299,-0.1186,-0.0706,0.2085,0.4809,1.1331,0.6668,0.1157,0.411,0.5506,0.8557,0.7413,0.5819,0.4253,0.2004,-0.0116,0.0548,0.0912,-0.0624,-0.0221,-0.8909
1.204,0.2023,1.1476,0.4141,0.3323,0.0277,-0.1416,-0.483,-0.213,-0.2143,-0.0646,0.0398,0.1854,0.4144,1.0266,0.5769,0.0622,0.3597,0.479,0.7235,0.6242,0.5134,0.3577,0.2178,0.0927,0.1922,0.1644,0.0878,-0.0093,-0.7624
1.0308,0.1728,0.9429,0.2532,0.1115,-0.2038,-0.2147,-0.5469,-0.2239,-0.1981,0.0014,0.1693,0.1527,0.3198,0.8746,0.4862,0.0452,0.3075,0.3995,0.5679,0.4745,0.4231,0.2711,0.2411,0.21,0.3461,0.2519,0.2607,0.0156,-0.5762
0.8257,0.1702,0.7081,0.0933,-0.1267,-0.4513,-0.298,-0.5984,-0.2359,-0.1881,0.0687,0.3013,0.1074,0.1991,0.7004,0.3975,0.057,0.2557,0.317,0.3968,0.3007,0.3199,0.1735,0.2657,0.3264,0.4975,0.3412,0.4342,0.055,-0.3512
0.6175,0.1772,0.4709,-0.0639,-0.3684,-0.6993,-0.3886,-0.6306,-0.2509,-0.1891,0.1279,0.4201,0.0479,0.0572,0.5204,0.3072,0.0843,0.2023,0.234,0.2163,0.1125,0.2129,0.0729,0.2854,0.4268,0.6271,0.419,0.586,0.1096,-0.105
0.4229,0.1717,0.2484,-0.2205,-0.6016,-0.9329,-0.4828,-0.6377,-0.2688,-0.2038,0.1717,0.5123,-0.0258,-0.0988,0.3385,0.2058,0.111,0.1416,0.1505,0.029,-0.0806,0.108,-0.0246,0.2934,0.497,0.7173,0.4725,0.6965,0.1779,0.1488
0.2427,0.1323,0.046,-0.3807,-0.8171,-1.139,-0.5758,-0.6154,-0.2871,-0.2322,0.1961,0.5685,-0.1119,-0.2611,0.1479,0.0818,0.1218,0.0659,0.0639,-0.1646,-0.2704,0.0074,-0.1162,0.2826,0.5255,0.7549,0.491,0.7515,0.257,0.3993
0.0654,0.0445,-0.1386,-0.5474,-1.0089,-1.3072,-0.6624,-0.5625,-0.3021,-0.2713,0.2,0.5837,-0.2073,-0.4215,-0.0629,-0.074,0.105,-0.0315,-0.03,-0.3638,-0.45,-0.0907,-0.2026,0.2469,0.5054,0.7328,0.4677,0.7436,0.3424,0.6352
-0.1249,-0.0958,-0.3102,-0.7201,-1.1728,-1.4305,-0.7374,-0.4808,-0.3093,-0.3164,0.1854,0.5583,-0.3074,-0.5719,-0.3013,-0.2633,0.0538,-0.1539,-0.1341,-0.5651,-0.6131,-0.1899,-0.2861,0.1824,0.4359,0.6512,0.4005,0.6733,0.4288,0.843
-0.3394,-0.2801,-0.4705,-0.8927,-1.3063,-1.506,-0.7961,-0.3766,-0.3058,-0.3612,0.1559,0.4972,-0.4068,-0.7053,-0.5647,-0.4775,-0.032,-0.2986,-0.2487,-0.76,-0.7535,-0.2935,-0.3693,0.0896,0.3231,0.5186,0.2936,0.5497,0.5103,1.0069
-0.578,-0.4877,-0.6159,-1.0532,-1.4069,-1.535,-0.8351,-0.2598,-0.2909,-0.3999,0.1166,0.4097,-0.499,-0.815,-0.8383,-0.6967,-0.1445,-0.456,-0.3689,-0.9351,-0.8648,-0.4018,-0.4536,-0.0266,0.1796,0.3511,0.1573,0.389,0.5814,1.1121
-0.8259,-0.6894,-0.7375,-1.1854,-1.4722,-1.5226,-0.852,-0.1434,-0.2669,-0.4273,0.0727,0.3078,-0.5769,-0.8952,-1.0962,-0.8925,-0.2677,-0.6104,-0.4842,-1.0725,-0.94,-0.5105,-0.5375,-0.156,0.0229,0.1702,0.0071,0.2124,0.6378,1.1488
-1.0555,-0.8517,-0.8236,-1.2709,-1.4989,-1.4774,-0.8467,-0.0418,-0.239,-0.4401,0.029,0.2049,-0.6329,-0.9406,-1.3064,-1.0319,-0.3788,-0.7417,-0.579,-1.1525,-0.9721,-0.6104,-0.6174,-0.2844,-0.1282,-0.0013,-0.1383,0.0426,0.6775,1.1151
-1.2308,-0.9429,-0.8626,-1.2924,-1.4836,-1.4092,-0.82,0.0314,-0.2138,-0.4373,-0.0102,0.1136,-0.6598,-0.9459,-1.4363,-1.0843,-0.4511,-0.829,-0.6353,-1.157,-0.9538,-0.6883,-0.6874,-0.396,-0.2571,-0.1426,-0.2601,-0.0998,0.7011,1.0186
-1.3159,-0.939,-0.8461,-1.2376,-1.423,-1.328,-0.7743,0.0664,-0.1974,-0.4192,-0.0419,0.0448,-0.6513,-0.9065,-1.4601,-1.0271,-0.4598,-0.8543,-0.6366,-1.0726,-0.879,-0.7299,-0.7408,-0.4755,-0.352,-0.239,-0.3427,-0.1996,0.7111,0.8749
-1.2825,-0.8285,-0.7711,-1.1016,-1.3149,-1.2423,-0.7127,0.0586,-0.1936,-0.3878,-0.0631,0.0059,-0.6034,-0.819,-1.3637,-0.8515,-0.3873,-0.8064,-0.5716,-0.8945,-0.7444,-0.7224,-0.772,-0.5112,-0.4078,-0.2835,-0.3756,-0.2488,0.7111,0.7044
-1.1179,-0.6157,-0.6412,-0.8898,-1.1603,-1.1585,-0.6383,0.0103,-0.2029,-0.3452,-0.0718,0.0008,-0.515,-0.6824,-1.1483,-0.5654,-0.229,-0.6842,-0.4376,-0.6281,-0.5507,-0.6583,-0.7771,-0.4962,-0.4263,-0.2771,-0.3554,-0.2464,0.7042,0.5274
-0.829,-0.3212,-0.4671,-0.6181,-0.9645,-1.0811,-0.5548,-0.0695,-0.222,-0.2941,-0.0663,0.0299,-0.3888,-0.5,-0.8317,-0.1931,0.0044,-0.4973,-0.2427,-0.2899,-0.3044,-0.5369,-0.7559,-0.4302,-0.4138,-0.227,-0.2853,-0.1977,0.6918,0.3608
-0.4429,0.0209,-0.2658,-0.3114,-0.7374,-1.0126,-0.4655,-0.167,-0.2448,-0.2364,-0.0457,0.0902,-0.2314,-0.2794,-0.4457,0.2274,0.2882,-0.2651,-0.0039,0.0937,-0.0185,-0.3652,-0.7109,-0.3186,-0.3795,-0.1441,-0.174,-0.1122,0.6731,0.2152
-0.0039,0.3683,-0.0593,-0.0004,-0.4935,-0.9542,-0.3735,-0.2656,-0.2643,-0.174,-0.0102,0.1757,-0.0524,-0.0331,-0.0311,0.6514,0.5885,-0.0126,0.255,0.4904,0.2887,-0.1566,-0.6471,-0.1716,-0.332,-0.0404,-0.034,-0.0012,0.6454,0.094
0.4342,0.6787,0.1281,0.2838,-0.2501,-0.9054,-0.2816,-0.3498,-0.274,-0.1085,0.038,0.2778,0.1362,0.2228,0.3689,1.0343,0.8693,0.234,0.5086,0.8661,0.5953,0.0714,-0.5704,-0.0022,-0.278,0.0725,0.1204,0.1232,0.605,-0.0055
0.8165,0.9169,0.2724,0.5148,-0.0241,-0.8644,-0.1928,-0.4073,-0.2702,-0.0426,0.0945,0.3856,0.3215,0.4707,0.7151,1.3398,1.0998,0.4517,0.7342,1.1899,0.8792,0.3001,-0.4866,0.1752,-0.2222,0.1846,0.2748,0.249,0.5491,-0.0897
1.0968,1.0612,0.3546,0.6757,0.1701,-0.8275,-0.1097,-0.4312,-0.2523,0.0202,0.1528,0.487,0.4904,0.6929,0.9776,1.5444,1.2605,0.6244,0.9153,1.4388,1.1204,0.5118,-0.4006,0.3456,-0.1674,0.2868,0.4153,0.3645,0.4769,-0.1653
1.2453,1.1062,0.3643,0.7613,0.3239,-0.7889,-0.035,-0.4206,-0.2224,0.0756,0.2049,0.5694,0.6313,0.8747,1.1384,1.6408,1.3457,0.7438,1.0435,1.6,1.3044,0.692,-0.3161,0.4954,-0.1162,0.3708,0.5297,0.4587,0.3908,-0.2371
1.2535,1.0625,0.3027,0.7789,0.4353,-0.7408,0.0287,-0.3794,-0.1848,0.1189,0.2433,0.6221,0.7346,1.0055,1.1929,1.6367,1.3625,0.8096,1.1189,1.6722,1.4238,0.8306,-0.2355,0.6122,-0.0715,0.4295,0.6079,0.5219,0.2964,-0.3058
1.1347,0.953,0.1833,0.7461,0.5096,-0.6745,0.0797,-0.3151,-0.1439,0.1465,0.2621,0.6378,0.7941,1.0803,1.1491,1.552,1.3276,0.8277,1.1485,1.6644,1.4787,0.9227,-0.1599,0.6867,-0.0367,0.4573,0.6435,0.5474,0.2022,-0.3694
0.9201,0.8075,0.0301,0.6867,0.5575,-0.5819,0.1172,-0.2364,-0.1036,0.1565,0.2586,0.6138,0.8073,1.1003,1.0257,1.4133,1.2614,0.8083,1.1435,1.5934,1.4763,0.9684,-0.0891,0.7134,-0.0153,0.4515,0.6342,0.5321,0.1181,-0.4244
0.6518,0.657,-0.127,0.6256,0.5926,-0.4571,0.1414,-0.1519,-0.0667,0.1497,0.2339,0.5527,0.7765,1.0717,0.8488,1.2485,1.183,0.7637,1.1168,1.4799,1.4285,0.9723,-0.0214,0.6916,-0.0093,0.4131,0.5824,0.4772,0.0537,-0.4675
0.3744,0.5272,-0.2574,0.5838,0.6278,-0.299,0.1535,-0.0692,-0.0347,0.1288,0.1921,0.4619,0.7072,1.0046,0.6473,1.0817,1.1063,0.7056,1.0797,1.3448,1.3498,0.9421,0.0454,0.6256,-0.0189,0.3468,0.4948,0.389,0.0165,-0.4975
0.1265,0.4351,-0.3368,0.5743,0.6722,-0.1114,0.1553,0.0063,-0.0082,0.0985,0.1399,0.3524,0.6081,0.9107,0.4485,0.9296,1.0372,0.6438,1.0398,1.2056,1.2539,0.8871,0.1139,0.5241,-0.0417,0.261,0.3819,0.2774,0.01,-0.5156
-0.0648,0.3863,-0.3511,0.6,0.7284,0.096,0.1483,0.0709,0.0127,0.0639,0.0843,0.2367,0.4887,0.801,0.2742,0.8,0.9741,0.5842,0.9997,1.0736,1.1513,0.8163,0.1851,0.3991,-0.0731,0.1663,0.2562,0.1549,0.033,-0.525
-0.1876,0.3752,-0.2994,0.6533,0.7915,0.3085,0.1334,0.1227,0.028,0.0292,0.0319,0.1264,0.3582,0.6836,0.1374,0.6919,0.9088,0.5284,0.9565,0.953,1.0474,0.7363,0.2576,0.2636,-0.1071,0.0739,0.1303,0.0345,0.0793,-0.53
-0.2442,0.3876,-0.1938,0.7185,0.8498,0.508,0.1099,0.1605,0.0371,-0.0033,-0.0135,0.0304,0.224,0.5627,0.0411,0.5974,0.8294,0.4735,0.9032,0.8409,0.9425,0.6505,0.3265,0.1297,-0.1377,-0.0064,0.0151,-0.0724,0.1392,-0.5334
-0.2492,0.4034,-0.0563,0.7744,0.8867,0.675,0.0758,0.1839,0.0385,-0.0338,-0.051,-0.0465,0.0913,0.4387,-0.0216,0.5047,0.7236,0.4129,0.8298,0.7297,0.8324,0.5586,0.3838,0.0068,-0.1601,-0.0678,-0.0817,-0.1575,0.201,-0.5351
-0.2248,0.402,0.0861,0.7995,0.8846,0.7915,0.0286,0.1923,0.03,-0.0648,-0.0831,-0.104,-0.0371,0.3096,-0.0649,0.4008,0.5821,0.3383,0.7266,0.6088,0.7105,0.4572,0.4191,-0.0995,-0.1719,-0.1073,-0.1564,-0.2172,0.2541,-0.5315
-0.1961,0.3658,0.2067,0.7755,0.829,0.8437,-0.0335,0.1854,0.0094,-0.0994,-0.1139,-0.145,-0.1592,0.1725,-0.1062,0.2749,0.401,0.2421,0.5866,0.4689,0.5705,0.3414,0.4221,-0.1874,-0.1731,-0.1258,-0.2087,-0.2518,0.2909,-0.5164
-0.1854,0.2836,0.2845,0.691,0.7123,0.8245,-0.1097,0.1639,-0.0249,-0.1401,-0.1479,-0.1746,-0.2734,0.0262,-0.1609,0.1208,0.1832,0.12,0.4077,0.3043,0.4088,0.2073,0.3848,-0.2578,-0.1662,-0.1273,-0.2412,-0.2652,0.3079,-0.4833
-0.2085,0.1522,0.3074,0.5441,0.5363,0.736,-0.1964,0.1298,-0.0722,-0.1872,-0.1878,-0.1978,-0.3771,-0.1277,-0.2388,-0.0622,-0.0619,-0.0273,0.1943,0.1148,0.226,0.0534,0.3042,-0.3132,-0.1548,-0.1174,-0.2579,-0.2632,0.3063,-0.4283
-0.2721,-0.0236,0.273,0.3419,0.3121,0.5889,-0.2869,0.0867,-0.1295,-0.238,-0.2338,-0.2182,-0.467,-0.2846,-0.342,-0.2689,-0.3203,-0.1941,-0.0435,-0.094,0.0273,-0.1178,0.1835,-0.3564,-0.1427,-0.1015,-0.263,-0.2519,0.2901,-0.3513
-0.3729,-0.2328,0.188,0.0991,0.0583,0.4013,-0.373,0.0396,-0.1918,-0.2881,-0.2834,-0.2377,-0.5401,-0.438,-0.4657,-0.4896,-0.5762,-0.3704,-0.2911,-0.3122,-0.1786,-0.2998,0.0319,-0.3898,-0.1327,-0.0843,-0.2605,-0.2368,0.2651,-0.2566
-0.5003,-0.4606,0.0648,-0.165,-0.2033,0.1955,-0.447,-0.0065,-0.253,-0.3319,-0.3326,-0.2563,-0.5944,-0.5814,-0.6002,-0.712,-0.815,-0.5447,-0.5326,-0.5281,-0.3822,-0.4832,-0.1371,-0.4153,-0.1263,-0.0689,-0.2538,-0.2218,0.2367,-0.152
-0.6398,-0.6908,-0.0809,-0.4298,-0.4514,-0.006,-0.5039,-0.0468,-0.307,-0.3652,-0.3772,-0.2734,-0.6309,-0.7101,-0.7341,-0.9242,-1.0258,-0.7062,-0.7536,-0.7309,-0.5748,-0.6578,-0.3082,-0.4344,-0.1235,-0.0569,-0.2457,-0.2095,0.2085,-0.0469
-0.7772,-0.9088,-0.2334,-0.6769,-0.6693,-0.1837,-0.5426,-0.0781,-0.3496,-0.3861,-0.414,-0.2885,-0.6533,-0.8227,-0.8576,-1.1162,-1.2031,-0.8469,-0.9437,-0.9132,-0.7505,-0.8146,-0.4679,-0.4492,-0.1236,-0.0492,-0.239,-0.2014,0.1826,0.05
-0.9025,-1.1028,-0.3782,-0.8922,-0.8471,-0.3247,-0.566,-0.099,-0.3786,-0.3958,-0.4421,-0.3017,-0.6684,-0.9211,-0.9643,-1.2822,-1.3471,-0.9634,-1.0986,-1.0722,-0.9071,-0.9478,-0.6061,-0.462,-0.1252,-0.046,-0.2362,-0.1983,0.1597,0.1321
-1.0117,-1.2651,-0.5032,-1.0676,-0.982,-0.423,-0.5799,-0.1096,-0.3946,-0.398,-0.4622,-0.3141,-0.6839,-1.0097,-1.0522,-1.4209,-1.4629,-1.0571,-1.2201,-1.2096,-1.0453,-1.0559,-0.7184,-0.476,-0.1274,-0.0473,-0.2396,-0.2004,0.1405,0.1964
-1.1067,-1.3928,-0.5987,-1.2009,-1.0778,-0.4797,-0.5908,-0.1113,-0.3993,-0.398,-0.4767,-0.3276,-0.7071,-1.0933,-1.1234,-1.535,-1.5595,-1.1333,-1.3154,-1.3306,-1.168,-1.1414,-0.8056,-0.4942,-0.1301,-0.0531,-0.2509,-0.2075,0.1261,0.2427
-1.1928,-1.4873,-0.6585,-1.2951,-1.1416,-0.5013,-0.6038,-0.1055,-0.3952,-0.4005,-0.4878,-0.344,-0.7425,-1.1756,-1.1826,-1.6305,-1.6468,-1.1992,-1.3948,-1.4415,-1.2782,-1.2103,-0.8728,-0.5197,-0.134,-0.0636,-0.2711,-0.2195,0.118,0.2736
-1.2758,-1.5534,-0.6801,-1.3566,-1.1818,-0.4969,-0.6208,-0.0935,-0.3842,-0.4085,-0.4968,-0.3644,-0.7908,-1.2571,-1.2352,-1.7142,-1.7342,-1.2626,-1.4695,-1.5479,-1.378,-1.2702,-0.9274,-0.5546,-0.1412,-0.0791,-0.3008,-0.2361,0.1176,0.2932
-1.3591,-1.5975,-0.6666,-1.3932,-1.2052,-0.4758,-0.6397,-0.0758,-0.3668,-0.4222,-0.5035,-0.3886,-0.8487,-1.3348,-1.2864,-1.7921,-1.8274,-1.3292,-1.5479,-1.6526,-1.4672,-1.3281,-0.9771,-0.6,-0.1547,-0.1005,-0.3398,-0.2573,0.1256,0.3065
-1.4421,-1.6264,-0.6272,-1.4126,-1.2159,-0.4458,-0.6552,-0.052,-0.3419,-0.4389,-0.5055,-0.4145,-0.9091,-1.4026,-1.3409,-1.8679,-1.9273,-1.4019,-1.6345,-1.7549,-1.5432,-1.3891,-1.028,-0.6551,-0.1774,-0.1286,-0.387,-0.2825,0.1412,0.3193
-1.5207,-1.646,-0.5763,-1.4211,-1.2152,-0.413,-0.661,-0.0218,-0.3081,-0.4538,-0.4993,-0.4383,-0.9631,-1.4528,-1.4023,-1.9423,-2.0295,-1.4798,-1.7283,-1.8509,-1.602,-1.4548,-1.0833,-0.7172,-0.2115,-0.1634,-0.44,-0.3102,0.1627,0.3375
-1.5891,-1.6609,-0.5309,-1.4234,-1.2031,-0.3815,-0.651,0.0147,-0.2642,-0.4611,-0.4808,-0.4543,-1.0014,-1.4778,-1.4727,-2.0133,-2.1251,-1.5589,-1.8235,-1.9347,-1.6392,-1.5229,-1.143,-0.7809,-0.2568,-0.2036,-0.4947,-0.3374,0.1873,0.366
-1.6421,-1.6738,-0.5062,-1.4229,-1.1799,-0.3554,-0.6223,0.0561,-0.2109,-0.4558,-0.4472,-0.4567,-1.0162,-1.4727,-1.552,-2.0771,-2.203,-1.6324,-1.9107,-2.0002,-1.6515,-1.5878,-1.2041,-0.8391,-0.3104,-0.2458,-0.545,-0.3596,0.212,0.4071
-1.6768,-1.6864,-0.5117,-1.4225,-1.1476,-0.3393,-0.5756,0.0991,-0.1512,-0.4347,-0.3974,-0.44,-1.0025,-1.4361,-1.6359,-2.129,-2.2526,-1.6925,-1.9796,-2.0428,-1.6386,-1.6416,-1.2611,-0.8828,-0.3667,-0.2846,-0.5833,-0.3708,0.2342,0.4589
-1.6938,-1.6997,-0.5483,-1.4248,-1.1109,-0.3389,-0.5159,0.1387,-0.0903,-0.3976,-0.333,-0.4007,-0.959,-1.3711,-1.7169,-2.1651,-2.2666,-1.7316,-2.0213,-2.0606,-1.6031,-1.676,-1.308,-0.9033,-0.418,-0.3137,-0.6016,-0.3652,0.2519,0.5157
-1.6965,-1.7141,-0.6094,-1.4323,-1.0768,-0.3604,-0.4506,0.169,-0.0348,-0.3472,-0.2581,-0.3383,-0.8877,-1.2845,-1.7853,-2.183,-2.243,-1.7446,-2.0308,-2.0551,-1.5511,-1.6848,-1.3397,-0.8933,-0.4569,-0.327,-0.593,-0.3384,0.2636,0.5689
-1.6906,-1.7289,-0.6837,-1.4466,-1.0531,-0.4086,-0.3887,0.1838,0.0087,-0.2888,-0.179,-0.2559,-0.7942,-1.1857,-1.8328,-2.1822,-2.1852,-1.7301,-2.0077,-2.0307,-1.4904,-1.6652,-1.3533,-0.8489,-0.4771,-0.3202,-0.5537,-0.2893,0.2686,0.6108
-1.6833,-1.7422,-0.7598,-1.4678,-1.0463,-0.4852,-0.3376,0.1792,0.0353,-0.2287,-0.1027,-0.1602,-0.6862,-1.0847,-1.8561,-2.1643,-2.1014,-1.6906,-1.9563,-1.9936,-1.4295,-1.6187,-1.3488,-0.7708,-0.4755,-0.292,-0.484,-0.2201,0.2664,0.6371
-1.6812,-1.751,-0.8296,-1.4938,-1.0594,-0.5874,-0.3022,0.1541,0.0429,-0.1728,-0.0356,-0.0601,-0.5723,-0.9901,-1.8578,-2.1323,-2.002,-1.6327,-1.8845,-1.9504,-1.3753,-1.5506,-1.329,-0.6643,-0.4522,-0.2445,-0.389,-0.1371,0.2573,0.6484
-1.6891,-1.751,-0.8891,-1.5205,-1.0911,-0.7068,-0.2828,0.1121,0.0329,-0.1249,0.0175,0.0345,-0.4607,-0.9076,-1.8455,-2.09,-1.8983,-1.565,-1.8022,-1.9065,-1.3315,-1.4692,-1.2986,-0.5389,-0.411,-0.1831,-0.278,-0.0492,0.2417,0.6492
-1.708,-1.7387,-0.938,-1.5422,-1.1349,-0.8309,-0.2758,0.0605,0.0105,-0.0862,0.0546,0.1146,-0.3577,-0.839,-1.8285,-2.0411,-1.8,-1.4962,-1.7188,-1.8653,-1.2982,-1.3836,-1.2628,-0.4067,-0.3586,-0.1154,-0.1626,0.034,0.2204,0.6457
-1.7338,-1.7122,-0.9781,-1.5534,-1.1812,-0.9443,-0.2738,0.0097,-0.0173,-0.0549,0.0763,0.1737,-0.2672,-0.7822,-1.8137,-1.9888,-1.714,-1.433,-1.6418,-1.8274,-1.272,-1.3014,-1.2258,-0.2803,-0.3032,-0.0503,-0.0554,0.1034,0.194,0.6426
-1.7583,-1.672,-1.0107,-1.5496,-1.2184,-1.0321,-0.2681,-0.0292,-0.0423,-0.027,0.0854,0.2087,-0.1901,-0.7324,-1.8029,-1.9345,-1.6434,-1.3789,-1.5753,-1.7907,-1.2469,-1.2275,-1.1896,-0.171,-0.2534,0.0043,0.033,0.1525,0.1629,0.6413
-1.7702,-1.621,-1.0362,-1.5281,-1.2352,-1.0823,-0.2496,-0.0472,-0.0572,0.0027,0.0863,0.2206,-0.1245,-0.6826,-1.7914,-1.8779,-1.5871,-1.3325,-1.5184,-1.7504,-1.2154,-1.1626,-1.1533,-0.0859,-0.2162,0.0425,0.0957,0.1786,0.1274,0.6391
-1.7583,-1.5636,-1.0528,-1.4882,-1.2224,-1.0871,-0.2112,-0.039,-0.0569,0.0395,0.084,0.214,-0.0656,-0.6254,-1.7693,-1.8165,-1.5399,-1.2885,-1.4663,-1.7001,-1.1698,-1.103,-1.1138,-0.0273,-0.1961,0.0618,0.1313,0.1829,0.0875,0.6298
-1.7143,-1.5033,-1.0572,-1.4305,-1.1742,-1.0443,-0.1479,-0.0039,-0.0389,0.0882,0.0838,0.1968,-0.0067,-0.5538,-1.7243,-1.7461,-1.494,-1.2391,-1.4108,-1.6327,-1.1033,-1.0418,-1.0658,0.0087,-0.1936,0.0637,0.1442,0.1714,0.0444,0.6058
-1.6353,-1.4417,-1.0461,-1.3559,-1.0884,-0.9568,-0.0577,0.0548,-0.0028,0.152,0.0912,0.1788,0.0602,-0.4619,-1.6459,-1.662,-1.4409,-1.1754,-1.3432,-1.5418,-1.0105,-0.9708,-1.004,0.0306,-0.206,0.0533,0.1434,0.1531,0,0.5597
-1.5249,-1.3775,-1.0175,-1.2654,-0.9668,-0.8318,0.0586,0.1305,0.0498,0.2324,0.111,0.1702,0.1424,-0.3468,-1.5288,-1.5602,-1.3736,-1.091,-1.2564,-1.4234,-0.8888,-0.8824,-0.9244,0.0501,-0.2272,0.038,0.141,0.1389,-0.0419,0.4873
-1.3929,-1.3073,-0.973,-1.1602,-0.8147,-0.6794,0.1973,0.2151,0.1158,0.3287,0.1472,0.1797,0.2449,-0.2082,-1.3764,-1.4388,-1.288,-0.9829,-1.1466,-1.277,-0.7388,-0.7722,-0.8256,0.0788,-0.2499,0.0262,0.149,0.1393,-0.0769,0.3891
-1.2536,-1.2265,-0.9174,-1.0419,-0.6406,-0.5114,0.352,0.301,0.1916,0.438,0.2017,0.2125,0.3688,-0.05,-1.2018,-1.2993,-1.1835,-0.8539,-1.0153,-1.1063,-0.565,-0.6404,-0.71,0.1255,-0.2669,0.0248,0.1764,0.1619,-0.1003,0.2721
-1.1234,-1.132,-0.8585,-0.9136,-0.4552,-0.3398,0.5143,0.3818,0.2725,0.5552,0.2743,0.2693,0.51,0.12,-1.0266,-1.147,-1.0634,-0.7124,-0.8682,-0.9198,-0.3761,-0.4919,-0.5841,0.1938,-0.2725,0.038,0.2271,0.2095,-0.108,0.1487
-1.0177,-1.0242,-0.8053,-0.7811,-0.2711,-0.1762,0.6737,0.4529,0.3538,0.6735,0.3617,0.3458,0.6597,0.2905,-0.8768,-0.9908,-0.9341,-0.5708,-0.7154,-0.7298,-0.1846,-0.3365,-0.4572,0.2811,-0.2643,0.066,0.2986,0.2793,-0.0975,0.0346
-0.9479,-0.9082,-0.7661,-0.6526,-0.1019,-0.0306,0.8193,0.5115,0.4302,0.7851,0.4578,0.434,0.8053,0.4479,-0.7767,-0.8423,-0.805,-0.4439,-0.5693,-0.5515,-0.0056,-0.1867,-0.3404,0.379,-0.2432,0.1052,0.383,0.3635,-0.0685,-0.0554
-0.9198,-0.7944,-0.7469,-0.5389,0.0394,0.0884,0.9403,0.556,0.4963,0.882,0.5551,0.5239,0.9323,0.5781,-0.7423,-0.7142,-0.6876,-0.3454,-0.4432,-0.4005,0.145,-0.056,-0.2443,0.4755,-0.213,0.1495,0.469,0.4511,-0.0235,-0.1119
-0.932,-0.6967,-0.7501,-0.4514,0.1418,0.1744,1.0277,0.5853,0.5475,0.9568,0.6453,0.6055,1.0272,0.6687,-0.776,-0.6182,-0.5944,-0.2851,-0.3487,-0.2909,0.2528,0.0435,-0.1769,0.5575,-0.1795,0.1915,0.5443,0.5308,0.0319,-0.1339
-0.9764,-0.6296,-0.7741,-0.3998,0.1978,0.2242,1.0759,0.5988,0.5804,1.004,0.721,0.6716,1.0802,0.7112,-0.8659,-0.5629,-0.5371,-0.267,-0.2941,-0.2323,0.308,0.1032,-0.1423,0.6142,-0.1479,0.2256,0.5989,0.5934,0.0893,-0.1286
-1.0399,-0.6043,-0.8132,-0.3896,0.2055,0.238,1.0837,0.5967,0.5937,1.0213,0.7773,0.7181,1.0872,0.7035,-0.988,-0.5522,-0.5234,-0.288,-0.2827,-0.2283,0.3071,0.1199,-0.1397,0.6395,-0.1219,0.2488,0.6274,0.6343,0.1392,-0.109
-1.1073,-0.6257,-0.8597,-0.4204,0.1694,0.2205,1.055,0.5801,0.5886,1.0099,0.8122,0.745,1.051,0.6499,-1.1132,-0.5838,-0.5551,-0.3395,-0.3114,-0.2751,0.2546,0.0964,-0.164,0.6333,-0.1027,0.2617,0.6297,0.6535,0.173,-0.0892
-1.1652,-0.6903,-0.9055,-0.4848,0.0994,0.1798,0.9984,0.5519,0.5687,0.9746,0.8269,0.7551,0.981,0.5616,-1.2144,-0.6501,-0.6262,-0.4084,-0.3718,-0.362,0.1622,0.0405,-0.2066,0.6017,-0.0888,0.2679,0.6106,0.655,0.1854,-0.0796
-1.2045,-0.7865,-0.9442,-0.5707,0.0093,0.1263,0.9258,0.5162,0.5396,0.923,0.8251,0.7532,0.891,0.4538,-1.2738,-0.7389,-0.7238,-0.4808,-0.4513,-0.4735,0.0464,-0.0361,-0.258,0.555,-0.0774,0.2728,0.5788,0.6456,0.1761,-0.0839
-1.2221,-0.8974,-0.9718,-0.663,-0.0861,0.0708,0.8495,0.4778,0.5071,0.8638,0.8115,0.7443,0.7965,0.343,-1.2861,-0.8365,-0.8307,-0.5447,-0.5358,-0.5921,-0.0743,-0.1204,-0.309,0.5052,-0.065,0.2817,0.5441,0.6323,0.1496,-0.0982
-1.2207,-1.0043,-0.9873,-0.7476,-0.1742,0.0219,0.7798,0.4411,0.4765,0.8048,0.7908,0.7321,0.7113,0.2438,-1.2582,-0.9296,-0.9286,-0.592,-0.6127,-0.7017,-0.1834,-0.2005,-0.3531,0.4631,-0.0494,0.298,0.5151,0.621,0.1145,-0.1135
-1.2067,-1.0912,-0.9913,-0.8137,-0.2469,-0.0152,0.7226,0.4096,0.4506,0.7509,0.7658,0.7184,0.6447,0.1661,-1.2054,-1.0077,-1.0025,-0.6196,-0.6726,-0.7903,-0.2693,-0.2678,-0.3873,0.4357,-0.0297,0.323,0.498,0.6152,0.0805,-0.1191
-1.1875,-1.1475,-0.9855,-0.8556,-0.3009,-0.0392,0.6791,0.3841,0.4292,0.7034,0.7375,0.7029,0.6006,0.1135,-1.1453,-1.064,-1.0429,-0.6291,-0.7111,-0.851,-0.3263,-0.3175,-0.4118,0.4253,-0.0066,0.3549,0.4948,0.6156,0.0564,-0.1067
-1.1683,-1.1697,-0.9714,-0.873,-0.3376,-0.0525,0.6457,0.3638,0.4099,0.6608,0.7048,0.6842,0.5771,0.084,-1.0924,-1.0958,-1.0469,-0.6248,-0.7277,-0.8824,-0.3548,-0.3487,-0.4295,0.4297,0.0176,0.3899,0.5036,0.6204,0.0483,-0.0735
-1.1509,-1.161,-0.9501,-0.8699,-0.3612,-0.059,0.6159,0.3458,0.3894,0.6195,0.666,0.6599,0.5679,0.0709,-1.0541,-1.1042,-1.0185,-0.6125,-0.7259,-0.8875,-0.3602,-0.3637,-0.4449,0.4431,0.0403,0.4233,0.52,0.6262,0.0584,-0.0235
-1.1334,-1.1295,-0.9222,-0.8529,-0.3772,-0.0634,0.5827,0.3266,0.364,0.5758,0.6195,0.6287,0.5643,0.0654,-1.0306,-1.0924,-0.9664,-0.5975,-0.711,-0.8722,-0.3504,-0.3669,-0.4619,0.4579,0.0591,0.4501,0.5378,0.6293,0.0857,0.0342
-1.1117,-1.0858,-0.8882,-0.829,-0.3903,-0.0691,0.5406,0.3032,0.332,0.5272,0.5646,0.5904,0.5579,0.059,-1.0169,-1.0654,-0.9015,-0.584,-0.6891,-0.8437,-0.3341,-0.3635,-0.4833,0.4673,0.072,0.4667,0.551,0.6266,0.1272,0.0881
-1.0818,-1.0394,-0.8491,-0.8037,-0.4032,-0.0772,0.487,0.2738,0.2934,0.4736,0.5028,0.5463,0.5417,0.0453,-1.0063,-1.0279,-0.8341,-0.5742,-0.6655,-0.8084,-0.3186,-0.3582,-0.51,0.4663,0.0779,0.4708,0.5551,0.6165,0.179,0.1279
-1.0413,-0.9966,-0.8066,-0.7796,-0.4156,-0.086,0.4229,0.2386,0.2499,0.4169,0.4368,0.4988,0.5125,0.0221,-0.9934,-0.9837,-0.7712,-0.5686,-0.6436,-0.7709,-0.3087,-0.3543,-0.5402,0.4523,0.0767,0.4618,0.5475,0.5987,0.2374,0.1478
-0.9907,-0.9588,-0.7616,-0.756,-0.4246,-0.0913,0.3532,0.1998,0.2052,0.361,0.3709,0.4506,0.4705,-0.0089,-0.9754,-0.9347,-0.7157,-0.5657,-0.6244,-0.7331,-0.3053,-0.353,-0.5702,0.426,0.0685,0.44,0.5278,0.574,0.2989,0.1469
-0.9329,-0.9235,-0.7138,-0.7294,-0.4257,-0.0871,0.2849,0.1616,0.1633,0.3106,0.3095,0.4043,0.4192,-0.0424,-0.9519,-0.8812,-0.6667,-0.5627,-0.6067,-0.6948,-0.3065,-0.3534,-0.5948,0.3898,0.0536,0.4068,0.4976,0.5431,0.3597,0.1287
-0.8728,-0.8857,-0.6619,-0.6955,-0.4141,-0.0678,0.226,0.1288,0.1286,0.2703,0.2568,0.3612,0.3643,-0.0714,-0.9228,-0.8228,-0.6213,-0.5563,-0.588,-0.6543,-0.3083,-0.3533,-0.6088,0.3472,0.0325,0.3636,0.4593,0.5071,0.4159,0.0986
-0.8154,-0.8408,-0.6044,-0.6509,-0.3864,-0.0297,0.1834,0.1061,0.1052,0.2435,0.2161,0.3219,0.3118,-0.0889,-0.8877,-0.7598,-0.5773,-0.5434,-0.5658,-0.6101,-0.3065,-0.3496,-0.6078,0.3017,0.006,0.3126,0.4163,0.4667,0.4631,0.0617
-0.7647,-0.7866,-0.5412,-0.5947,-0.3426,0.0272,0.1611,0.0965,0.0958,0.2315,0.1891,0.2861,0.2669,-0.0906,-0.8447,-0.6941,-0.5337,-0.5216,-0.5383,-0.5623,-0.2976,-0.3402,-0.5894,0.2565,-0.0245,0.257,0.3716,0.4229,0.4965,0.0218
-0.7226,-0.7242,-0.4747,-0.5292,-0.2853,0.0991,0.1597,0.1009,0.1013,0.2332,0.175,0.2526,0.2326,-0.0755,-0.7917,-0.6293,-0.4915,-0.4902,-0.5048,-0.5125,-0.2806,-0.3236,-0.5537,0.2138,-0.0566,0.2003,0.328,0.3768,0.5119,-0.0186
-0.6893,-0.6575,-0.4093,-0.459,-0.2201,0.1792,0.1756,0.1176,0.1202,0.2451,0.1711,0.2196,0.209,-0.0463,-0.7271,-0.57,-0.4527,-0.4495,-0.4658,-0.4643,-0.2569,-0.2999,-0.5027,0.1752,-0.0871,0.1467,0.2873,0.3293,0.5065,-0.0576
-0.6631,-0.5914,-0.3503,-0.39,-0.1538,0.2592,0.2026,0.1427,0.1489,0.2622,0.1724,0.1855,0.1939,-0.0088,-0.6508,-0.5207,-0.4187,-0.4014,-0.4224,-0.4216,-0.2293,-0.27,-0.4401,0.1412,-0.1127,0.0995,0.25,0.2814,0.4796,-0.0933
-0.6414,-0.531,-0.3017,-0.3276,-0.093,0.3317,0.2329,0.1711,0.1818,0.2783,0.1735,0.1487,0.183,0.0296,-0.5652,-0.4841,-0.3893,-0.3482,-0.3756,-0.3875,-0.2019,-0.236,-0.3705,0.1119,-0.1307,0.0607,0.2156,0.2335,0.4334,-0.1231
-0.6205,-0.4794,-0.2646,-0.2756,-0.0429,0.391,0.2588,0.1971,0.2128,0.2879,0.1691,0.1088,0.1717,0.0619,-0.4752,-0.4601,-0.3629,-0.2932,-0.3272,-0.3631,-0.178,-0.2002,-0.2986,0.0863,-0.1398,0.0307,0.182,0.186,0.373,-0.1438
-0.5968,-0.438,-0.2362,-0.2357,-0.0064,0.4345,0.274,0.2159,0.2362,0.2868,0.1559,0.0665,0.1557,0.0825,-0.3883,-0.4461,-0.3366,-0.2406,-0.2786,-0.3475,-0.16,-0.1653,-0.2293,0.063,-0.1405,0.0073,0.1469,0.1391,0.3056,-0.152
-0.5673,-0.4061,-0.2108,-0.2078,0.0158,0.4619,0.2747,0.224,0.2478,0.2728,0.1327,0.0237,0.1325,0.0883,-0.3135,-0.4373,-0.3082,-0.1948,-0.2322,-0.3376,-0.1485,-0.1345,-0.1676,0.0398,-0.1352,-0.0128,0.1077,0.0935,0.24,-0.1443
-0.5301,-0.3815,-0.182,-0.1898,0.0247,0.4747,0.2593,0.2198,0.2456,0.2455,0.1004,-0.0165,0.1009,0.0786,-0.2601,-0.4282,-0.2772,-0.1608,-0.1909,-0.3296,-0.143,-0.111,-0.1176,0.0144,-0.1277,-0.0335,0.0627,0.0504,0.1847,-0.1189
-0.4858,-0.3609,-0.1453,-0.1789,0.0224,0.4747,0.2282,0.2028,0.2292,0.2062,0.0618,-0.0508,0.0619,0.0547,-0.236,-0.4137,-0.245,-0.1429,-0.1581,-0.3196,-0.1425,-0.0981,-0.0827,-0.0152,-0.1221,-0.0581,0.0114,0.0118,0.1474,-0.0757
-0.4368,-0.3408,-0.1001,-0.172,0.0109,0.4631,0.1835,0.174,0.1996,0.1575,0.0202,-0.0762,0.0176,0.0194,-0.245,-0.3907,-0.2148,-0.1436,-0.1367,-0.3051,-0.1456,-0.0982,-0.065,-0.0503,-0.122,-0.088,-0.0446,-0.0199,0.1336,-0.0175
-0.3878,-0.318,-0.0503,-0.1663,-0.0079,0.4404,0.1276,0.1348,0.1586,0.1022,-0.021,-0.0907,-0.0286,-0.0239,-0.2859,-0.3578,-0.1901,-0.1622,-0.1286,-0.2847,-0.1513,-0.1126,-0.0644,-0.0904,-0.1293,-0.1226,-0.1023,-0.0424,0.1458,0.05
-0.3437,-0.2902,-0.0028,-0.1601,-0.0331,0.4058,0.0638,0.0872,0.1083,0.0437,-0.0594,-0.0937,-0.0732,-0.0711,-0.3507,-0.3155,-0.1731,-0.1951,-0.1336,-0.2587,-0.159,-0.1403,-0.0787,-0.1336,-0.1436,-0.1588,-0.1573,-0.0542,0.1831,0.1187
-0.3091,-0.2563,0.0343,-0.1529,-0.0643,0.3588,-0.0045,0.0331,0.0509,-0.0151,-0.094,-0.0867,-0.113,-0.1182,-0.4261,-0.2658,-0.1645,-0.2351,-0.149,-0.2279,-0.1677,-0.1777,-0.1033,-0.1762,-0.1628,-0.1923,-0.2045,-0.055,0.2406,0.1792
-0.2863,-0.2165,0.0544,-0.1451,-0.101,0.3001,-0.0738,-0.0256,-0.0117,-0.0715,-0.1249,-0.0729,-0.1451,-0.1611,-0.4954,-0.2114,-0.1629,-0.2736,-0.17,-0.1937,-0.1762,-0.2193,-0.1324,-0.2139,-0.1828,-0.2181,-0.2397,-0.0461,0.3096,0.2224
-0.2746,-0.1725,0.0541,-0.1377,-0.1422,0.2323,-0.1402,-0.0864,-0.0768,-0.1236,-0.1534,-0.0564,-0.168,-0.1957,-0.5422,-0.1551,-0.1657,-0.3018,-0.1908,-0.1572,-0.1826,-0.258,-0.1594,-0.2423,-0.1992,-0.2323,-0.2597,-0.0304,0.3796,0.2419
-0.2703,-0.1262,0.0344,-0.1315,-0.1855,0.1605,-0.2003,-0.1466,-0.1413,-0.1702,-0.1811,-0.0417,-0.1814,-0.2183,-0.554,-0.0991,-0.1695,-0.3134,-0.2059,-0.1195,-0.1847,-0.2869,-0.1788,-0.2581,-0.2085,-0.2332,-0.2636,-0.0118,0.4399,0.2349
-0.2672,-0.0795,0.0004,-0.1263,-0.2267,0.092,-0.2503,-0.2026,-0.2013,-0.2103,-0.2093,-0.0327,-0.186,-0.2259,-0.5254,-0.0453,-0.1713,-0.3051,-0.2106,-0.0808,-0.1796,-0.3,-0.187,-0.2597,-0.2092,-0.2217,-0.2527,0.0056,0.482,0.2037
-0.2571,-0.0334,-0.0396,-0.1204,-0.2599,0.0354,-0.2873,-0.2504,-0.2526,-0.2436,-0.2379,-0.0317,-0.1831,-0.2164,-0.4587,0.0056,-0.1682,-0.2779,-0.2026,-0.0411,-0.1646,-0.2942,-0.1829,-0.2475,-0.2023,-0.2016,-0.2303,0.0177,0.5015,0.155
-0.2316,0.0121,-0.0754,-0.1104,-0.2783,-0.0013,-0.3086,-0.2857,-0.2909,-0.2696,-0.2659,-0.0388,-0.1737,-0.1886,-0.363,0.0538,-0.1578,-0.2356,-0.1809,0.0001,-0.1377,-0.2686,-0.1678,-0.2237,-0.1911,-0.1785,-0.2008,0.022,0.4983,0.0992
-0.1832,0.0586,-0.0966,-0.0923,-0.2749,-0.0118,-0.3124,-0.3045,-0.3128,-0.2877,-0.2904,-0.052,-0.1582,-0.1427,-0.2513,0.1002,-0.1379,-0.1841,-0.1458,0.0441,-0.0973,-0.2249,-0.1445,-0.1911,-0.1803,-0.1582,-0.1685,0.0178,0.4766,0.0479
-0.1067,0.1082,-0.0946,-0.0619,-0.2444,0.007,-0.2979,-0.304,-0.3165,-0.2966,-0.3077,-0.0674,-0.1356,-0.0799,-0.1372,0.1468,-0.1065,-0.1289,-0.0984,0.0922,-0.0432,-0.1665,-0.1163,-0.1526,-0.1736,-0.1448,-0.1365,0.0074,0.4427,0.0119
-0.0014,0.163,-0.0636,-0.0163,-0.1847,0.0546,-0.2653,-0.2833,-0.3025,-0.2951,-0.3142,-0.0801,-0.1041,-0.0027,-0.0314,0.1953,-0.0624,-0.0742,-0.0405,0.1453,0.0235,-0.0973,-0.0858,-0.1101,-0.1732,-0.1392,-0.1057,-0.0049,0.4043,-0.0018
0.1287,0.2239,-0.0018,0.0444,-0.0977,0.1269,-0.2168,-0.2438,-0.2737,-0.2825,-0.307,-0.0852,-0.0616,0.0849,0.0597,0.2469,-0.0061,-0.0224,0.026,0.2032,0.1,-0.0213,-0.0546,-0.0647,-0.1784,-0.1393,-0.0755,-0.0131,0.3681,0.0092
0.2736,0.2893,0.0878,0.1167,0.0097,0.2162,-0.1565,-0.1897,-0.2353,-0.2592,-0.2854,-0.0799,-0.0076,0.1777,0.1338,0.3008,0.0606,0.0258,0.0981,0.2642,0.1816,0.0576,-0.0227,-0.0167,-0.1862,-0.1406,-0.0445,-0.012,0.3393,0.0417
0.4183,0.3551,0.197,0.1936,0.1267,0.3127,-0.0905,-0.1277,-0.1946,-0.2277,-0.2514,-0.0637,0.0564,0.2691,0.1915,0.3541,0.1338,0.0707,0.1722,0.3242,0.2622,0.1358,0.0105,0.0335,-0.1923,-0.1379,-0.0115,0.0019,0.3208,0.088
0.545,0.4152,0.3129,0.266,0.2404,0.4051,-0.0264,-0.0657,-0.1588,-0.1922,-0.2094,-0.039,0.1257,0.352,0.2346,0.4018,0.2083,0.1127,0.2438,0.3778,0.3349,0.2102,0.0461,0.0851,-0.1916,-0.127,0.0236,0.0291,0.313,0.138
0.6365,0.462,0.4198,0.3242,0.3377,0.4826,0.0282,-0.012,-0.1344,-0.1579,-0.165,-0.0104,0.1937,0.4197,0.2651,0.4376,0.2783,0.1524,0.3083,0.4185,0.3926,0.2781,0.0855,0.1372,-0.1799,-0.1055,0.0598,0.0673,0.3141,0.1808
0.6809,0.489,0.5028,0.3605,0.4086,0.5363,0.067,0.0266,-0.1252,-0.1299,-0.1241,0.0174,0.253,0.467,0.2845,0.4555,0.338,0.1895,0.3616,0.4411,0.4302,0.3374,0.1299,0.1883,-0.154,-0.073,0.0952,0.1123,0.3206,0.2071
0.6743,0.492,0.5509,0.371,0.4479,0.5608,0.0864,0.0456,-0.132,-0.1118,-0.0917,0.0398,0.2973,0.4912,0.2945,0.4514,0.3825,0.2238,0.4009,0.4424,0.445,0.3871,0.18,0.2374,-0.1129,-0.031,0.1282,0.1593,0.3274,0.2113
0.6226,0.4703,0.5602,0.3564,0.4564,0.5548,0.0862,0.0435,-0.1526,-0.1057,-0.0709,0.0541,0.3226,0.4928,0.2977,0.4244,0.4085,0.2548,0.4251,0.4225,0.4376,0.427,0.2353,0.2835,-0.0578,0.0173,0.1575,0.2038,0.329,0.1916
0.54,0.4277,0.534,0.3221,0.44,0.5214,0.0692,0.0214,-0.1828,-0.1112,-0.0632,0.0589,0.3278,0.4751,0.2982,0.3778,0.4153,0.2824,0.4352,0.3852,0.4121,0.4572,0.2942,0.326,0.0079,0.0675,0.1824,0.2417,0.3202,0.1513
0.4454,0.3717,0.482,0.2767,0.4083,0.4673,0.0402,-0.0175,-0.2175,-0.1268,-0.0684,0.0547,0.3149,0.4437,0.3006,0.3183,0.4055,0.3065,0.4338,0.3369,0.3748,0.4784,0.3533,0.3639,0.0784,0.1146,0.2022,0.2705,0.2977,0.0977
0.358,0.3121,0.417,0.2308,0.3717,0.4018,0.0052,-0.0682,-0.2514,-0.1494,-0.0847,0.0428,0.2876,0.405,0.309,0.2552,0.3841,0.3276,0.4251,0.2858,0.3337,0.4913,0.4081,0.3959,0.1466,0.1536,0.2167,0.2882,0.2611,0.0412
0.2937,0.2594,0.3519,0.1941,0.3393,0.3346,-0.0309,-0.1251,-0.2802,-0.1758,-0.1096,0.0252,0.251,0.3655,0.3257,0.1984,0.3581,0.3458,0.4134,0.2402,0.2963,0.4962,0.4533,0.4206,0.2051,0.1799,0.2253,0.294,0.2132,-0.0071
0.2623,0.2225,0.2968,0.174,0.3167,0.2741,-0.0641,-0.1824,-0.3007,-0.2028,-0.1391,0.0045,0.2101,0.3304,0.351,0.1563,0.3338,0.3606,0.402,0.207,0.269,0.4935,0.4839,0.436,0.2471,0.1905,0.2274,0.2878,0.16,-0.0377
0.2661,0.2067,0.258,0.1736,0.3052,0.2259,-0.0927,-0.2352,-0.3107,-0.2278,-0.1693,-0.017,0.169,0.3029,0.3828,0.1339,0.3155,0.3712,0.393,0.1903,0.2551,0.4832,0.4959,0.4403,0.2678,0.1838,0.2225,0.2701,0.1096,-0.0458
0.3006,0.2122,0.2381,0.1913,0.3018,0.1919,-0.1168,-0.2798,-0.3096,-0.2494,-0.1959,-0.037,0.1304,0.2839,0.4173,0.1319,0.3039,0.3757,0.3859,0.191,0.2551,0.4651,0.4875,0.4322,0.265,0.1602,0.2103,0.2423,0.0705,-0.0314
0.3562,0.2346,0.2376,0.2216,0.3007,0.1707,-0.1377,-0.3136,-0.2978,-0.2669,-0.2154,-0.0538,0.0959,0.2719,0.449,0.1464,0.2967,0.3719,0.3789,0.2066,0.2661,0.4394,0.4593,0.4112,0.2393,0.1224,0.1911,0.2067,0.0501,0.0003
0.4207,0.266,0.2563,0.2565,0.2956,0.1583,-0.1571,-0.3357,-0.2764,-0.2805,-0.2256,-0.0661,0.0654,0.2637,0.4716,0.171,0.29,0.3574,0.3695,0.2322,0.2834,0.4066,0.4144,0.3781,0.1942,0.0746,0.1664,0.1668,0.0532,0.0417
0.482,0.2977,0.294,0.288,0.2815,0.1502,-0.1761,-0.3458,-0.2474,-0.2905,-0.2253,-0.0728,0.0386,0.2557,0.4786,0.1981,0.2805,0.3314,0.3562,0.2623,0.3014,0.3682,0.3582,0.3352,0.1356,0.023,0.1388,0.1271,0.0813,0.0847
0.5308,0.3229,0.3509,0.3106,0.2566,0.1429,-0.1942,-0.3444,-0.2128,-0.297,-0.2149,-0.0729,0.015,0.245,0.4655,0.2223,0.2674,0.2947,0.3391,0.2925,0.3157,0.3268,0.2978,0.2865,0.0709,-0.0255,0.1122,0.0928,0.1323,0.1225
0.5619,0.339,0.4256,0.3226,0.2233,0.1347,-0.2094,-0.3325,-0.1748,-0.2998,-0.1957,-0.0657,-0.0051,0.2306,0.4314,0.241,0.2528,0.2506,0.3205,0.3205,0.3239,0.286,0.2403,0.2371,0.0078,-0.0641,0.0914,0.069,0.2007,0.1506
0.5753,0.3477,0.5136,0.3263,0.1871,0.1258,-0.2189,-0.3117,-0.1356,-0.2984,-0.1702,-0.0509,-0.0208,0.2131,0.3791,0.2551,0.2402,0.2042,0.3036,0.3459,0.3259,0.2494,0.1915,0.1927,-0.0469,-0.0873,0.0806,0.0599,0.2788,0.1671
0.5752,0.354,0.6065,0.3268,0.1555,0.1178,-0.2196,-0.2844,-0.0975,-0.292,-0.1414,-0.0287,-0.0305,0.195,0.3159,0.2674,0.2324,0.1611,0.2913,0.3702,0.3234,0.2199,0.155,0.1578,-0.0881,-0.0924,0.0829,0.0676,0.3574,0.1722
0.5687,0.3644,0.6924,0.3305,0.1355,0.1132,-0.2095,-0.2539,-0.0629,-0.2801,-0.1123,-0.0002,-0.0325,0.1796,0.2516,0.281,0.2302,0.1262,0.2848,0.3946,0.3195,0.1994,0.1311,0.1356,-0.1133,-0.0795,0.0988,0.0917,0.4276,0.1674
0.5642,0.3844,0.7585,0.3427,0.1329,0.1142,-0.188,-0.2234,-0.034,-0.2626,-0.0854,0.0332,-0.0255,0.1704,0.197,0.2984,0.2311,0.1028,0.2834,0.4204,0.3171,0.1883,0.1178,0.1271,-0.1222,-0.0517,0.1264,0.1293,0.4816,0.155
0.5692,0.417,0.7947,0.3671,0.1506,0.1227,-0.156,-0.1959,-0.0122,-0.2392,-0.0614,0.07,-0.0083,0.1701,0.1621,0.3201,0.2311,0.0922,0.2852,0.4476,0.3188,0.186,0.1117,0.1315,-0.1162,-0.0138,0.1619,0.1762,0.5142,0.1364
0.5893,0.4619,0.797,0.4045,0.189,0.1395,-0.1156,-0.1733,0.0021,-0.2099,-0.0399,0.1092,0.0197,0.1809,0.1547,0.3455,0.2259,0.0946,0.2884,0.4756,0.3267,0.1918,0.1099,0.1469,-0.0978,0.0291,0.2005,0.2276,0.5233,0.1125
0.6274,0.5161,0.77,0.4532,0.2453,0.1642,-0.0697,-0.1565,0.0095,-0.1749,-0.0186,0.15,0.0583,0.2034,0.1787,0.3732,0.2128,0.1089,0.292,0.5031,0.342,0.2055,0.111,0.1714,-0.0698,0.0723,0.2377,0.279,0.5104,0.0835
0.6842,0.5741,0.7261,0.5087,0.3146,0.1948,-0.0219,-0.1455,0.011,-0.135,0.0047,0.192,0.1065,0.2371,0.2332,0.4015,0.1922,0.1333,0.2966,0.5288,0.3649,0.227,0.1152,0.2032,-0.0346,0.1124,0.2703,0.3268,0.48,0.0503
0.7575,0.6295,0.6821,0.5648,0.3895,0.2269,0.0241,-0.1398,0.0078,-0.0922,0.0319,0.2343,0.1618,0.2797,0.3118,0.4293,0.1675,0.1651,0.3038,0.5512,0.3941,0.2564,0.124,0.2411,0.0052,0.1478,0.2966,0.3687,0.4393,0.0159
0.8427,0.676,0.6549,0.6145,0.4614,0.2547,0.0642,-0.1386,0.0009,-0.0494,0.0634,0.2756,0.2202,0.3271,0.4025,0.4557,0.1442,0.2004,0.3152,0.5691,0.4272,0.2929,0.1389,0.2842,0.0475,0.1775,0.3165,0.4033,0.3964,-0.0143
0.9327,0.7087,0.6559,0.6505,0.5209,0.2719,0.0946,-0.1411,-0.0089,-0.0107,0.0975,0.3134,0.2759,0.3737,0.4901,0.48,0.1281,0.2347,0.3319,0.5811,0.46,0.3342,0.1601,0.3308,0.0898,0.2017,0.3307,0.4301,0.3592,-0.0331
1.0181,0.7241,0.6878,0.6666,0.5594,0.2726,0.1117,-0.1463,-0.0208,0.0199,0.1311,0.3448,0.3223,0.4131,0.5589,0.5017,0.1239,0.2633,0.3533,0.5858,0.4878,0.3767,0.1859,0.3785,0.1297,0.2204,0.34,0.4488,0.3337,-0.0335
1.0884,0.7209,0.7435,0.6589,0.5702,0.2528,0.113,-0.1531,-0.0337,0.0389,0.1598,0.3671,0.3525,0.4392,0.5974,0.5196,0.134,0.2823,0.3773,0.582,0.5056,0.4155,0.2128,0.4237,0.1646,0.2342,0.3449,0.4593,0.3237,-0.0119
1.1334,0.6995,0.8083,0.6256,0.5495,0.2108,0.0971,-0.1605,-0.0467,0.0444,0.1794,0.3782,0.3611,0.4471,0.6008,0.5326,0.1576,0.29,0.4009,0.5693,0.5096,0.4458,0.2367,0.4623,0.1924,0.2438,0.3455,0.4619,0.3298,0.0311
1.145,0.662,0.8633,0.5683,0.4967,0.148,0.0642,-0.1675,-0.0589,0.0359,0.1867,0.3771,0.3449,0.434,0.5719,0.5395,0.1918,0.2868,0.421,0.5474,0.4977,0.4634,0.2533,0.49,0.2118,0.2503,0.3415,0.4573,0.3504,0.0898
1.1189,0.6118,0.8905,0.4905,0.4147,0.0674,0.0157,-0.1741,-0.0703,0.0144,0.1801,0.3639,0.3033,0.3992,0.5194,0.5393,0.2323,0.2752,0.4351,0.5172,0.4696,0.4659,0.2591,0.5029,0.2224,0.2548,0.3324,0.446,0.3815,0.1557
1.0549,0.5529,0.8766,0.3978,0.3084,-0.0266,-0.046,-0.1806,-0.0816,-0.018,0.1597,0.3399,0.2385,0.3441,0.4555,0.5315,0.2746,0.2585,0.4416,0.48,0.4273,0.452,0.2518,0.4981,0.2244,0.2583,0.3172,0.4287,0.4178,0.2195
0.9582,0.4894,0.816,0.2964,0.1844,-0.1296,-0.1183,-0.1884,-0.0941,-0.0593,0.1273,0.3068,0.1549,0.2718,0.3928,0.516,0.3142,0.24,0.4396,0.4376,0.3736,0.4221,0.2303,0.474,0.2188,0.2609,0.2953,0.406,0.4539,0.273
0.8388,0.4251,0.7114,0.192,0.0493,-0.2374,-0.1984,-0.1994,-0.1097,-0.1075,0.0861,0.2668,0.0586,0.1867,0.3419,0.4935,0.3474,0.222,0.4289,0.3921,0.3125,0.3778,0.1944,0.4308,0.2062,0.262,0.2663,0.3786,0.4843,0.3105
0.7105,0.3627,0.5733,0.0901,-0.0903,-0.3464,-0.2836,-0.2156,-0.1295,-0.161,0.0399,0.2225,-0.0438,0.0943,0.3101,0.4656,0.3709,0.2053,0.4096,0.3462,0.2484,0.3214,0.1447,0.3704,0.1874,0.2602,0.2303,0.3477,0.5048,0.3293
0.5896,0.3049,0.4181,-0.0046,-0.2276,-0.4535,-0.371,-0.2381,-0.1543,-0.2181,-0.0072,0.1767,-0.145,0.0014,0.3008,0.4352,0.3829,0.1896,0.3827,0.3033,0.1859,0.2564,0.0827,0.2969,0.1628,0.2543,0.1888,0.3148,0.5124,0.3301
0.4922,0.2539,0.2652,-0.0876,-0.3562,-0.5557,-0.4572,-0.2671,-0.1832,-0.277,-0.051,0.1329,-0.238,-0.0846,0.3136,0.4067,0.3839,0.1742,0.3507,0.2678,0.1301,0.1876,0.0109,0.2166,0.1333,0.2436,0.1448,0.2829,0.5057,0.3168
0.4318,0.2123,0.1337,-0.155,-0.4692,-0.6498,-0.5375,-0.3008,-0.2138,-0.3345,-0.0876,0.0949,-0.3161,-0.1556,0.3445,0.3856,0.3765,0.1585,0.3178,0.2442,0.0863,0.1207,-0.0668,0.137,0.1005,0.2286,0.1027,0.2554,0.4851,0.2952
0.4157,0.1828,0.0389,-0.2032,-0.5596,-0.7328,-0.6062,-0.3357,-0.2426,-0.386,-0.1129,0.0674,-0.3732,-0.2045,0.3876,0.3775,0.3659,0.1433,0.2895,0.2372,0.0596,0.0624,-0.1456,0.0665,0.0666,0.2113,0.0677,0.2368,0.4524,0.2719
0.4431,0.1674,-0.0106,-0.2298,-0.6218,-0.802,-0.6574,-0.3664,-0.2649,-0.4261,-0.1232,0.0547,-0.4047,-0.226,0.4352,0.3866,0.358,0.1301,0.2716,0.2495,0.0537,0.0184,-0.22,0.0127,0.0343,0.1941,0.0452,0.2307,0.4109,0.2531
0.5042,0.1674,-0.0153,-0.2342,-0.6519,-0.8555,-0.6854,-0.3869,-0.276,-0.4491,-0.1155,0.0604,-0.4078,-0.2178,0.4791,0.4144,0.3583,0.1205,0.2684,0.2816,0.0705,-0.0067,-0.2852,-0.0191,0.0061,0.1796,0.0391,0.2398,0.3651,0.2428
0.5813,0.1816,0.0149,-0.2182,-0.6489,-0.8924,-0.6863,-0.3917,-0.2721,-0.4505,-0.0881,0.0863,-0.3821,-0.181,0.5108,0.4586,0.3701,0.1159,0.2816,0.3306,0.1094,-0.0113,-0.3378,-0.0268,-0.0167,0.1689,0.0509,0.2639,0.3204,0.2421
0.6514,0.2068,0.0626,-0.1859,-0.6154,-0.9132,-0.6591,-0.3765,-0.2508,-0.4281,-0.0413,0.1315,-0.33,-0.1201,0.5226,0.5136,0.3935,0.1163,0.3092,0.3911,0.1671,0.0032,-0.3765,-0.0117,-0.0341,0.162,0.0793,0.3004,0.2822,0.2491
0.692,0.2378,0.1065,-0.143,-0.5568,-0.9191,-0.6056,-0.3397,-0.2122,-0.3825,0.022,0.1926,-0.2557,-0.042,0.5086,0.5707,0.425,0.1201,0.3461,0.4557,0.2383,0.0327,-0.4025,0.0218,-0.0479,0.157,0.1204,0.344,0.2554,0.2592
0.686,0.2682,0.1275,-0.0958,-0.4804,-0.9117,-0.5302,-0.2825,-0.1585,-0.3175,0.0968,0.2635,-0.1655,0.0456,0.4658,0.6208,0.4583,0.1246,0.3848,0.5166,0.3166,0.0716,-0.4185,0.0671,-0.0609,0.1513,0.1682,0.3884,0.2428,0.2664
0.6264,0.292,0.1138,-0.0495,-0.3938,-0.8921,-0.4391,-0.2086,-0.0938,-0.2392,0.1765,0.3371,-0.066,0.1353,0.3954,0.6556,0.4851,0.126,0.4171,0.5673,0.3958,0.1135,-0.4282,0.1171,-0.0766,0.1424,0.2163,0.4272,0.2454,0.2646
0.519,0.3049,0.0643,-0.0076,-0.3032,-0.8605,-0.3393,-0.1241,-0.0234,-0.155,0.2535,0.4055,0.0359,0.2208,0.3031,0.6696,0.4971,0.1208,0.4361,0.6034,0.4706,0.1528,-0.4354,0.1652,-0.0979,0.1279,0.2582,0.4547,0.2608,0.2497
0.381,0.305,-0.0117,0.0291,-0.2127,-0.816,-0.2374,-0.0358,0.0469,-0.0729,0.3208,0.4618,0.1341,0.298,0.1988,0.6609,0.4876,0.1065,0.4373,0.6234,0.5376,0.185,-0.443,0.2057,-0.127,0.1069,0.2888,0.4674,0.2843,0.2198
0.2372,0.2936,-0.098,0.0623,-0.1238,-0.7572,-0.1391,0.0491,0.1118,0,0.3727,0.5005,0.2233,0.3644,0.0949,0.6319,0.4535,0.0825,0.42,0.6286,0.5955,0.2078,-0.4525,0.2349,-0.1642,0.0797,0.3041,0.4636,0.3091,0.1762
0.1127,0.2747,-0.1767,0.0955,-0.0357,-0.6827,-0.049,0.1243,0.1665,0.0576,0.4055,0.5184,0.2991,0.4191,0.0043,0.588,0.396,0.0504,0.387,0.6226,0.6444,0.2209,-0.4638,0.2508,-0.208,0.0477,0.3023,0.4437,0.3278,0.1221
0.0273,0.2541,-0.2343,0.133,0.0531,-0.5923,0.0289,0.1845,0.2074,0.0956,0.4175,0.5143,0.3583,0.4618,-0.0613,0.5367,0.3205,0.0142,0.3438,0.6104,0.6858,0.2249,-0.4754,0.2527,-0.2547,0.0135,0.2832,0.4097,0.3335,0.0618
-0.0094,0.2379,-0.2649,0.178,0.1438,-0.4884,0.0915,0.226,0.2318,0.1111,0.4087,0.4891,0.3985,0.4924,-0.0941,0.4854,0.2351,-0.0209,0.2969,0.597,0.7208,0.2213,-0.4853,0.2409,-0.2998,-0.0201,0.2487,0.3647,0.3218,-0.0006
-0.0001,0.2306,-0.2709,0.2313,0.2353,-0.376,0.1357,0.2465,0.2377,0.1031,0.3807,0.4451,0.4178,0.5099,-0.0918,0.44,0.1493,-0.0499,0.2523,0.586,0.7498,0.211,-0.4921,0.2166,-0.3377,-0.0496,0.2022,0.313,0.2918,-0.0604
0.0426,0.2339,-0.2607,0.2899,0.3232,-0.2632,0.1591,0.2458,0.2245,0.0723,0.3361,0.3863,0.4149,0.5125,-0.059,0.4031,0.0714,-0.0698,0.2139,0.5783,0.7714,0.1938,-0.4953,0.1812,-0.3637,-0.0723,0.1483,0.2596,0.2459,-0.1129
0.0998,0.2457,-0.2451,0.3472,0.4003,-0.1597,0.1597,0.2255,0.193,0.0212,0.2789,0.3175,0.3892,0.4977,-0.0063,0.3738,0.0071,-0.0808,0.1826,0.572,0.7822,0.1683,-0.4963,0.1361,-0.3746,-0.0859,0.0921,0.2097,0.1897,-0.1527
0.1516,0.2604,-0.2332,0.3937,0.457,-0.0756,0.137,0.1898,0.1463,-0.0454,0.2139,0.2441,0.3406,0.4626,0.0507,0.348,-0.0421,-0.0864,0.1565,0.5619,0.7776,0.1322,-0.4976,0.0827,-0.3696,-0.0898,0.0386,0.168,0.1308,-0.1745
0.1825,0.2698,-0.2296,0.4191,0.4838,-0.0193,0.0921,0.1441,0.089,-0.121,0.147,0.1718,0.2705,0.4051,0.0951,0.3195,-0.0787,-0.0931,0.1316,0.5416,0.7524,0.0826,-0.5032,0.022,-0.3511,-0.0854,-0.009,0.138,0.0768,-0.1739
0.1841,0.2659,-0.2338,0.4148,0.4732,0.0039,0.0283,0.0951,0.0278,-0.1982,0.0844,0.1058,0.1817,0.3251,0.1111,0.282,-0.109,-0.109,0.1024,0.5043,0.7023,0.0171,-0.5169,-0.0453,-0.3249,-0.0764,-0.0492,0.1212,0.0349,-0.1484
0.1569,0.2425,-0.2416,0.3768,0.4226,-0.0071,-0.0495,0.0491,-0.0306,-0.2689,0.0322,0.0501,0.0788,0.2247,0.0879,0.2312,-0.1409,-0.1415,0.0635,0.4457,0.6258,-0.0655,-0.5419,-0.1186,-0.2989,-0.0684,-0.083,0.1166,0.0099,-0.0983
0.1084,0.1975,-0.2479,0.3065,0.3351,-0.0486,-0.1351,0.0113,-0.0794,-0.3264,-0.0048,0.0076,-0.0322,0.1091,0.0206,0.1654,-0.1828,-0.196,0.0109,0.3649,0.5248,-0.1641,-0.5794,-0.1972,-0.2819,-0.0679,-0.1131,0.1208,0.0038,-0.0271
0.0506,0.1332,-0.2487,0.2116,0.2198,-0.1131,-0.2212,-0.0147,-0.1133,-0.3657,-0.024,-0.0206,-0.144,-0.0142,-0.0878,0.0861,-0.2416,-0.2739,-0.0577,0.2654,0.405,-0.2753,-0.6282,-0.2795,-0.2814,-0.0807,-0.1433,0.129,0.0158,0.0585
-0.0042,0.0555,-0.2431,0.1034,0.0899,-0.1902,-0.301,-0.0275,-0.1293,-0.3848,-0.025,-0.0351,-0.2491,-0.1366,-0.2275,-0.0024,-0.3211,-0.3723,-0.142,0.1545,0.2752,-0.3934,-0.6846,-0.3629,-0.3012,-0.1105,-0.1769,0.1361,0.0431,0.1494
-0.0472,-0.0276,-0.2336,-0.005,-0.0392,-0.2691,-0.3689,-0.0278,-0.1271,-0.3847,-0.0103,-0.038,-0.3406,-0.2492,-0.3832,-0.0944,-0.4213,-0.4839,-0.2389,0.0412,0.1456,-0.5107,-0.7432,-0.4438,-0.3406,-0.1572,-0.2156,0.1375,0.0819,0.2349
-0.0758,-0.1082,-0.2247,-0.1022,-0.1537,-0.3399,-0.4206,-0.0178,-0.1089,-0.369,0.0156,-0.0328,-0.4133,-0.3451,-0.5363,-0.1846,-0.5382,-0.5985,-0.3431,-0.0654,0.0262,-0.619,-0.7975,-0.5173,-0.3938,-0.2166,-0.2586,0.1304,0.1289,0.3042
-0.0945,-0.1798,-0.2219,-0.1802,-0.2432,-0.3952,-0.4535,-0.0008,-0.079,-0.343,0.047,-0.0239,-0.4638,-0.4195,-0.6687,-0.2688,-0.6634,-0.7042,-0.4473,-0.1582,-0.0753,-0.7105,-0.8411,-0.5781,-0.4509,-0.281,-0.3032,0.1137,0.1823,0.348
-0.1144,-0.2386,-0.229,-0.2359,-0.3025,-0.4304,-0.4671,0.0197,-0.043,-0.3128,0.0776,-0.0166,-0.4912,-0.4711,-0.7659,-0.3449,-0.7861,-0.79,-0.5435,-0.2335,-0.1543,-0.7792,-0.8694,-0.6214,-0.5006,-0.3416,-0.3451,0.0872,0.2423,0.3602
-0.1498,-0.2837,-0.247,-0.2707,-0.3318,-0.4444,-0.4622,0.0405,-0.0068,-0.2839,0.1017,-0.0164,-0.4973,-0.5017,-0.8199,-0.4131,-0.8949,-0.8476,-0.6245,-0.2913,-0.2102,-0.8223,-0.8797,-0.6439,-0.5326,-0.3901,-0.3804,0.051,0.3103,0.3385
-0.2153,-0.3166,-0.2739,-0.2898,-0.3357,-0.4389,-0.4413,0.0589,0.0246,-0.261,0.1148,-0.028,-0.4855,-0.516,-0.8298,-0.4753,-0.9805,-0.8734,-0.6855,-0.3346,-0.246,-0.84,-0.872,-0.645,-0.5404,-0.4213,-0.4066,0.0054,0.3879,0.2848
-0.3215,-0.3408,-0.3056,-0.3001,-0.322,-0.4182,-0.4081,0.0735,0.0478,-0.2469,0.1146,-0.055,-0.461,-0.5201,-0.8015,-0.5349,-1.0379,-0.8687,-0.7252,-0.3689,-0.2672,-0.8361,-0.8488,-0.6267,-0.5217,-0.4338,-0.4231,-0.0499,0.4762,0.2041
-0.4715,-0.3604,-0.3382,-0.3082,-0.2991,-0.3876,-0.3669,0.0835,0.0615,-0.2425,0.101,-0.0977,-0.4293,-0.5203,-0.7448,-0.595,-1.0681,-0.8389,-0.7461,-0.3998,-0.2804,-0.8164,-0.8139,-0.5936,-0.4792,-0.4298,-0.4316,-0.114,0.5751,0.1035
-0.6593,-0.3793,-0.3691,-0.3192,-0.2742,-0.3527,-0.3221,0.0897,0.0669,-0.2462,0.0769,-0.1536,-0.3952,-0.5214,-0.6716,-0.6581,-1.0773,-0.7926,-0.7538,-0.4317,-0.2916,-0.7878,-0.7722,-0.5513,-0.4192,-0.414,-0.4346,-0.1851,0.6828,-0.0089
-0.8706,-0.4001,-0.3981,-0.3353,-0.2524,-0.318,-0.2774,0.0933,0.0671,-0.2549,0.0468,-0.217,-0.3626,-0.5262,-0.5933,-0.7248,-1.0754,-0.7395,-0.7555,-0.4673,-0.305,-0.757,-0.7283,-0.5057,-0.3498,-0.3921,-0.4349,-0.2594,0.7959,-0.1251
