FP1,F3,F7,FC3,C3,C5,P3,P7,PO7,PO3,O1,Oz,Pz,CPz,FP2,Fz,F4,F8,FC4,FCz,Cz,C4,C6,P4,P8,PO8,PO4,O2,(corr) HEOG,(corr) VEOG
-0.1624,-0.3823,-0.3019,-0.3285,-0.117,-0.0364,0.3064,0.1539,0.2129,0.2841,0.2235,0.1923,0.2563,0.0138,-0.0186,-0.344,-0.0921,0.132,0.0876,-0.2989,-0.2163,0.3368,0.3442,0.4796,0.4186,0.353,0.4894,0.2931,-0.078,-0.0566
-0.2158,-0.3911,-0.3259,-0.3457,-0.1638,-0.0679,0.3084,0.152,0.2297,0.3256,0.2213,0.1989,0.2559,-0.0009,-0.0641,-0.3778,-0.1586,0.0472,0.0195,-0.3315,-0.2124,0.2509,0.2839,0.4491,0.3883,0.3286,0.4885,0.2779,-0.0479,-0.0583
-0.2649,-0.4018,-0.3456,-0.3655,-0.2073,-0.0975,0.3094,0.1505,0.246,0.3623,0.2229,0.2047,0.2516,-0.0193,-0.1102,-0.4158,-0.2269,-0.0318,-0.0508,-0.3703,-0.2156,0.1638,0.2211,0.4127,0.3537,0.3005,0.4788,0.2598,-0.0195,-0.0538
-0.3061,-0.4142,-0.357,-0.3886,-0.2445,-0.1232,0.3063,0.148,0.2589,0.3877,0.2271,0.2067,0.2391,-0.0438,-0.1568,-0.4592,-0.2968,-0.0995,-0.1231,-0.4178,-0.2308,0.0762,0.1559,0.3661,0.3124,0.2665,0.4536,0.236,0.0052,-0.0394
-0.3374,-0.4277,-0.3573,-0.4146,-0.2735,-0.1435,0.2958,0.1426,0.2657,0.3962,0.2311,0.2018,0.2151,-0.0764,-0.2034,-0.5073,-0.3664,-0.1519,-0.1962,-0.4743,-0.2606,-0.0107,0.0895,0.3068,0.2637,0.2256,0.4094,0.2048,0.0247,-0.0135
-0.3579,-0.441,-0.3451,-0.4419,-0.2942,-0.1573,0.2746,0.1325,0.2632,0.3834,0.2302,0.1873,0.1771,-0.1178,-0.2491,-0.5577,-0.432,-0.1867,-0.2669,-0.5371,-0.3049,-0.0946,0.0246,0.2347,0.2085,0.1787,0.346,0.1662,0.0383,0.023
-0.3683,-0.4518,-0.3202,-0.4677,-0.3073,-0.164,0.2402,0.116,0.2486,0.3467,0.2182,0.1608,0.1244,-0.1673,-0.2918,-0.606,-0.4881,-0.2036,-0.3309,-0.6009,-0.3605,-0.1719,-0.0347,0.1521,0.1499,0.1281,0.2673,0.1214,0.046,0.0669
-0.3696,-0.457,-0.2834,-0.4879,-0.314,-0.1632,0.1918,0.0923,0.22,0.2862,0.1893,0.1209,0.0585,-0.2217,-0.3292,-0.6464,-0.5283,-0.2037,-0.3827,-0.6584,-0.4213,-0.2384,-0.0835,0.064,0.0929,0.0776,0.1801,0.0732,0.0482,0.1131
-0.3634,-0.4529,-0.2366,-0.4977,-0.3153,-0.155,0.1308,0.0614,0.1768,0.2049,0.1392,0.0677,-0.0165,-0.2765,-0.3585,-0.6727,-0.5472,-0.1894,-0.4173,-0.7018,-0.4792,-0.2895,-0.1173,-0.0227,0.0429,0.0318,0.0931,0.0249,0.0458,0.1557
-0.3506,-0.4368,-0.1825,-0.4927,-0.3118,-0.1399,0.061,0.0249,0.1205,0.109,0.0664,0.0031,-0.0944,-0.3256,-0.3773,-0.6795,-0.541,-0.1637,-0.4308,-0.7242,-0.5259,-0.3213,-0.1327,-0.1,0.0053,-0.005,0.0154,-0.0197,0.0398,0.1891
-0.3323,-0.4071,-0.1242,-0.4704,-0.3032,-0.1184,-0.012,-0.0144,0.0544,0.0072,-0.0264,-0.0694,-0.1675,-0.3628,-0.3838,-0.6636,-0.5093,-0.1298,-0.4219,-0.7213,-0.554,-0.3314,-0.1285,-0.1607,-0.0163,-0.0296,-0.0453,-0.0577,0.0316,0.2095
-0.309,-0.3648,-0.0656,-0.4305,-0.2892,-0.0921,-0.0813,-0.0525,-0.0162,-0.0903,-0.1325,-0.1443,-0.2284,-0.3834,-0.378,-0.6253,-0.4558,-0.091,-0.3921,-0.6923,-0.5589,-0.3201,-0.1064,-0.1994,-0.0208,-0.0407,-0.0838,-0.0872,0.0225,0.2152
-0.2815,-0.3135,-0.011,-0.3759,-0.2697,-0.0628,-0.1403,-0.0847,-0.085,-0.1736,-0.2419,-0.2151,-0.271,-0.3847,-0.3612,-0.5686,-0.3873,-0.0508,-0.3461,-0.6407,-0.5403,-0.2906,-0.0713,-0.2141,-0.0104,-0.0394,-0.0988,-0.1077,0.014,0.2078
-0.2507,-0.259,0.0357,-0.3123,-0.2457,-0.033,-0.1834,-0.1067,-0.1452,-0.2345,-0.343,-0.275,-0.2925,-0.3672,-0.3361,-0.5008,-0.3129,-0.0127,-0.2909,-0.5734,-0.5015,-0.2489,-0.0304,-0.2066,0.0104,-0.029,-0.0928,-0.1199,0.0079,0.1909
-0.2187,-0.2086,0.0708,-0.2473,-0.2194,-0.0059,-0.2078,-0.1151,-0.1909,-0.2686,-0.4247,-0.3181,-0.2935,-0.3348,-0.3061,-0.4309,-0.2424,0.0193,-0.2348,-0.4997,-0.4495,-0.2028,0.0074,-0.1819,0.0349,-0.0141,-0.0714,-0.1256,0.0056,0.1697
-0.1879,-0.1693,0.0911,-0.1889,-0.1943,0.0152,-0.2139,-0.1086,-0.2179,-0.2755,-0.4786,-0.3405,-0.2784,-0.2939,-0.275,-0.3677,-0.1845,0.0406,-0.1861,-0.4293,-0.3936,-0.161,0.0337,-0.1478,0.0559,0.0003,-0.0426,-0.1272,0.0084,0.1492
-0.1616,-0.1462,0.0948,-0.1443,-0.1749,0.0268,-0.2055,-0.0883,-0.2247,-0.2595,-0.5005,-0.3411,-0.2544,-0.2526,-0.2463,-0.3184,-0.1455,0.0466,-0.1516,-0.3705,-0.3431,-0.1311,0.0414,-0.1133,0.0672,0.0097,-0.0148,-0.1274,0.0165,0.1332
-0.1433,-0.1417,0.0814,-0.1182,-0.1649,0.0262,-0.1887,-0.0577,-0.2125,-0.2281,-0.4914,-0.3218,-0.2297,-0.2188,-0.2227,-0.287,-0.1285,0.0334,-0.1359,-0.3288,-0.3062,-0.1192,0.0264,-0.0867,0.0644,0.0114,0.0046,-0.1283,0.0295,0.1236
-0.1356,-0.1549,0.0521,-0.112,-0.1671,0.012,-0.171,-0.0219,-0.1844,-0.1902,-0.4566,-0.2867,-0.2118,-0.1984,-0.2062,-0.2741,-0.1334,-0.0016,-0.1405,-0.3064,-0.2878,-0.1281,-0.0123,-0.0744,0.046,0.004,0.0107,-0.1314,0.046,0.1204
-0.1399,-0.1818,0.0098,-0.1237,-0.1819,-0.0156,-0.1588,0.0134,-0.1456,-0.1541,-0.4047,-0.2412,-0.2052,-0.1944,-0.198,-0.2774,-0.1574,-0.0586,-0.1644,-0.3016,-0.2891,-0.1577,-0.072,-0.0795,0.0134,-0.0117,0.0018,-0.1371,0.0642,0.1223
-0.1556,-0.2163,-0.041,-0.1486,-0.2072,-0.0546,-0.1562,0.0431,-0.1015,-0.1258,-0.3452,-0.1908,-0.2109,-0.2057,-0.1983,-0.2922,-0.1961,-0.1349,-0.2039,-0.3104,-0.3073,-0.2044,-0.147,-0.1019,-0.0295,-0.0335,-0.0204,-0.1442,0.0818,0.1271
-0.1799,-0.2516,-0.0944,-0.1803,-0.2385,-0.1007,-0.1639,0.0637,-0.0575,-0.108,-0.2868,-0.1401,-0.2261,-0.2277,-0.2059,-0.3129,-0.2437,-0.2245,-0.2537,-0.3265,-0.3362,-0.2619,-0.2296,-0.1383,-0.0773,-0.0584,-0.0515,-0.1508,0.0968,0.1326
-0.208,-0.2808,-0.144,-0.2114,-0.2696,-0.1484,-0.1793,0.0741,-0.018,-0.1001,-0.2353,-0.0921,-0.2452,-0.253,-0.2186,-0.3332,-0.2935,-0.3192,-0.3071,-0.3426,-0.3671,-0.3222,-0.3106,-0.1831,-0.1244,-0.0831,-0.0857,-0.1543,0.1073,0.1372
-0.233,-0.2977,-0.1831,-0.235,-0.2937,-0.1909,-0.1976,0.0752,0.0137,-0.0992,-0.1934,-0.0489,-0.261,-0.2733,-0.2324,-0.3466,-0.3387,-0.4093,-0.3564,-0.3513,-0.3904,-0.3762,-0.381,-0.2296,-0.1656,-0.1047,-0.1172,-0.1525,0.1125,0.1395
-0.2476,-0.297,-0.2057,-0.2447,-0.3042,-0.2213,-0.2128,0.0698,0.0357,-0.1013,-0.1602,-0.0113,-0.2672,-0.2807,-0.2426,-0.3468,-0.372,-0.4848,-0.3944,-0.3453,-0.397,-0.4156,-0.4331,-0.2712,-0.1972,-0.1211,-0.1413,-0.144,0.1117,0.1385
-0.2447,-0.2749,-0.2078,-0.2359,-0.2956,-0.2336,-0.22,0.0612,0.0476,-0.1022,-0.1329,0.0203,-0.259,-0.2698,-0.2438,-0.3282,-0.3867,-0.5376,-0.4143,-0.3186,-0.3797,-0.4337,-0.4613,-0.3025,-0.2177,-0.1314,-0.1553,-0.1289,0.1053,0.1335
-0.2192,-0.2293,-0.1873,-0.2054,-0.2648,-0.2242,-0.216,0.0527,0.0502,-0.0991,-0.1072,0.0458,-0.2348,-0.2381,-0.2313,-0.2864,-0.3778,-0.5626,-0.4116,-0.2674,-0.3349,-0.4266,-0.4635,-0.3203,-0.2275,-0.1364,-0.1591,-0.1087,0.094,0.1236
-0.169,-0.1603,-0.1453,-0.1527,-0.2115,-0.1923,-0.2007,0.0464,0.0447,-0.0911,-0.0794,0.0649,-0.1963,-0.1872,-0.2022,-0.2196,-0.3427,-0.5586,-0.3844,-0.1907,-0.2629,-0.3942,-0.4408,-0.3236,-0.2286,-0.1376,-0.1551,-0.0864,0.0788,0.1079
-0.0963,-0.0709,-0.0857,-0.0798,-0.1383,-0.1406,-0.1762,0.0428,0.0329,-0.0787,-0.0473,0.0769,-0.1477,-0.1213,-0.1558,-0.129,-0.2822,-0.5284,-0.3338,-0.0914,-0.1682,-0.3394,-0.3975,-0.3136,-0.224,-0.1375,-0.1471,-0.0658,0.0611,0.0859
-0.0069,0.0332,-0.0151,0.0087,-0.0509,-0.0747,-0.1467,0.0409,0.0163,-0.0639,-0.0105,0.0817,-0.0951,-0.0469,-0.0942,-0.0195,-0.2012,-0.4774,-0.2642,0.0244,-0.0586,-0.2683,-0.3403,-0.2926,-0.2165,-0.138,-0.1392,-0.0505,0.0419,0.0575
0.09,0.1436,0.0584,0.1054,0.0432,-0.0028,-0.1167,0.0385,-0.0035,-0.0496,0.0296,0.0795,-0.0442,0.029,-0.0224,0.101,-0.1077,-0.4131,-0.1823,0.1474,0.0562,-0.1881,-0.2765,-0.2636,-0.2082,-0.1402,-0.1349,-0.043,0.0221,0.0235
0.1836,0.2498,0.1261,0.2015,0.1349,0.0663,-0.0903,0.0332,-0.0253,-0.0383,0.0699,0.0713,0.0001,0.0996,0.053,0.2223,-0.0119,-0.3426,-0.096,0.2668,0.166,-0.1068,-0.2131,-0.2294,-0.1994,-0.1441,-0.1361,-0.0442,0.0025,-0.0145
0.263,0.3416,0.1799,0.2872,0.2151,0.1237,-0.0702,0.023,-0.0478,-0.0321,0.1069,0.0593,0.0347,0.1594,0.1243,0.3334,0.0761,-0.272,-0.0134,0.3717,0.2617,-0.0311,-0.1552,-0.1921,-0.1895,-0.1481,-0.1427,-0.0528,-0.0168,-0.0537
0.3196,0.4097,0.2143,0.3537,0.2759,0.1629,-0.0574,0.0066,-0.0695,-0.0322,0.1371,0.0462,0.0584,0.2042,0.1843,0.4244,0.148,-0.2053,0.0583,0.4532,0.3361,0.0336,-0.1061,-0.1538,-0.1772,-0.1505,-0.1533,-0.0662,-0.0353,-0.0908
0.3487,0.4485,0.227,0.3948,0.3124,0.1802,-0.0514,-0.0156,-0.0889,-0.0383,0.1581,0.0347,0.0714,0.2318,0.2281,0.489,0.1993,-0.1438,0.1146,0.5059,0.3856,0.0843,-0.0667,-0.1163,-0.1613,-0.1497,-0.1656,-0.0808,-0.0525,-0.1223
0.3503,0.457,0.2197,0.4088,0.3237,0.176,-0.0503,-0.0421,-0.1042,-0.049,0.1683,0.0272,0.0751,0.2418,0.2541,0.5251,0.2307,-0.0865,0.1541,0.5293,0.4099,0.1208,-0.0359,-0.0818,-0.1417,-0.1453,-0.1774,-0.0933,-0.0675,-0.146
0.3299,0.4398,0.1981,0.3989,0.3133,0.1549,-0.0514,-0.0699,-0.1137,-0.0621,0.1678,0.0249,0.0716,0.2363,0.2646,0.5362,0.2473,-0.0306,0.1792,0.528,0.4131,0.145,-0.0113,-0.0519,-0.1196,-0.1379,-0.1871,-0.101,-0.0791,-0.1608
0.2968,0.4058,0.17,0.3732,0.289,0.1245,-0.0514,-0.0959,-0.1164,-0.0743,0.158,0.0278,0.0637,0.2196,0.2652,0.5303,0.2581,0.0277,0.1953,0.511,0.4024,0.1614,0.0109,-0.0279,-0.097,-0.1289,-0.1937,-0.1023,-0.0862,-0.1676
0.2624,0.3671,0.1443,0.3433,0.2612,0.0944,-0.0473,-0.1169,-0.1119,-0.0829,0.1414,0.0344,0.0547,0.1978,0.2638,0.5184,0.2733,0.0922,0.2102,0.4903,0.3873,0.1755,0.0345,-0.0095,-0.0763,-0.1201,-0.1968,-0.0967,-0.088,-0.1687
0.238,0.3361,0.1288,0.3211,0.2406,0.0735,-0.0367,-0.1308,-0.1012,-0.0856,0.1212,0.0425,0.0484,0.1784,0.2679,0.5113,0.302,0.1656,0.2321,0.4777,0.3779,0.1937,0.0634,0.0051,-0.0592,-0.1122,-0.1957,-0.0845,-0.0846,-0.1674
0.2319,0.3229,0.1285,0.3167,0.2359,0.0683,-0.0185,-0.1368,-0.0862,-0.0814,0.1012,0.049,0.0483,0.1684,0.2835,0.518,0.35,0.2488,0.2681,0.483,0.3827,0.2209,0.1008,0.0191,-0.0462,-0.1048,-0.1896,-0.0665,-0.077,-0.1666
0.248,0.333,0.145,0.3353,0.2519,0.0812,0.0072,-0.1351,-0.0699,-0.0706,0.0851,0.0517,0.0576,0.1739,0.3133,0.5431,0.4186,0.3407,0.3225,0.5112,0.4072,0.2604,0.1485,0.0366,-0.0364,-0.0962,-0.1774,-0.0434,-0.0675,-0.1684
0.2852,0.3662,0.1761,0.3763,0.2888,0.1105,0.0394,-0.1273,-0.0547,-0.0545,0.0764,0.0494,0.0779,0.1981,0.3562,0.5863,0.5042,0.4379,0.3955,0.5621,0.4525,0.3126,0.206,0.0619,-0.0275,-0.0835,-0.1579,-0.0157,-0.0584,-0.1734
0.3377,0.4167,0.2166,0.4331,0.3422,0.1505,0.076,-0.1152,-0.0428,-0.0352,0.0778,0.0429,0.1095,0.2415,0.4079,0.6428,0.5993,0.5351,0.4836,0.6301,0.5156,0.3748,0.2706,0.0977,-0.0165,-0.0636,-0.1302,0.0165,-0.0525,-0.1807
0.3963,0.4739,0.2591,0.4948,0.4039,0.1928,0.1143,-0.1008,-0.0346,-0.0146,0.0911,0.0348,0.1511,0.301,0.4619,0.7046,0.6939,0.6254,0.5793,0.7056,0.5893,0.4416,0.3366,0.1451,-0.0004,-0.0343,-0.0943,0.0531,-0.0512,-0.1882
0.4504,0.5249,0.2956,0.5479,0.464,0.2282,0.1516,-0.0861,-0.0292,0.0053,0.1166,0.0295,0.1997,0.3708,0.5105,0.7619,0.7772,0.7012,0.6728,0.7773,0.6644,0.506,0.3968,0.2026,0.0226,0.0057,-0.0506,0.0943,-0.0556,-0.1933
0.4898,0.557,0.3185,0.5795,0.5125,0.2482,0.1851,-0.0726,-0.0244,0.0235,0.1533,0.032,0.252,0.4435,0.5469,0.806,0.8401,0.7551,0.7535,0.8342,0.7312,0.5604,0.4429,0.267,0.0535,0.0557,-0.0008,0.1402,-0.0651,-0.1938
0.5069,0.5605,0.3221,0.5802,0.5414,0.247,0.2127,-0.0608,-0.0165,0.0401,0.1992,0.0471,0.3044,0.5117,0.5664,0.8303,0.8763,0.7816,0.8125,0.8685,0.7816,0.5988,0.4683,0.3336,0.0918,0.1139,0.0535,0.1906,-0.0787,-0.1883
0.4984,0.5314,0.3037,0.5462,0.5462,0.2225,0.2333,-0.0504,-0.0014,0.0567,0.2517,0.0787,0.355,0.5703,0.5676,0.8327,0.8846,0.7782,0.8443,0.8768,0.8114,0.6185,0.4691,0.3982,0.1362,0.1774,0.1108,0.2457,-0.0948,-0.1772
0.4659,0.4723,0.2643,0.4812,0.5272,0.1772,0.248,-0.0393,0.0254,0.0764,0.3085,0.129,0.4039,0.6177,0.5534,0.8164,0.8687,0.7469,0.849,0.8621,0.8218,0.621,0.4465,0.4577,0.1851,0.2435,0.1707,0.3054,-0.1116,-0.1628
0.4164,0.3931,0.2089,0.3957,0.4902,0.1181,0.2601,-0.0242,0.0675,0.1036,0.3676,0.1977,0.4538,0.6567,0.5307,0.7897,0.8374,0.6942,0.8328,0.8334,0.8192,0.6123,0.4068,0.5115,0.2371,0.3104,0.234,0.3697,-0.1274,-0.1492
0.3614,0.3096,0.1461,0.3061,0.4454,0.0564,0.2745,-0.0013,0.127,0.1428,0.4276,0.2818,0.5089,0.694,0.5097,0.7653,0.8036,0.6308,0.8073,0.8047,0.815,0.6023,0.3612,0.5609,0.2912,0.3768,0.3023,0.4384,-0.1409,-0.1423
0.3149,0.2413,0.0876,0.2318,0.4062,0.0057,0.2973,0.0327,0.2034,0.1973,0.4869,0.3756,0.5742,0.7383,0.5022,0.7587,0.7819,0.5704,0.7879,0.7927,0.8229,0.603,0.3237,0.6093,0.3468,0.4423,0.3774,0.5101,-0.151,-0.1485
0.2917,0.2076,0.0465,0.1919,0.3869,-0.0202,0.3338,0.0793,0.2924,0.2671,0.5429,0.4706,0.6528,0.7974,0.5191,0.7851,0.7862,0.5277,0.791,0.8137,0.8557,0.6262,0.3092,0.6599,0.4036,0.5067,0.4599,0.5816,-0.1574,-0.174
0.3036,0.2243,0.0349,0.2019,0.3997,-0.0089,0.3866,0.1367,0.3863,0.3482,0.5917,0.5564,0.7444,0.8758,0.5686,0.8562,0.8272,0.5164,0.8306,0.8799,0.9224,0.6811,0.3307,0.7151,0.4616,0.5685,0.5481,0.648,-0.16,-0.2234
0.3574,0.3,0.0617,0.2702,0.4519,0.0475,0.4547,0.2,0.474,0.4319,0.6282,0.6218,0.8442,0.9721,0.6538,0.9772,0.9101,0.5469,0.9153,0.9963,1.025,0.7721,0.3965,0.7744,0.5199,0.6254,0.6373,0.7025,-0.1597,-0.2983
0.4531,0.4338,0.1305,0.3968,0.5443,0.151,0.5329,0.2618,0.5434,0.5063,0.6466,0.6568,0.9428,1.0793,0.7712,1.1448,1.0329,0.6242,1.0455,1.1587,1.1573,0.8969,0.5087,0.8344,0.5775,0.6734,0.7202,0.7376,-0.1574,-0.3962
0.5833,0.6155,0.2383,0.5727,0.6706,0.297,0.6128,0.3135,0.5836,0.5589,0.6423,0.654,1.028,1.1852,0.9112,1.3469,1.1865,0.7468,1.2131,1.3541,1.3057,1.0468,0.662,0.8888,0.6326,0.7084,0.788,0.7469,-0.1541,-0.5107
0.7346,0.8269,0.3761,0.7819,0.8182,0.4746,0.6849,0.3479,0.5878,0.5795,0.6135,0.6116,1.0875,1.2756,1.0595,1.5648,1.3564,0.9063,1.4024,1.5627,1.4519,1.2072,0.8438,0.9299,0.683,0.7267,0.8328,0.7271,-0.1504,-0.6322
0.891,1.0466,0.5312,1.0046,0.9718,0.6687,0.7417,0.3607,0.5553,0.5638,0.5635,0.534,1.1123,1.3381,1.2005,1.7777,1.5266,1.0891,1.5941,1.7629,1.5777,1.3607,1.036,0.951,0.7265,0.7271,0.8494,0.6793,-0.1458,-0.7496
1.0382,1.2559,0.6905,1.223,1.1169,0.8637,0.7798,0.3522,0.4927,0.5154,0.5006,0.4327,1.0999,1.3658,1.3217,1.9687,1.6842,1.2794,1.7699,1.9374,1.6702,1.4913,1.2188,0.9485,0.7617,0.7116,0.8378,0.6106,-0.1389,-0.8533
1.1676,1.4443,0.8449,1.4259,1.2448,1.0465,0.8022,0.328,0.4137,0.4465,0.4389,0.3254,1.0564,1.3607,1.4183,2.131,1.8248,1.4638,1.919,2.0782,1.7268,1.5889,1.3747,0.924,0.7887,0.6858,0.8036,0.5329,-0.1279,-0.9383
1.2798,1.6137,0.9919,1.6125,1.355,1.2101,0.8182,0.2972,0.3361,0.3759,0.396,0.2336,0.9962,1.3348,1.4954,2.2712,1.9552,1.6344,2.0416,2.1907,1.7574,1.6527,1.4931,0.8852,0.8091,0.6588,0.7582,0.4624,-0.1112,-1.0057
1.384,1.7767,1.1359,1.7919,1.4551,1.354,0.8415,0.271,0.279,0.325,0.3896,0.1783,0.9397,1.3076,1.5669,2.4074,2.0914,1.7899,2.1489,2.2916,1.7823,1.6921,1.5722,0.8451,0.8266,0.6415,0.7164,0.4162,-0.0887,-1.0623
1.4929,1.9507,1.2845,1.9769,1.5564,1.4818,0.8852,0.2591,0.2573,0.3123,0.4331,0.1761,0.9076,1.3011,1.6499,2.5613,2.2515,1.9334,2.2577,2.4018,1.8252,1.7231,1.6184,0.8192,0.8459,0.6447,0.6932,0.4087,-0.0622,-1.1178
1.6158,2.1474,1.4418,2.1756,1.6659,1.5957,0.9562,0.2661,0.2782,0.3474,0.5313,0.2343,0.9142,1.3306,1.7555,2.7468,2.4454,2.0669,2.3811,2.5357,1.9034,1.7609,1.6424,0.82,0.8713,0.6759,0.6997,0.4483,-0.0361,-1.1789
1.7504,2.3623,1.6013,2.3816,1.7793,1.6906,1.0506,0.2897,0.3383,0.4267,0.6775,0.3485,0.9616,1.3983,1.881,2.9585,2.6647,2.1856,2.5196,2.6907,2.0182,1.8128,1.6529,0.8533,0.9053,0.7376,0.7392,0.5345,-0.0167,-1.2453
1.8786,2.5692,1.7417,2.5687,1.8764,1.7505,1.1517,0.3201,0.4238,0.533,0.8528,0.5023,1.0367,1.4885,2.0051,3.1662,2.8784,2.2742,2.6553,2.8426,2.1498,1.8722,1.653,0.9145,0.9472,0.8253,0.8062,0.6573,-0.0112,-1.3063
1.9679,2.7227,1.8284,2.6936,1.9229,1.7496,1.2324,0.3419,0.5132,0.6384,1.0297,0.6706,1.1135,1.5702,2.0902,3.3188,3.0364,2.3088,2.7535,2.9474,2.2592,1.919,1.638,0.9892,0.9933,0.9283,0.8869,0.7987,-0.0265,-1.3421
1.9787,2.7682,1.8209,2.7047,1.8783,1.6579,1.2615,0.3386,0.5829,0.7111,1.1778,0.8245,1.1592,1.6044,2.0918,3.3553,3.0811,2.2615,2.7709,2.9525,2.2979,1.9246,1.5975,1.0565,1.0375,1.032,0.9627,0.9363,-0.067,-1.3288
1.8755,2.657,1.6835,2.5569,1.7079,1.4501,1.2123,0.2967,0.613,0.7239,1.2701,0.938,1.1437,1.5556,1.9706,3.2224,2.9633,2.1106,2.669,2.8118,2.2216,1.8615,1.5212,1.0951,1.0734,1.1207,1.0153,1.048,-0.1341,-1.2454
1.639,2.3628,1.3981,2.2269,1.395,1.1158,1.0714,0.2101,0.5919,0.6608,1.2897,0.9932,1.0485,1.4031,1.707,2.892,2.6593,1.8485,2.4277,2.5026,2.0052,1.7138,1.404,1.0896,1.0958,1.1817,1.0313,1.117,-0.225,-1.0814
1.2752,1.8929,0.9724,1.7243,0.9502,0.6663,0.8434,0.0824,0.5194,0.5226,1.2337,0.9841,0.8734,1.15,1.3098,2.3746,2.1815,1.4888,2.0552,2.0364,1.6535,1.4845,1.2513,1.0357,1.1027,1.2081,1.0061,1.1353,-0.3331,-0.8422
0.818,1.2924,0.4431,1.0954,0.4137,0.1368,0.5529,-0.0731,0.407,0.3267,1.1139,0.9176,0.6383,0.8251,0.8193,1.7228,1.5816,1.0663,1.591,1.4628,1.2051,1.1987,1.0791,0.9422,1.0951,1.2001,0.9454,1.1054,-0.4486,-0.5511
0.3256,0.6393,-0.1285,0.4177,-0.1494,-0.4175,0.2404,-0.2355,0.2752,0.1051,0.9553,0.8121,0.3808,0.479,0.3019,1.0257,0.9437,0.6323,1.1005,0.8632,0.7265,0.8993,0.9125,0.8299,1.0769,1.165,0.8638,1.0393,-0.5599,-0.2461
-0.1291,0.0311,-0.6669,-0.2125,-0.6597,-0.9297,-0.0445,-0.3799,0.1495,-0.1027,0.7906,0.6933,0.1483,0.1748,-0.1613,0.3935,0.3692,0.2457,0.6635,0.3362,0.3006,0.6394,0.7799,0.7268,1.0535,1.115,0.7825,0.9563,-0.6556,0.026
-0.4721,-0.4328,-1.0956,-0.6975,-1.038,-1.3327,-0.2526,-0.4824,0.0555,-0.2563,0.6547,0.5891,-0.0107,-0.0249,-0.49,-0.0631,-0.0419,-0.0379,0.3587,-0.0212,0.0103,0.4709,0.7065,0.6623,1.0305,1.0643,0.7243,0.8789,-0.7254,0.2188
-0.6416,-0.669,-1.3503,-0.9556,-1.2188,-1.5701,-0.3435,-0.5239,0.0144,-0.3223,0.5778,0.5248,-0.0564,-0.0696,-0.6195,-0.2533,-0.2097,-0.1765,0.249,-0.1318,-0.0776,0.4346,0.7096,0.6613,1.0127,1.0264,0.7094,0.8283,-0.7623,0.2948
-0.5985,-0.6245,-1.3897,-0.9345,-1.162,-1.6056,-0.2926,-0.4929,0.0395,-0.2797,0.5803,0.5184,0.0356,0.07,-0.5121,-0.1227,-0.088,-0.147,0.3706,0.0483,0.0758,0.553,0.7953,0.7389,1.0033,1.0114,0.7518,0.8204,-0.7628,0.2316
-0.3325,-0.2843,-1.2007,-0.6195,-0.8579,-1.4273,-0.095,-0.3875,0.1345,-0.1229,0.6696,0.5777,0.2706,0.3973,-0.1623,0.3383,0.3288,0.0514,0.7282,0.523,0.4757,0.8271,0.9588,0.8988,1.0037,1.0247,0.8568,0.8636,-0.7275,0.0262
0.1374,0.3274,-0.7989,-0.0333,-0.3278,-1.0485,0.2349,-0.2149,0.2932,0.1375,0.8387,0.7,0.6344,0.8911,0.4032,1.0946,1.0069,0.3998,1.2958,1.2574,1.0945,1.2381,1.1864,1.1331,1.0145,1.0667,1.0207,0.9572,-0.6611,-0.3061
0.7673,1.1527,-0.2243,0.7681,0.3805,-0.5044,0.6664,0.0097,0.5009,0.4773,1.0686,0.8726,1.0963,1.5094,1.1312,2.0732,1.8797,0.8625,2.0218,2.1853,1.8777,1.7515,1.4594,1.4242,1.0354,1.1332,1.2316,1.0926,-0.5715,-0.7339
1.4949,2.1098,0.4652,1.7054,1.2005,0.1534,1.1569,0.2655,0.7367,0.8623,1.331,1.075,1.6139,2.1962,1.95,3.1754,2.8582,1.3929,2.837,3.2193,2.7528,2.3221,1.7568,1.7476,1.0657,1.2165,1.4709,1.2539,-0.4691,-1.215
2.2487,3.1038,1.2023,2.6867,2.0556,0.8642,1.6579,0.5287,0.9758,1.2524,1.5925,1.2819,2.138,2.8889,2.7788,4.2904,3.8424,1.9378,3.6631,4.2629,3.6391,2.8997,2.0571,2.0748,1.1039,1.3058,1.7159,1.4209,-0.3649,-1.702
2.9566,4.0393,1.9184,3.6195,2.8695,1.5657,2.1211,0.7755,1.1931,1.6071,1.8193,1.4663,2.6191,3.5252,3.5379,5.3093,4.7343,2.4441,4.4217,5.2219,4.4573,3.4338,2.3401,2.3762,1.1475,1.3891,1.9419,1.571,-0.2695,-2.1481
3.5545,4.8315,2.5518,4.4216,3.5739,2.2008,2.5034,0.9846,1.366,1.8903,1.981,1.6033,3.0121,4.0506,4.1573,6.1382,5.4482,2.8641,5.0427,6.0146,5.1377,3.8793,2.5876,2.6244,1.1928,1.4535,2.1249,1.6827,-0.1914,-2.5123
3.9935,5.4154,3.054,5.0294,4.1162,2.7243,2.7719,1.1398,1.4764,2.0737,2.0546,1.6724,3.2823,4.4231,4.5849,6.7077,5.9208,3.1613,5.4727,6.5794,5.6275,4.2008,2.7851,2.7964,1.2351,1.4874,2.2451,1.7378,-0.1365,-2.7643
4.2441,5.7515,3.3939,5.4043,4.4635,3.1062,2.9063,1.2311,1.5131,2.1407,2.0268,1.6609,3.408,4.6175,4.7917,6.979,6.1178,3.3152,5.6799,6.8803,5.8946,4.377,2.9234,2.8769,1.2695,1.4819,2.2886,1.7241,-0.1076,-2.8874
4.2978,5.828,3.5597,5.5337,4.6045,3.3334,2.9005,1.2551,1.472,2.0869,1.8957,1.5649,3.383,4.6267,4.7733,6.9459,6.0359,3.3234,5.6578,6.9081,5.9295,4.4022,2.9991,2.8594,1.2917,1.4323,2.2497,1.6373,-0.1047,-2.879
4.1663,5.6588,3.5578,5.4293,4.5473,3.4078,2.7614,1.2152,1.3566,1.9203,1.6707,1.3898,3.2159,4.4609,4.5484,6.6311,5.701,3.201,5.4238,6.6785,5.7439,4.2864,3.0154,2.7472,1.2983,1.3387,2.1313,1.4813,-0.1255,-2.7496
3.8773,5.2787,3.4097,5.1228,4.3167,3.3442,2.5076,1.1196,1.1763,1.6595,1.3712,1.1494,2.9281,4.1449,4.1545,6.0813,5.1626,2.9775,5.0152,6.2282,5.368,4.0528,2.9806,2.5523,1.2878,1.2066,1.9441,1.2678,-0.166,-2.5203
3.4694,4.7371,3.1472,4.6589,3.9485,3.1659,2.1654,0.98,0.9455,1.3301,1.0237,0.8637,2.5502,3.7141,3.6408,5.3582,4.4852,2.6908,4.4833,5.6085,4.8447,3.7332,2.9063,2.2943,1.2609,1.0462,1.7049,1.0143,-0.2211,-2.2186
2.9859,4.09,2.8072,4.0887,3.4845,2.9008,1.7661,0.8092,0.6815,0.9618,0.6578,0.5562,2.1179,3.2098,3.0612,4.5309,3.7383,2.3808,3.8845,4.879,4.2253,3.3637,2.8054,1.9972,1.2203,0.8709,1.4346,0.7418,-0.2856,-1.8749
2.4692,3.3937,2.4266,3.464,2.9677,2.5776,1.3417,0.6202,0.4024,0.5842,0.3027,0.2508,1.6673,2.6744,2.4665,3.6673,2.9871,2.0836,3.2735,4.1004,3.5626,2.9788,2.6899,1.6872,1.1711,0.6957,1.1549,0.4717,-0.3544,-1.5188
1.9563,2.6989,2.0381,2.8315,2.438,2.2236,0.9218,0.4244,0.1254,0.2235,-0.0173,-0.0314,1.2312,2.147,1.8994,2.8276,2.2857,1.8262,2.6965,3.329,2.9064,2.608,2.5692,1.3889,1.1195,0.535,0.8861,0.2232,-0.423,-1.1756
1.476,2.0463,1.6679,2.2296,1.9289,1.8625,0.5314,0.2314,-0.1345,-0.0996,-0.2852,-0.2743,0.8356,1.6594,1.3911,2.0598,1.6721,1.625,2.1868,2.6116,2.2984,2.2727,2.4498,1.1232,1.0722,0.4003,0.6445,0.0107,-0.4873,-0.8648
1.0474,1.4645,1.3342,1.6866,1.4659,1.5139,0.1886,0.0492,-0.3656,-0.3714,-0.4934,-0.4684,0.4979,1.234,0.96,1.3969,1.1673,1.485,1.7637,1.9819,1.7688,1.9852,2.335,0.9047,1.0348,0.2993,0.4408,-0.1574,-0.5438,-0.5991
0.6805,0.9695,1.0478,1.2195,1.0651,1.1925,-0.0965,-0.1159,-0.5598,-0.5858,-0.6429,-0.6108,0.226,0.8825,0.6123,0.8553,0.7758,1.4016,1.4322,1.459,1.3342,1.7496,2.2266,0.7404,1.0112,0.2343,0.2796,-0.2789,-0.59,-0.384
0.3773,0.5658,0.8123,0.8348,0.7333,0.9083,-0.321,-0.2589,-0.713,-0.7436,-0.7421,-0.7049,0.0189,0.6061,0.3445,0.4366,0.4892,1.3633,1.1864,1.0468,0.9977,1.5631,2.1254,0.63,1.0026,0.2026,0.1598,-0.3575,-0.6244,-0.2187
0.1337,0.2488,0.6263,0.5303,0.4693,0.6671,-0.4892,-0.3765,-0.8242,-0.8511,-0.804,-0.7588,-0.1309,0.3979,0.1458,0.1294,0.2901,1.3556,1.0126,0.7365,0.7508,1.4187,2.0327,0.5667,1.0083,0.1976,0.0761,-0.4013,-0.647,-0.0977
-0.0579,0.0077,0.485,0.2976,0.2655,0.471,-0.6098,-0.4669,-0.8958,-0.9186,-0.8429,-0.7835,-0.2353,0.2453,0.0022,-0.0861,0.1568,1.3639,0.8933,0.5105,0.5769,1.308,1.9508,0.5396,1.0258,0.2101,0.0202,-0.4211,-0.6592,-0.0127
-0.206,-0.1709,0.3816,0.1244,0.1107,0.3187,-0.6939,-0.5297,-0.9322,-0.9574,-0.8715,-0.7909,-0.3074,0.1338,-0.1013,-0.2333,0.0676,1.3763,0.8116,0.3464,0.4554,1.2229,1.8828,0.5358,1.0514,0.2301,-0.017,-0.4283,-0.6638,0.0461
-0.3184,-0.3,0.3091,-0.0018,-0.0074,0.2063,-0.7524,-0.5661,-0.9393,-0.978,-0.8983,-0.7916,-0.359,0.0497,-0.1775,-0.3347,0.0043,1.3845,0.7527,0.2225,0.3664,1.1567,1.8318,0.543,1.081,0.2487,-0.0439,-0.4328,-0.6638,0.0875
-0.4007,-0.3905,0.2603,-0.0928,-0.0999,0.1282,-0.7933,-0.5782,-0.9229,-0.9877,-0.9265,-0.7929,-0.3985,-0.017,-0.2362,-0.408,-0.0466,1.3836,0.7063,0.1213,0.2935,1.1049,1.7992,0.5517,1.1106,0.2597,-0.0667,-0.4412,-0.6622,0.1187
-0.4565,-0.4503,0.2286,-0.1575,-0.175,0.0772,-0.8206,-0.5684,-0.8883,-0.9896,-0.9538,-0.7982,-0.43,-0.0718,-0.2832,-0.4645,-0.0928,1.371,0.6655,0.0316,0.2261,1.064,1.7841,0.5563,1.1364,0.2602,-0.0883,-0.4556,-0.6611,0.1442
-0.4882,-0.4849,0.2071,-0.2026,-0.2376,0.0452,-0.8342,-0.5397,-0.8391,-0.9827,-0.9737,-0.8063,-0.4534,-0.1158,-0.3212,-0.5089,-0.1376,1.3443,0.6266,-0.051,0.1598,1.0311,1.7818,0.5553,1.155,0.2508,-0.1078,-0.4736,-0.6609,0.1656
-0.4984,-0.4984,0.1891,-0.2331,-0.2901,0.0241,-0.8309,-0.495,-0.7776,-0.9626,-0.9773,-0.8123,-0.4656,-0.1469,-0.3511,-0.5411,-0.1815,1.3004,0.5872,-0.1256,0.0949,1.0025,1.7836,0.5503,1.164,0.2355,-0.1215,-0.4886,-0.6607,0.1825
-0.491,-0.4946,0.1677,-0.2533,-0.3332,0.0056,-0.8064,-0.4372,-0.7046,-0.9233,-0.9553,-0.8085,-0.4621,-0.1616,-0.3726,-0.5587,-0.2237,1.2347,0.5452,-0.1883,0.0352,0.9739,1.7783,0.5452,1.1615,0.22,-0.1235,-0.4917,-0.6584,0.1933
-0.4713,-0.4784,0.1371,-0.2672,-0.3672,-0.0178,-0.7572,-0.3698,-0.6206,-0.8597,-0.9008,-0.7866,-0.4389,-0.1569,-0.3857,-0.5594,-0.2629,1.1423,0.4986,-0.2346,-0.0142,0.9402,1.7532,0.5438,1.1469,0.2113,-0.1076,-0.4736,-0.6513,0.1962
-0.4462,-0.4556,0.0933,-0.2794,-0.3925,-0.0516,-0.6822,-0.2964,-0.526,-0.7686,-0.8103,-0.739,-0.3938,-0.1318,-0.3906,-0.5428,-0.298,1.0197,0.4454,-0.2615,-0.0487,0.8967,1.6972,0.549,1.1201,0.2153,-0.0693,-0.4267,-0.6368,0.1899
-0.4224,-0.4321,0.0356,-0.2938,-0.4103,-0.0992,-0.5839,-0.221,-0.4221,-0.6506,-0.685,-0.6611,-0.3271,-0.0879,-0.3879,-0.5111,-0.3278,0.8664,0.3845,-0.2679,-0.0654,0.8398,1.6024,0.5614,1.0819,0.2363,-0.0073,-0.3472,-0.6126,0.1746
-0.4053,-0.4131,-0.0334,-0.3133,-0.422,-0.1607,-0.468,-0.1471,-0.3113,-0.5099,-0.5313,-0.5519,-0.2425,-0.0296,-0.378,-0.4689,-0.3509,0.687,0.3163,-0.2555,-0.0638,0.7681,1.4664,0.5792,1.0333,0.2752,0.0756,-0.2362,-0.5773,0.1514
-0.3983,-0.4018,-0.1078,-0.3394,-0.4294,-0.2332,-0.3427,-0.078,-0.1968,-0.3541,-0.3599,-0.4155,-0.1463,0.0363,-0.3616,-0.4221,-0.3658,0.4911,0.2428,-0.2285,-0.0466,0.6825,1.2924,0.5984,0.9753,0.3297,0.1724,-0.1003,-0.5304,0.1228
-0.4018,-0.3994,-0.1798,-0.3716,-0.4343,-0.3116,-0.2178,-0.0163,-0.083,-0.1932,-0.1842,-0.2602,-0.0466,0.1015,-0.3395,-0.3771,-0.3712,0.2922,0.1676,-0.1929,-0.0191,0.586,1.0896,0.6138,0.9084,0.3939,0.2732,0.0491,-0.4725,0.0919
-0.4138,-0.4047,-0.2416,-0.408,-0.4387,-0.3892,-0.1028,0.0361,0.0254,-0.0384,-0.0186,-0.0982,0.0477,0.1575,-0.3129,-0.3398,-0.3664,0.106,0.0951,-0.1558,0.0111,0.4835,0.8717,0.6201,0.8336,0.4595,0.3669,0.198,-0.4059,0.0621
-0.431,-0.4156,-0.2869,-0.4459,-0.4446,-0.4597,-0.0062,0.078,0.1231,0.099,0.1239,0.0567,0.1282,0.1965,-0.2838,-0.3147,-0.3525,-0.0521,0.0299,-0.1248,0.036,0.381,0.6552,0.6133,0.7522,0.517,0.4432,0.3314,-0.3344,0.0368
-0.4498,-0.4292,-0.3126,-0.4829,-0.4545,-0.5184,0.0657,0.1082,0.2051,0.2092,0.2335,0.191,0.1884,0.2128,-0.2553,-0.3051,-0.3316,-0.1696,-0.0241,-0.1068,0.0476,0.2851,0.4579,0.5921,0.6669,0.5581,0.4947,0.4366,-0.2635,0.0186
-0.4674,-0.4439,-0.3192,-0.5176,-0.4714,-0.563,0.1087,0.1253,0.2666,0.2848,0.3052,0.2939,0.2237,0.2031,-0.2315,-0.3127,-0.3076,-0.2387,-0.0644,-0.1079,0.0395,0.202,0.296,0.558,0.5825,0.5774,0.5178,0.5053,-0.2,0.0097
-0.4832,-0.4593,-0.3113,-0.55,-0.4985,-0.5943,0.1207,0.128,0.3038,0.3212,0.3383,0.3589,0.2322,0.1668,-0.2174,-0.3381,-0.2855,-0.2575,-0.0902,-0.1325,0.0077,0.137,0.1825,0.5152,0.5058,0.5737,0.5135,0.5348,-0.151,0.0115
-0.4987,-0.4772,-0.2961,-0.5823,-0.5392,-0.6159,0.1015,0.1145,0.3141,0.3169,0.3367,0.3847,0.2139,0.1056,-0.2179,-0.3814,-0.2707,-0.2298,-0.1031,-0.1829,-0.0492,0.0931,0.1249,0.4694,0.4444,0.5498,0.486,0.5278,-0.1231,0.0245
-0.5173,-0.5011,-0.2821,-0.6181,-0.596,-0.6332,0.0527,0.084,0.297,0.2738,0.307,0.3749,0.1705,0.023,-0.237,-0.4423,-0.268,-0.1652,-0.1064,-0.2597,-0.1302,0.0709,0.1236,0.4264,0.4052,0.5119,0.4416,0.4919,-0.1204,0.0488
-0.5432,-0.5349,-0.2777,-0.6616,-0.6699,-0.652,-0.0225,0.0366,0.2541,0.1967,0.2573,0.3366,0.1045,-0.0764,-0.2768,-0.5202,-0.2807,-0.0765,-0.1049,-0.3608,-0.2319,0.0677,0.1717,0.3897,0.3926,0.4676,0.3868,0.437,-0.1437,0.0837
-0.5799,-0.5818,-0.2891,-0.7159,-0.7591,-0.677,-0.1192,-0.0254,0.1899,0.0929,0.1956,0.279,0.0196,-0.1871,-0.3362,-0.6135,-0.3098,0.0213,-0.1035,-0.4815,-0.3489,0.0786,0.256,0.3603,0.4067,0.424,0.3271,0.3734,-0.1899,0.1273
-0.6289,-0.6426,-0.3189,-0.7819,-0.8586,-0.7102,-0.2304,-0.0974,0.1115,-0.0284,0.1289,0.2115,-0.0798,-0.3029,-0.4105,-0.7191,-0.3531,0.1141,-0.1064,-0.6146,-0.4742,0.0968,0.3592,0.3359,0.4434,0.3863,0.2662,0.3099,-0.2519,0.1772
-0.6885,-0.7149,-0.3662,-0.8569,-0.9605,-0.7502,-0.3472,-0.1724,0.028,-0.1564,0.063,0.1428,-0.1875,-0.4167,-0.4919,-0.8314,-0.4058,0.19,-0.1158,-0.75,-0.5989,0.1159,0.4631,0.3124,0.4945,0.3573,0.2065,0.2529,-0.3203,0.2295
-0.7535,-0.7927,-0.426,-0.9349,-1.0542,-0.7918,-0.4588,-0.2417,-0.0499,-0.2798,0.0028,0.0794,-0.2957,-0.5202,-0.57,-0.9422,-0.4609,0.2413,-0.1312,-0.8756,-0.7129,0.1311,0.5524,0.2857,0.5504,0.3378,0.1497,0.206,-0.3845,0.2798
-0.8158,-0.867,-0.4909,-1.0067,-1.1279,-0.8272,-0.5539,-0.296,-0.1117,-0.3877,-0.0477,0.0257,-0.3947,-0.6044,-0.6338,-1.0414,-0.5102,0.265,-0.1495,-0.9783,-0.8056,0.1407,0.6173,0.254,0.6016,0.3271,0.0979,0.1708,-0.4355,0.3226
-0.866,-0.9274,-0.5526,-1.062,-1.1706,-0.8476,-0.6214,-0.3272,-0.1483,-0.4704,-0.0847,-0.0161,-0.4739,-0.6603,-0.6729,-1.1171,-0.5459,0.2629,-0.1654,-1.0454,-0.8662,0.1467,0.6547,0.2187,0.6412,0.3245,0.0544,0.1472,-0.467,0.3528
-0.8952,-0.9638,-0.6028,-1.0912,-1.174,-0.8448,-0.6526,-0.3295,-0.1541,-0.5209,-0.1053,-0.0452,-0.5234,-0.6799,-0.6801,-1.1583,-0.5617,0.2407,-0.1724,-1.0664,-0.8858,0.154,0.6687,0.1855,0.666,0.3294,0.0238,0.1343,-0.4772,0.3657
-0.8967,-0.9688,-0.6354,-1.0873,-1.1338,-0.8138,-0.6426,-0.301,-0.1274,-0.5356,-0.1076,-0.0623,-0.5351,-0.6576,-0.652,-1.1561,-0.5539,0.2073,-0.1643,-1.0345,-0.8586,0.1695,0.6681,0.1623,0.6767,0.3422,0.0109,0.131,-0.468,0.3584
-0.8677,-0.9386,-0.6473,-1.0474,-1.0513,-0.7541,-0.5915,-0.2441,-0.071,-0.5148,-0.0919,-0.0682,-0.5055,-0.5921,-0.5902,-1.1061,-0.5219,0.1722,-0.1369,-0.9482,-0.783,0.1994,0.664,0.1579,0.6773,0.3633,0.0201,0.1366,-0.4447,0.3301
-0.8102,-0.8745,-0.6383,-0.9737,-0.9326,-0.6697,-0.5047,-0.1649,0.0083,-0.4627,-0.0608,-0.0638,-0.4355,-0.4867,-0.5008,-1.0093,-0.4685,0.1441,-0.0887,-0.812,-0.663,0.2477,0.6664,0.1787,0.6736,0.393,0.0534,0.1504,-0.4144,0.2827
-0.7303,-0.7826,-0.6114,-0.8728,-0.7883,-0.5687,-0.3917,-0.0729,0.101,-0.3861,-0.0187,-0.0497,-0.3315,-0.3498,-0.3938,-0.8733,-0.3994,0.1291,-0.0224,-0.6369,-0.5079,0.3141,0.6815,0.227,0.6709,0.4305,0.11,0.1722,-0.3838,0.2205
-0.6378,-0.6733,-0.5719,-0.7549,-0.6317,-0.4618,-0.2652,0.0213,0.1963,-0.2939,0.0284,-0.0259,-0.2039,-0.1934,-0.2816,-0.7108,-0.3229,0.129,0.0555,-0.4387,-0.3319,0.3938,0.7104,0.2997,0.6727,0.4738,0.1856,0.2016,-0.3581,0.1497
-0.5439,-0.5588,-0.5261,-0.6319,-0.4767,-0.3599,-0.1383,0.107,0.2846,-0.1953,0.0747,0.0078,-0.0655,-0.0317,-0.1766,-0.5387,-0.2488,0.1419,0.1357,-0.2364,-0.1518,0.4778,0.7486,0.3887,0.6801,0.5196,0.2731,0.2381,-0.3399,0.0778
-0.4594,-0.4516,-0.4809,-0.5157,-0.3364,-0.2726,-0.0228,0.1756,0.3578,-0.0987,0.1155,0.0518,0.0707,0.1213,-0.09,-0.3749,-0.1866,0.162,0.2079,-0.0492,0.0155,0.5548,0.7877,0.4827,0.6914,0.5639,0.364,0.2807,-0.3294,0.0118
-0.3929,-0.3621,-0.4418,-0.416,-0.2208,-0.2063,0.0729,0.2212,0.4114,-0.0106,0.1485,0.1058,0.1938,0.2544,-0.0295,-0.2352,-0.144,0.1819,0.2625,0.1067,0.1556,0.614,0.8174,0.5698,0.7036,0.6032,0.45,0.3282,-0.3249,-0.0423
-0.3494,-0.2969,-0.4127,-0.3391,-0.1361,-0.164,0.1443,0.2416,0.4442,0.0648,0.1741,0.1691,0.2964,0.3607,0.0015,-0.131,-0.1252,0.1938,0.293,0.2201,0.2594,0.6473,0.8286,0.6407,0.713,0.6351,0.5249,0.3792,-0.3236,-0.0809
-0.33,-0.2581,-0.395,-0.2872,-0.0842,-0.1447,0.1917,0.238,0.4578,0.1261,0.1945,0.2399,0.3759,0.4384,0.004,-0.0675,-0.1302,0.192,0.2969,0.2867,0.3237,0.6509,0.8153,0.6902,0.717,0.6588,0.5853,0.432,-0.3225,-0.103
-0.332,-0.2436,-0.3876,-0.2586,-0.0625,-0.1447,0.2188,0.2147,0.4566,0.1741,0.2134,0.3154,0.4335,0.4901,-0.0169,-0.0437,-0.1553,0.1733,0.2762,0.3084,0.3514,0.6261,0.7761,0.7179,0.7145,0.6753,0.6306,0.4849,-0.3194,-0.1098
-0.3503,-0.2482,-0.3874,-0.2484,-0.0652,-0.1581,0.2318,0.1781,0.4461,0.211,0.2343,0.3917,0.4737,0.522,-0.0539,-0.0533,-0.1936,0.1384,0.2364,0.2923,0.3496,0.5783,0.7144,0.728,0.7061,0.6865,0.6626,0.536,-0.3129,-0.1044
-0.3778,-0.2647,-0.3897,-0.2498,-0.0839,-0.1787,0.2377,0.1355,0.4323,0.2399,0.2599,0.4641,0.5016,0.5411,-0.0986,-0.087,-0.2372,0.0905,0.1848,0.2484,0.3278,0.5153,0.6364,0.7271,0.6934,0.6949,0.6839,0.5831,-0.3028,-0.0901
-0.4074,-0.2859,-0.3894,-0.2557,-0.1095,-0.1999,0.2426,0.0943,0.4201,0.2636,0.2908,0.528,0.5219,0.5532,-0.1433,-0.1351,-0.2789,0.0351,0.129,0.1868,0.2951,0.4457,0.5504,0.7217,0.6787,0.7019,0.6968,0.6239,-0.2892,-0.0699
-0.4328,-0.3058,-0.3816,-0.26,-0.1338,-0.2166,0.2508,0.0611,0.4133,0.2838,0.3257,0.579,0.5371,0.5612,-0.1823,-0.1889,-0.3135,-0.0218,0.0754,0.1163,0.2581,0.3764,0.4642,0.7165,0.6632,0.7077,0.7021,0.6561,-0.2729,-0.0461
-0.4493,-0.3201,-0.3632,-0.2587,-0.1512,-0.2249,0.2639,0.0402,0.4137,0.3012,0.3614,0.6136,0.5469,0.5646,-0.2124,-0.2421,-0.3381,-0.0743,0.0279,0.043,0.22,0.3124,0.3843,0.7132,0.6476,0.7107,0.6991,0.6778,-0.2543,-0.0199
-0.4545,-0.327,-0.3329,-0.2507,-0.1592,-0.223,0.2809,0.0336,0.4207,0.3151,0.3932,0.6299,0.5488,0.56,-0.2326,-0.2911,-0.3525,-0.1178,-0.0112,-0.0297,0.1809,0.2556,0.315,0.7101,0.6313,0.7082,0.6858,0.6875,-0.2337,0.0077
-0.4484,-0.3266,-0.2919,-0.2375,-0.1588,-0.2108,0.2987,0.0404,0.4323,0.3239,0.416,0.6274,0.5388,0.5425,-0.2442,-0.335,-0.3587,-0.1493,-0.042,-0.101,0.138,0.2061,0.2589,0.7032,0.6131,0.6977,0.6604,0.6845,-0.2114,0.0359
-0.4337,-0.3211,-0.2439,-0.2231,-0.1542,-0.1907,0.313,0.0572,0.4448,0.3254,0.4247,0.6073,0.513,0.5072,-0.25,-0.3747,-0.3597,-0.1676,-0.066,-0.1714,0.0878,0.1625,0.2166,0.6877,0.5922,0.6777,0.6218,0.6689,-0.1875,0.0636
-0.4152,-0.3146,-0.1941,-0.2126,-0.1515,-0.1666,0.3197,0.0785,0.4538,0.3175,0.4157,0.5718,0.4685,0.4514,-0.2539,-0.4129,-0.3601,-0.1736,-0.0857,-0.2423,0.0268,0.1228,0.1875,0.6601,0.569,0.6487,0.5711,0.6419,-0.1626,0.0898
-0.3994,-0.3126,-0.1493,-0.2121,-0.1569,-0.144,0.3152,0.0983,0.455,0.2988,0.3873,0.5241,0.4049,0.3753,-0.2606,-0.4535,-0.3645,-0.1697,-0.1046,-0.3157,-0.0467,0.0852,0.1698,0.6188,0.5447,0.6135,0.5114,0.6052,-0.138,0.1139
-0.3929,-0.3215,-0.1161,-0.2271,-0.1762,-0.1292,0.298,0.1107,0.445,0.2688,0.3402,0.4678,0.3242,0.2825,-0.2746,-0.5011,-0.3774,-0.1598,-0.1267,-0.3934,-0.1328,0.0481,0.1607,0.5654,0.5219,0.5767,0.4479,0.5615,-0.1151,0.1364
-0.4018,-0.3476,-0.1004,-0.2617,-0.2126,-0.1283,0.2681,0.1116,0.422,0.2281,0.2782,0.4065,0.2311,0.179,-0.2999,-0.5598,-0.4024,-0.1487,-0.1553,-0.4765,-0.2293,0.0106,0.1566,0.5039,0.5037,0.5435,0.3867,0.5138,-0.0959,0.1586
-0.4297,-0.3958,-0.1063,-0.318,-0.2667,-0.1457,0.2272,0.0993,0.3862,0.1788,0.2068,0.3438,0.1321,0.0729,-0.3385,-0.6322,-0.4412,-0.1414,-0.1932,-0.5649,-0.3321,-0.0277,0.1531,0.44,0.4924,0.5184,0.3337,0.4653,-0.0819,0.1824
-0.477,-0.4674,-0.1347,-0.3946,-0.3362,-0.1833,0.1784,0.0752,0.3398,0.124,0.1334,0.2824,0.0345,-0.0273,-0.3899,-0.7181,-0.493,-0.1422,-0.2408,-0.6571,-0.4358,-0.0669,0.1455,0.3798,0.4889,0.5035,0.293,0.4189,-0.0739,0.2096
-0.5405,-0.5591,-0.1833,-0.4868,-0.4159,-0.239,0.1254,0.0428,0.2867,0.0673,0.0649,0.2245,-0.0545,-0.114,-0.4513,-0.814,-0.5543,-0.1541,-0.2969,-0.7493,-0.5339,-0.1068,0.1296,0.3281,0.492,0.4983,0.2666,0.3768,-0.0718,0.2412
-0.6137,-0.663,-0.2459,-0.5863,-0.4987,-0.3071,0.0719,0.0076,0.232,0.0126,0.0073,0.1716,-0.1298,-0.1817,-0.5171,-0.9134,-0.6198,-0.1783,-0.3583,-0.836,-0.6197,-0.1475,0.1015,0.2873,0.4984,0.4995,0.2534,0.3402,-0.0742,0.2766
-0.6878,-0.7668,-0.3138,-0.6827,-0.5764,-0.3791,0.0212,-0.0247,0.1806,-0.0368,-0.036,0.124,-0.1883,-0.2279,-0.5811,-1.0071,-0.6832,-0.2141,-0.4208,-0.9108,-0.6876,-0.1893,0.0587,0.2565,0.503,0.5016,0.2497,0.3088,-0.0789,0.3136
-0.754,-0.8561,-0.3772,-0.7642,-0.6412,-0.4452,-0.0244,-0.0498,0.136,-0.0789,-0.0647,0.0812,-0.2303,-0.254,-0.6365,-1.086,-0.739,-0.2589,-0.4804,-0.9677,-0.7338,-0.2328,0.0004,0.2317,0.5002,0.4987,0.2491,0.2811,-0.0831,0.3489
-0.8048,-0.9178,-0.4266,-0.8206,-0.6871,-0.4965,-0.0641,-0.0656,0.1001,-0.1137,-0.0815,0.0419,-0.2589,-0.2645,-0.6783,-1.1423,-0.7828,-0.3087,-0.5337,-1.0023,-0.7572,-0.2786,-0.0723,0.207,0.485,0.4847,0.2442,0.2546,-0.0841,0.3781
-0.8359,-0.9423,-0.4555,-0.8448,-0.7107,-0.5273,-0.0985,-0.0728,0.072,-0.1429,-0.0915,0.0044,-0.2799,-0.2671,-0.7033,-1.171,-0.8129,-0.3589,-0.5785,-1.013,-0.7602,-0.3272,-0.1559,0.1751,0.4538,0.4554,0.2276,0.2262,-0.0803,0.3975
-0.8463,-0.9261,-0.461,-0.8345,-0.7124,-0.5359,-0.1293,-0.0746,0.0494,-0.1696,-0.1,-0.0324,-0.2996,-0.2701,-0.7105,-1.1715,-0.829,-0.4042,-0.6134,-1.0018,-0.7477,-0.3782,-0.2449,0.1295,0.4051,0.4085,0.1938,0.1928,-0.071,0.404
-0.8384,-0.8727,-0.4444,-0.7927,-0.6955,-0.525,-0.1586,-0.0756,0.0284,-0.1975,-0.1119,-0.0687,-0.3243,-0.2811,-0.7011,-1.1464,-0.8325,-0.4398,-0.6379,-0.9734,-0.7265,-0.4299,-0.3327,0.0663,0.3402,0.3443,0.1403,0.1525,-0.0568,0.3965
-0.8172,-0.7916,-0.4105,-0.7271,-0.6664,-0.5008,-0.1888,-0.0802,0.0054,-0.2299,-0.1296,-0.103,-0.3579,-0.305,-0.6776,-1.1017,-0.8254,-0.4618,-0.6513,-0.9345,-0.7037,-0.4799,-0.412,-0.0154,0.2626,0.2657,0.0685,0.1047,-0.0399,0.3758
-0.7885,-0.6965,-0.3668,-0.6488,-0.6323,-0.4711,-0.2212,-0.092,-0.0228,-0.2691,-0.1533,-0.1323,-0.4017,-0.3427,-0.6437,-1.0447,-0.8096,-0.4677,-0.6536,-0.8925,-0.6854,-0.5249,-0.4769,-0.1125,0.1774,0.1776,-0.0165,0.0514,-0.0229,0.3447
-0.7579,-0.6023,-0.321,-0.5701,-0.6008,-0.444,-0.2563,-0.1123,-0.0577,-0.3154,-0.181,-0.1532,-0.4534,-0.3908,-0.6033,-0.9827,-0.7872,-0.457,-0.6448,-0.8537,-0.6751,-0.5616,-0.5235,-0.2185,0.0907,0.0862,-0.1066,-0.0043,-0.0091,0.3075
-0.7299,-0.522,-0.28,-0.5017,-0.5776,-0.4255,-0.2936,-0.1405,-0.0989,-0.3674,-0.2095,-0.1625,-0.5085,-0.4425,-0.5602,-0.922,-0.7599,-0.4313,-0.626,-0.8221,-0.6733,-0.5871,-0.5507,-0.325,0.0081,-0.0018,-0.1929,-0.0581,-0.0008,0.2691
-0.7063,-0.4639,-0.248,-0.4512,-0.5662,-0.4187,-0.3309,-0.1737,-0.1443,-0.4215,-0.2353,-0.1587,-0.5604,-0.4891,-0.5174,-0.8663,-0.7294,-0.3943,-0.5989,-0.7985,-0.6773,-0.5997,-0.5597,-0.4227,-0.0658,-0.0806,-0.2673,-0.1058,0.0005,0.234
-0.6867,-0.4303,-0.2261,-0.4209,-0.5665,-0.4228,-0.365,-0.2074,-0.1896,-0.4727,-0.2551,-0.1424,-0.6023,-0.5216,-0.4765,-0.8166,-0.6967,-0.3506,-0.5657,-0.7802,-0.6816,-0.5987,-0.5538,-0.5031,-0.128,-0.1458,-0.3238,-0.1443,-0.0052,0.2053
-0.6682,-0.4175,-0.2119,-0.4077,-0.5752,-0.4338,-0.3916,-0.2361,-0.2296,-0.515,-0.2664,-0.1163,-0.6285,-0.533,-0.438,-0.7712,-0.6626,-0.3056,-0.529,-0.7623,-0.6792,-0.5845,-0.537,-0.5595,-0.177,-0.1947,-0.3598,-0.1719,-0.0161,0.1844
-0.6464,-0.4173,-0.2009,-0.4046,-0.5864,-0.4455,-0.4064,-0.2541,-0.2583,-0.5424,-0.2671,-0.0846,-0.635,-0.5191,-0.4008,-0.7262,-0.6273,-0.264,-0.4912,-0.7383,-0.6635,-0.5586,-0.5133,-0.5882,-0.2126,-0.2263,-0.3756,-0.1884,-0.0297,0.1707
-0.6169,-0.4192,-0.1877,-0.4021,-0.593,-0.4508,-0.4058,-0.2566,-0.2703,-0.55,-0.256,-0.0519,-0.6206,-0.4803,-0.3636,-0.6773,-0.5905,-0.2291,-0.4543,-0.7026,-0.63,-0.5233,-0.4858,-0.5886,-0.2354,-0.2407,-0.3746,-0.1943,-0.0428,0.1627
-0.5765,-0.4136,-0.168,-0.3913,-0.5882,-0.4441,-0.388,-0.2408,-0.2618,-0.5352,-0.2328,-0.022,-0.5871,-0.4209,-0.3251,-0.6207,-0.5516,-0.2026,-0.4195,-0.6517,-0.5778,-0.4816,-0.4565,-0.5629,-0.2457,-0.2387,-0.3614,-0.1907,-0.0525,0.1578
-0.5246,-0.3935,-0.1396,-0.3656,-0.5675,-0.4226,-0.354,-0.2066,-0.2317,-0.4983,-0.1985,0.0029,-0.5386,-0.3489,-0.2851,-0.5543,-0.5102,-0.1838,-0.3875,-0.5853,-0.5095,-0.4366,-0.4266,-0.5158,-0.244,-0.2214,-0.3411,-0.1785,-0.0569,0.1538
-0.4634,-0.3566,-0.1032,-0.3228,-0.5292,-0.3866,-0.3069,-0.1569,-0.1819,-0.4428,-0.1557,0.0226,-0.481,-0.2735,-0.2441,-0.4787,-0.466,-0.1703,-0.358,-0.5062,-0.431,-0.3914,-0.3964,-0.4536,-0.2303,-0.1904,-0.3179,-0.1583,-0.0551,0.1487
-0.3978,-0.3046,-0.0624,-0.2646,-0.4748,-0.3398,-0.2522,-0.0969,-0.1172,-0.3746,-0.1082,0.0383,-0.4205,-0.2041,-0.2036,-0.3967,-0.4189,-0.1586,-0.3299,-0.4198,-0.3497,-0.3484,-0.366,-0.3833,-0.2052,-0.1475,-0.2941,-0.1304,-0.0481,0.1414
-0.3339,-0.2427,-0.0219,-0.1962,-0.4088,-0.2881,-0.1958,-0.0338,-0.0448,-0.3013,-0.0606,0.0517,-0.3629,-0.1472,-0.1651,-0.3129,-0.369,-0.145,-0.3015,-0.332,-0.2727,-0.3088,-0.335,-0.3114,-0.1698,-0.0955,-0.2705,-0.0955,-0.0373,0.1311
-0.2776,-0.178,0.0131,-0.1246,-0.3369,-0.2381,-0.1431,0.0247,0.0269,-0.231,-0.0183,0.0645,-0.3123,-0.1063,-0.1302,-0.2327,-0.3167,-0.1265,-0.2707,-0.2489,-0.2051,-0.2728,-0.3035,-0.2436,-0.1268,-0.0382,-0.2465,-0.0551,-0.0251,0.1181
-0.2333,-0.1173,0.0387,-0.0569,-0.2653,-0.1957,-0.0981,0.0715,0.0896,-0.1707,0.0142,0.0773,-0.271,-0.0806,-0.0993,-0.1609,-0.2627,-0.1012,-0.2353,-0.1749,-0.1494,-0.2395,-0.2714,-0.1842,-0.0796,0.0192,-0.2214,-0.0119,-0.0134,0.1025
-0.2025,-0.0657,0.0534,0.0016,-0.1992,-0.1648,-0.0625,0.1016,0.1365,-0.1252,0.0331,0.0899,-0.2389,-0.066,-0.0719,-0.101,-0.2081,-0.0692,-0.194,-0.112,-0.1047,-0.2075,-0.239,-0.1352,-0.0331,0.0713,-0.1951,0.0305,-0.0038,0.0853
-0.1837,-0.0254,0.0583,0.0485,-0.1411,-0.1462,-0.0355,0.1124,0.1631,-0.0969,0.037,0.1013,-0.214,-0.0559,-0.0468,-0.0542,-0.154,-0.0324,-0.146,-0.06,-0.0679,-0.1752,-0.2068,-0.0969,0.0079,0.1127,-0.1682,0.0677,0.0032,0.067
-0.1723,0.0045,0.0566,0.0843,-0.0914,-0.1378,-0.0148,0.1044,0.1687,-0.0852,0.0265,0.1103,-0.1925,-0.0431,-0.0222,-0.0192,-0.1016,0.0062,-0.0918,-0.0164,-0.0341,-0.1414,-0.1756,-0.0676,0.0386,0.1395,-0.1425,0.0956,0.0078,0.0486
-0.1623,0.0271,0.0532,0.1123,-0.0481,-0.1352,0.0033,0.081,0.1554,-0.0871,0.0042,0.1158,-0.1706,-0.0215,0.0042,0.0076,-0.0517,0.0428,-0.0333,0.0225,0.0012,-0.1054,-0.1461,-0.0449,0.0555,0.1492,-0.1205,0.1112,0.011,0.0305
-0.1478,0.0467,0.0523,0.1372,-0.0078,-0.1327,0.0223,0.0479,0.1284,-0.098,-0.0255,0.1172,-0.1449,0.0121,0.034,0.0306,-0.0051,0.0739,0.0267,0.0607,0.0414,-0.0675,-0.119,-0.0261,0.0569,0.1421,-0.1044,0.113,0.0143,0.0132
-0.1245,0.0671,0.0572,0.1633,0.0324,-0.1247,0.045,0.0117,0.0944,-0.1129,-0.0572,0.1146,-0.1135,0.0581,0.0681,0.0541,0.0381,0.0971,0.0847,0.101,0.0878,-0.0288,-0.0948,-0.0091,0.043,0.1206,-0.0954,0.1013,0.0189,-0.0035
-0.0911,0.0901,0.0682,0.193,0.0745,-0.1074,0.0731,-0.0211,0.0605,-0.1263,-0.085,0.1091,-0.0766,0.1132,0.1064,0.0811,0.0776,0.1114,0.1372,0.1444,0.1393,0.0091,-0.0735,0.0075,0.0169,0.0893,-0.0933,0.0791,0.0258,-0.0196
-0.0499,0.1151,0.0835,0.2264,0.1184,-0.0796,0.1068,-0.0451,0.0333,-0.1339,-0.1033,0.1027,-0.0359,0.1721,0.1473,0.1119,0.1131,0.118,0.1811,0.1893,0.1929,0.0446,-0.0546,0.0243,-0.0162,0.0542,-0.0962,0.0508,0.0351,-0.0354
-0.0056,0.1395,0.0991,0.2607,0.1623,-0.0426,0.1449,-0.0566,0.0177,-0.132,-0.107,0.0986,0.0061,0.2281,0.1883,0.145,0.1446,0.1196,0.2147,0.2322,0.2449,0.0761,-0.0372,0.0415,-0.0493,0.0225,-0.1007,0.0229,0.046,-0.0505
0.0355,0.1597,0.1105,0.2921,0.2036,0.0001,0.1858,-0.0542,0.0169,-0.1183,-0.0921,0.1005,0.0463,0.2756,0.2266,0.1774,0.1724,0.1202,0.2377,0.2689,0.2914,0.1023,-0.0204,0.0595,-0.0748,0.001,-0.103,0.0021,0.0574,-0.0644
0.0684,0.1729,0.1145,0.3167,0.2396,0.0442,0.2275,-0.0383,0.0321,-0.0919,-0.0562,0.112,0.0825,0.3108,0.2596,0.2062,0.1971,0.1242,0.2518,0.2962,0.3301,0.1233,-0.0029,0.0788,-0.0856,-0.0045,-0.0997,-0.0052,0.0676,-0.0763
0.0899,0.1784,0.11,0.3323,0.2692,0.0857,0.2683,-0.0105,0.0624,-0.0532,0.0008,0.1364,0.1134,0.3326,0.2858,0.2301,0.2203,0.1359,0.2605,0.313,0.3604,0.1399,0.0162,0.1003,-0.0767,0.0092,-0.0885,0.0056,0.0751,-0.0855
0.1005,0.1782,0.0992,0.3392,0.2926,0.1219,0.3071,0.0262,0.105,-0.0044,0.0761,0.175,0.1386,0.3429,0.3055,0.2496,0.244,0.1585,0.2684,0.3218,0.3839,0.1542,0.0377,0.1249,-0.046,0.0428,-0.0694,0.0369,0.0787,-0.0917
0.1034,0.1769,0.0869,0.3402,0.3121,0.1517,0.3429,0.0684,0.1561,0.0505,0.1645,0.2274,0.1583,0.3453,0.3203,0.2677,0.2703,0.1935,0.2806,0.3272,0.4034,0.1688,0.0622,0.1533,0.0051,0.094,-0.0438,0.0876,0.0779,-0.0952
0.1042,0.1801,0.0792,0.3397,0.3304,0.1757,0.3749,0.1124,0.2104,0.1063,0.258,0.2901,0.1731,0.3444,0.333,0.2884,0.3012,0.2408,0.3021,0.3359,0.4226,0.1869,0.0902,0.1854,0.0717,0.1576,-0.0148,0.1538,0.0726,-0.097
0.1087,0.193,0.082,0.3427,0.3501,0.1955,0.4024,0.1542,0.2623,0.1567,0.347,0.3576,0.1832,0.3441,0.3471,0.3156,0.3377,0.2987,0.3364,0.354,0.4447,0.2114,0.1219,0.2203,0.1464,0.2271,0.0138,0.2289,0.0631,-0.0985
0.122,0.219,0.0993,0.3529,0.3726,0.2131,0.4238,0.1904,0.3067,0.1954,0.4221,0.4224,0.1885,0.347,0.3655,0.3521,0.3805,0.3647,0.385,0.3861,0.4717,0.2446,0.1578,0.2562,0.2207,0.2953,0.0381,0.3048,0.0501,-0.1011
0.1468,0.2588,0.132,0.3724,0.3974,0.2302,0.4379,0.218,0.3391,0.2169,0.4752,0.4767,0.1887,0.3538,0.3905,0.3985,0.4291,0.4361,0.4474,0.4338,0.504,0.2875,0.1979,0.2911,0.2866,0.3554,0.0548,0.3729,0.0345,-0.1061
0.1828,0.31,0.1779,0.4008,0.4226,0.2483,0.4431,0.2349,0.3567,0.2177,0.5013,0.5132,0.1837,0.3641,0.4227,0.4536,0.4827,0.5105,0.521,0.4959,0.5408,0.3399,0.2422,0.3229,0.338,0.4023,0.0618,0.4259,0.0173,-0.1146
0.2278,0.3685,0.2326,0.4364,0.4458,0.2677,0.4389,0.24,0.3586,0.197,0.4994,0.5269,0.1742,0.3764,0.4618,0.5154,0.5402,0.5862,0.6018,0.569,0.5805,0.4002,0.2906,0.3503,0.3717,0.4335,0.0589,0.4583,-0.0007,-0.1274
0.2776,0.4298,0.2905,0.4768,0.4649,0.2886,0.4255,0.2334,0.3458,0.1572,0.4723,0.5157,0.162,0.3899,0.5063,0.5815,0.6004,0.6619,0.6859,0.6487,0.6215,0.466,0.3422,0.3735,0.388,0.4488,0.0478,0.4681,-0.0187,-0.1451
0.3279,0.4901,0.3461,0.5201,0.4797,0.3108,0.4049,0.2162,0.3208,0.1031,0.4262,0.4816,0.1502,0.4048,0.5539,0.6506,0.6623,0.7366,0.7695,0.731,0.6635,0.5343,0.3959,0.3938,0.3904,0.4509,0.0322,0.457,-0.0361,-0.168
0.3746,0.5473,0.3946,0.5659,0.492,0.3339,0.3807,0.1905,0.2879,0.0421,0.3697,0.4302,0.1429,0.4228,0.6022,0.7225,0.7252,0.8094,0.8502,0.8133,0.7069,0.6017,0.4501,0.4142,0.3846,0.4447,0.0176,0.4302,-0.0528,-0.1965
0.4153,0.6016,0.4329,0.6149,0.5053,0.358,0.3576,0.159,0.2518,-0.0175,0.3122,0.3704,0.1447,0.447,0.649,0.7984,0.7886,0.879,0.9268,0.8944,0.7536,0.6657,0.5032,0.4384,0.3777,0.4364,0.0103,0.3961,-0.0686,-0.2306
0.4486,0.6543,0.4598,0.6688,0.5244,0.3832,0.341,0.125,0.2176,-0.0672,0.263,0.3132,0.1601,0.481,0.6926,0.8796,0.8524,0.9444,0.9992,0.9749,0.8055,0.7245,0.554,0.4698,0.3765,0.4328,0.0166,0.3645,-0.0833,-0.2697
0.4751,0.7075,0.4756,0.7293,0.5534,0.41,0.3362,0.092,0.1902,-0.0996,0.2304,0.2693,0.1924,0.5283,0.7319,0.9669,0.9168,1.0051,1.0681,1.0557,0.8643,0.7773,0.602,0.5109,0.3868,0.4398,0.0416,0.3452,-0.0971,-0.3129
0.4963,0.763,0.4824,0.7969,0.5949,0.4391,0.3472,0.0633,0.1735,-0.1093,0.2203,0.2485,0.2426,0.5904,0.7666,1.06,0.9819,1.0611,1.1342,1.1376,0.9304,0.8249,0.6477,0.5628,0.412,0.4618,0.0881,0.3463,-0.1099,-0.3585
0.5149,0.8217,0.4832,0.8706,0.6489,0.4711,0.3764,0.042,0.1707,-0.0938,0.2365,0.257,0.3095,0.6668,0.7972,1.1567,1.0479,1.1132,1.1984,1.2207,1.0029,0.8689,0.6928,0.6246,0.4532,0.501,0.1558,0.3726,-0.1219,-0.4044
0.5336,0.8834,0.4819,0.9477,0.7134,0.5065,0.4239,0.0305,0.1838,-0.0535,0.2796,0.2971,0.3892,0.7539,0.8246,1.2537,1.1141,1.1625,1.2608,1.3037,1.0792,0.9117,0.7393,0.694,0.5094,0.5572,0.2414,0.4249,-0.1333,-0.4483
0.5554,0.9474,0.4824,1.0244,0.784,0.5458,0.4874,0.0307,0.2136,0.0084,0.3477,0.3662,0.4756,0.8456,0.8501,1.3468,1.1793,1.2094,1.321,1.3838,1.155,0.9552,0.7894,0.7672,0.5773,0.6281,0.3388,0.4998,-0.1442,-0.4881
0.5827,1.0128,0.4885,1.0968,0.8555,0.5891,0.5627,0.0439,0.2592,0.0863,0.4356,0.4576,0.5615,0.934,0.8743,1.4315,1.2411,1.2539,1.378,1.4575,1.2253,1.0004,0.8443,0.8394,0.6521,0.709,0.4398,0.5901,-0.155,-0.5221
0.6173,1.0786,0.5031,1.1615,0.9228,0.636,0.6438,0.0698,0.3184,0.1728,0.5355,0.561,0.6387,1.0101,0.8975,1.5041,1.2963,1.2943,1.4296,1.5205,1.2844,1.0463,0.9035,0.9051,0.7278,0.7933,0.5351,0.686,-0.1654,-0.5489
0.6593,1.1434,0.5279,1.2163,0.9807,0.6848,0.7233,0.1072,0.387,0.2596,0.638,0.6643,0.6996,1.066,0.9191,1.5616,1.3413,1.3282,1.4734,1.5687,1.3268,1.0908,0.9644,0.959,0.7983,0.8736,0.6155,0.7761,-0.1749,-0.5681
0.7078,1.2058,0.5622,1.26,1.0253,0.7328,0.7938,0.1526,0.4588,0.3381,0.7334,0.7552,0.7383,1.0956,0.938,1.6023,1.373,1.3526,1.5071,1.5991,1.3481,1.1303,1.0234,0.9962,0.8578,0.9423,0.6734,0.8497,-0.1833,-0.5795
0.7599,1.2635,0.603,1.292,1.0533,0.7751,0.8485,0.201,0.527,0.4009,0.8133,0.8241,0.7512,1.0962,0.9527,1.6261,1.3898,1.3649,1.5293,1.6107,1.3462,1.1615,1.0761,1.0139,0.9019,0.9933,0.7041,0.8987,-0.1901,-0.584
0.8112,1.3135,0.6448,1.3119,1.0625,0.8055,0.8823,0.2458,0.5841,0.4431,0.8722,0.8651,0.7382,1.0694,0.9622,1.6346,1.3922,1.3639,1.5402,1.6048,1.3222,1.1826,1.1189,1.0118,0.9284,1.0229,0.7069,0.9189,-0.1958,-0.5833
0.8566,1.3525,0.68,1.3195,1.0518,0.8172,0.893,0.2804,0.6245,0.4625,0.9082,0.8775,0.7029,1.0212,0.9662,1.6311,1.3829,1.3504,1.5417,1.5853,1.2802,1.1936,1.1494,0.993,0.9381,1.0311,0.6852,0.9115,-0.2012,-0.5795
0.891,1.3777,0.7007,1.3144,1.0218,0.804,0.8818,0.2992,0.6447,0.4605,0.9231,0.8654,0.6524,0.9611,0.9656,1.6204,1.3669,1.327,1.5378,1.5583,1.228,1.1969,1.1673,0.9636,0.934,1.0213,0.6464,0.8826,-0.2075,-0.5753
0.9111,1.3872,0.6999,1.2971,0.975,0.7623,0.8535,0.2988,0.6448,0.4419,0.922,0.8371,0.5964,0.9007,0.9622,1.6081,1.3501,1.2974,1.5333,1.5312,1.1753,1.1963,1.1739,0.9315,0.9213,1.0001,0.6005,0.8418,-0.216,-0.5734
0.9158,1.3822,0.6741,1.2695,0.9159,0.693,0.8154,0.2793,0.6282,0.4137,0.9114,0.803,0.5453,0.8521,0.9586,1.6008,1.339,1.2664,1.5339,1.512,1.1329,1.1963,1.1712,0.9052,0.906,0.9755,0.5581,0.801,-0.2272,-0.5757
0.907,1.3663,0.6244,1.2356,0.8516,0.6018,0.7766,0.2443,0.6015,0.3837,0.8982,0.7735,0.5089,0.8256,0.9581,1.6044,1.3391,1.238,1.5444,1.5084,1.1109,1.2009,1.1618,0.8919,0.8935,0.9558,0.5293,0.7715,-0.2407,-0.5837
0.8897,1.3466,0.557,1.2019,0.7905,0.4994,0.7462,0.2004,0.5725,0.3593,0.8887,0.757,0.4943,0.8284,0.9638,1.6244,1.3549,1.2157,1.5689,1.5266,1.1174,1.2124,1.1479,0.8962,0.8878,0.9476,0.5214,0.7617,-0.2549,-0.5977
0.8711,1.3324,0.4833,1.177,0.742,0.4001,0.7318,0.1559,0.5491,0.3461,0.8868,0.758,0.5049,0.8635,0.9788,1.665,1.3889,1.2014,1.6095,1.571,1.1571,1.2315,1.1313,0.9192,0.8906,0.9547,0.5379,0.7761,-0.2676,-0.6175
0.8597,1.334,0.4176,1.1701,0.7149,0.3189,0.738,0.1194,0.5374,0.3466,0.8941,0.777,0.5398,0.9292,1.0053,1.7286,1.4425,1.1963,1.6668,1.6436,1.2307,1.2576,1.1139,0.9584,0.9014,0.9773,0.5784,0.8141,-0.2763,-0.6424
0.8637,1.3609,0.3749,1.1899,0.716,0.2695,0.766,0.0979,0.5405,0.3602,0.9091,0.8098,0.5939,1.0196,1.0453,1.8158,1.5152,1.2006,1.7398,1.7436,1.335,1.2896,1.0978,1.009,0.9175,1.0122,0.6381,0.8703,-0.279,-0.6715
0.8891,1.4191,0.3676,1.2417,0.7487,0.261,0.8129,0.0959,0.5582,0.3834,0.928,0.8494,0.6593,1.1259,1.0995,1.9245,1.6054,1.2146,1.8261,1.8674,1.4629,1.327,1.0859,1.0649,0.9352,1.0537,0.7093,0.9359,-0.2751,-0.7037
0.939,1.5103,0.4031,1.3266,0.8123,0.2959,0.8725,0.1144,0.5868,0.4105,0.9444,0.8867,0.7264,1.2374,1.167,2.0497,1.7098,1.238,1.9225,2.0087,1.6047,1.3698,1.0821,1.1201,0.9507,1.0949,0.7826,1.0006,-0.2655,-0.7379
1.012,1.63,0.4815,1.4403,0.9013,0.3697,0.9364,0.1507,0.6199,0.4348,0.9514,0.9131,0.7859,1.3433,1.245,2.1834,1.8226,1.2702,2.0244,2.158,1.7486,1.4189,1.0904,1.1695,0.9614,1.1294,0.8492,1.0542,-0.2529,-0.7724
1.1019,1.7681,0.5957,1.573,1.0065,0.4712,0.9951,0.1991,0.6502,0.4499,0.9424,0.9214,0.83,1.434,1.3282,2.3143,1.9361,1.3094,2.1259,2.3037,1.8824,1.4748,1.1145,1.2099,0.9663,1.1523,0.9019,1.0886,-0.2407,-0.8052
1.1987,1.9096,0.7319,1.7108,1.116,0.585,1.0401,0.2516,0.6707,0.4513,0.9128,0.9078,0.854,1.5022,1.4086,2.4291,2.04,1.3519,2.2201,2.4329,1.9948,1.5369,1.1563,1.2398,0.9666,1.1618,0.9367,1.0989,-0.2329,-0.8334
1.2896,2.0377,0.8724,1.8383,1.2173,0.6943,1.0651,0.3002,0.6761,0.4369,0.8613,0.8719,0.8569,1.5442,1.477,2.5135,2.1227,1.3921,2.2986,2.5325,2.0767,1.6025,1.2151,1.2595,0.9651,1.1588,0.9533,1.084,-0.2329,-0.8536
1.3616,2.1357,0.9985,1.9405,1.2997,0.7846,1.0675,0.3375,0.6646,0.4078,0.7901,0.8171,0.8412,1.5597,1.5234,2.5548,2.1727,1.4232,2.3533,2.5917,2.1226,1.6672,1.2873,1.2705,0.9657,1.1468,0.9541,1.0469,-0.2427,-0.8624
1.4042,2.1909,1.0939,2.0065,1.3559,0.8459,1.0482,0.3589,0.6374,0.3675,0.7055,0.7495,0.8123,1.5521,1.5399,2.5442,2.1805,1.4384,2.3772,2.6033,2.1312,1.7251,1.3667,1.2748,0.9726,1.1307,0.9441,0.9934,-0.2627,-0.8569
1.4107,2.1966,1.1477,2.0303,1.3834,0.8747,1.0117,0.3627,0.5984,0.3215,0.6159,0.6769,0.7773,1.5274,1.522,2.4794,2.1409,1.4325,2.366,2.5658,2.1058,1.77,1.4457,1.2746,0.9885,1.1154,0.9288,0.9316,-0.2916,-0.8358
1.3804,2.1531,1.1561,2.0125,1.3839,0.8735,0.9645,0.35,0.5537,0.2758,0.5305,0.6072,0.7436,1.4932,1.4701,2.3659,2.0547,1.4035,2.3197,2.4842,2.0536,1.7973,1.5163,1.2718,1.0145,1.1052,0.9129,0.8698,-0.3266,-0.8005
1.3181,2.0681,1.1227,1.959,1.363,0.8498,0.914,0.3247,0.5093,0.236,0.4574,0.5471,0.7177,1.4573,1.3905,2.2167,1.9295,1.3533,2.243,2.3696,1.9842,1.8048,1.5717,1.2678,1.0492,1.102,0.8999,0.8152,-0.3639,-0.7548
1.2338,1.9545,1.0572,1.8806,1.3284,0.8135,0.8669,0.2918,0.4706,0.2061,0.4022,0.5013,0.7036,1.4264,1.2942,2.0511,1.7792,1.288,2.1456,2.2378,1.9088,1.7938,1.608,1.2637,1.0893,1.1058,0.8915,0.7732,-0.3993,-0.7055
1.1402,1.8288,0.9734,1.7906,1.2889,0.775,0.8285,0.2573,0.4412,0.1886,0.3669,0.4719,0.7034,1.4052,1.1955,1.8912,1.6222,1.2172,2.0402,2.1069,1.8376,1.7692,1.6245,1.2605,1.1302,1.1148,0.8877,0.7465,-0.4291,-0.6604
1.0509,1.7079,0.8863,1.7033,1.2528,0.7433,0.8023,0.2269,0.4225,0.184,0.3503,0.4588,0.7163,1.3962,1.109,1.7585,1.4786,1.1523,1.9412,1.9944,1.7793,1.7379,1.6244,1.2589,1.1669,1.1262,0.8874,0.7351,-0.4499,-0.6274
0.9778,1.6068,0.8099,1.6317,1.2269,0.7249,0.7894,0.205,0.4143,0.1913,0.3485,0.4602,0.7396,1.3992,1.0473,1.6696,1.3664,1.1047,1.8615,1.9145,1.7395,1.7078,1.6134,1.2594,1.1956,1.1369,0.8888,0.737,-0.4601,-0.6123
0.929,1.5363,0.755,1.5861,1.216,0.7234,0.7887,0.1951,0.4148,0.2083,0.356,0.4729,0.7691,1.412,1.018,1.6338,1.2984,1.0834,1.8106,1.8753,1.7205,1.6858,1.599,1.2622,1.2141,1.144,0.8902,0.7482,-0.4591,-0.6177
0.9079,1.5017,0.7276,1.5722,1.222,0.7394,0.7971,0.1983,0.4215,0.2316,0.3669,0.4926,0.7994,1.4306,1.0227,1.6511,1.2795,1.0934,1.7927,1.878,1.7212,1.6762,1.5881,1.2668,1.2219,1.145,0.8894,0.7636,-0.4481,-0.6424
0.9126,1.502,0.7291,1.5898,1.2433,0.7705,0.8095,0.2142,0.4311,0.2572,0.3755,0.5145,0.8248,1.4496,1.0567,1.7123,1.3067,1.1346,1.806,1.9163,1.737,1.6799,1.5862,1.2717,1.2201,1.1373,0.8843,0.777,-0.4296,-0.6814
0.9363,1.5303,0.756,1.6327,1.275,0.8122,0.8195,0.2404,0.4399,0.2799,0.3772,0.5326,0.8396,1.4626,1.1099,1.8009,1.369,1.2018,1.8431,1.9777,1.7607,1.6942,1.5957,1.2744,1.2108,1.1185,0.8731,0.7823,-0.407,-0.7268
0.9693,1.5748,0.8009,1.6889,1.3087,0.8581,0.8202,0.2729,0.444,0.2944,0.3681,0.541,0.8389,1.4635,1.1691,1.8955,1.4502,1.2857,1.893,2.0456,1.7833,1.7138,1.6158,1.2722,1.1966,1.0865,0.854,0.7736,-0.3841,-0.7697
0.9998,1.6207,0.8543,1.7429,1.3342,0.9007,0.8056,0.3069,0.4395,0.2956,0.3451,0.5337,0.8192,1.4467,1.22,1.9742,1.5316,1.3745,1.9424,2.1023,1.7949,1.7317,1.6432,1.2623,1.1796,1.0401,0.826,0.7462,-0.3641,-0.8015
1.0169,1.6528,0.9055,1.7781,1.3412,0.933,0.7716,0.3378,0.4234,0.2794,0.3065,0.5063,0.779,1.4084,1.25,2.0173,1.5948,1.4561,1.9785,2.1317,1.7867,1.7409,1.6728,1.2424,1.162,0.9796,0.7886,0.6979,-0.3493,-0.8155
1.0116,1.6575,0.945,1.7801,1.3212,0.949,0.7174,0.3618,0.3941,0.244,0.2519,0.4565,0.7197,1.3476,1.2499,2.0106,1.6249,1.5198,1.9906,2.1214,1.7521,1.7357,1.6991,1.2117,1.1453,0.9076,0.7427,0.6294,-0.3403,-0.8077
0.9785,1.6249,0.9649,1.7392,1.2702,0.9451,0.6458,0.3765,0.352,0.191,0.1832,0.3857,0.645,1.2663,1.2154,1.9466,1.6118,1.5582,1.9719,2.0647,1.6879,1.7122,1.7174,1.1709,1.1313,0.8289,0.6896,0.5444,-0.3366,-0.777
0.916,1.5503,0.9604,1.6528,1.1894,0.9201,0.563,0.3814,0.2999,0.1248,0.1044,0.2991,0.5607,1.1693,1.1465,1.8254,1.5516,1.5683,1.9197,1.9606,1.5946,1.6693,1.7249,1.1224,1.1214,0.7498,0.6314,0.45,-0.3364,-0.7249
0.8261,1.4342,0.9296,1.5246,1.085,0.8752,0.4768,0.3772,0.2423,0.0527,0.0219,0.205,0.4735,1.0635,1.047,1.653,1.446,1.5515,1.8352,1.8134,1.476,1.6084,1.7208,1.0702,1.1169,0.6776,0.5705,0.3552,-0.3379,-0.6541
0.7133,1.2814,0.8729,1.3642,0.9671,0.8132,0.395,0.3653,0.184,-0.0178,-0.0575,0.1137,0.3894,0.9555,0.9233,1.44,1.3013,1.5131,1.7226,1.6306,1.3379,1.5325,1.7064,1.0181,1.119,0.6184,0.5089,0.2694,-0.3399,-0.5681
0.5835,1.0997,0.793,1.1837,0.8468,0.7376,0.3235,0.3471,0.1293,-0.0799,-0.1273,0.0352,0.3126,0.8511,0.7822,1.1985,1.1267,1.4607,1.5878,1.4219,1.1867,1.4457,1.6842,0.9698,1.1285,0.5766,0.4479,0.2006,-0.3419,-0.4701
0.4428,0.8978,0.6936,0.9955,0.734,0.6516,0.2649,0.3237,0.081,-0.1296,-0.1832,-0.0231,0.2445,0.7534,0.6299,0.9403,0.9324,1.4027,1.4372,1.1964,1.0281,1.3524,1.6573,0.9272,1.1454,0.5537,0.3876,0.1538,-0.3445,-0.3625
0.2961,0.6839,0.579,0.8091,0.635,0.558,0.2189,0.2957,0.0397,-0.1658,-0.2236,-0.0575,0.1845,0.6631,0.4712,0.6746,0.7273,1.346,1.2764,0.9615,0.866,1.2559,1.6286,0.8906,1.169,0.5486,0.3277,0.1304,-0.3486,-0.2475
0.1468,0.4642,0.4538,0.6299,0.5519,0.4592,0.1825,0.2638,0.0044,-0.1903,-0.2504,-0.0693,0.1299,0.5786,0.3095,0.4074,0.5182,1.2952,1.1101,0.7226,0.7029,1.1588,1.6002,0.8588,1.198,0.5576,0.2672,0.1276,-0.355,-0.1265
-0.0029,0.2429,0.3224,0.4595,0.4823,0.3572,0.1519,0.2293,-0.0269,-0.2065,-0.2673,-0.0638,0.078,0.4977,0.1469,0.1418,0.3093,1.2518,0.9416,0.4828,0.5397,1.0624,1.5735,0.83,1.2307,0.5756,0.2053,0.1395,-0.3636,-0.0014
-0.1516,0.0232,0.1895,0.2962,0.4213,0.2545,0.1235,0.1939,-0.0563,-0.2186,-0.2795,-0.0492,0.0264,0.4178,-0.0152,-0.121,0.1032,1.2149,0.7736,0.2441,0.3771,0.9671,1.5488,0.8024,1.265,0.5969,0.1421,0.1584,-0.3736,0.1255
