FP1,F3,F7,FC3,C3,C5,P3,P7,PO7,PO3,O1,Oz,Pz,CPz,FP2,Fz,F4,F8,FC4,FCz,Cz,C4,C6,P4,P8,PO8,PO4,O2,(corr) HEOG,(corr) VEOG
0.2668,-1.0002,-0.1826,-0.2905,-0.073,-0.0811,0.0442,0.0114,0.0294,0.0264,-0.0583,0.3704,-0.1149,-0.2035,-0.0501,-0.5987,-0.6141,-0.2527,-0.3009,-0.5377,-0.4385,-0.33,-0.3415,-0.322,-0.1016,-0.1213,0.178,-0.0119,-0.0259,-0.118
-0.0182,-0.8052,-0.2721,-0.3424,-0.2013,-0.2024,-0.0382,0.01,0.0089,-0.033,-0.1176,0.2974,-0.1885,-0.3038,-0.2376,-0.6112,-0.6377,-0.3476,-0.381,-0.5894,-0.5027,-0.3891,-0.3861,-0.3359,-0.1126,-0.0677,0.121,-0.0264,-0.0361,-0.088
-0.2711,-0.6288,-0.3534,-0.3863,-0.3167,-0.3121,-0.1194,0.004,-0.0136,-0.0882,-0.1688,0.2307,-0.25,-0.3911,-0.4083,-0.6192,-0.6514,-0.4337,-0.4477,-0.6314,-0.5562,-0.4388,-0.4201,-0.3441,-0.1206,-0.0192,0.0676,-0.038,-0.0451,-0.0569
-0.4673,-0.4837,-0.4171,-0.4161,-0.4073,-0.3983,-0.1948,-0.0095,-0.0389,-0.1345,-0.2055,0.1755,-0.2897,-0.4547,-0.5495,-0.6185,-0.6487,-0.5025,-0.4908,-0.6557,-0.5902,-0.4712,-0.4357,-0.3424,-0.1213,0.0208,0.0221,-0.0446,-0.0522,-0.0234
-0.5933,-0.3775,-0.4567,-0.4288,-0.4665,-0.4528,-0.2601,-0.0313,-0.0666,-0.1685,-0.2234,0.135,-0.3017,-0.4887,-0.6538,-0.6064,-0.627,-0.5488,-0.5055,-0.6581,-0.5997,-0.4823,-0.4297,-0.3291,-0.1114,0.0502,-0.0134,-0.0452,-0.057,0.0124
-0.6489,-0.3121,-0.4689,-0.4253,-0.4939,-0.473,-0.3123,-0.0597,-0.0949,-0.1887,-0.2216,0.1098,-0.2856,-0.4927,-0.7201,-0.5829,-0.5889,-0.5714,-0.493,-0.6391,-0.5845,-0.473,-0.4031,-0.3057,-0.0894,0.0677,-0.0388,-0.0402,-0.0595,0.0489
-0.6457,-0.284,-0.4542,-0.4101,-0.4948,-0.4616,-0.3495,-0.0907,-0.1208,-0.1956,-0.2022,0.0982,-0.2466,-0.472,-0.7527,-0.5503,-0.5409,-0.5727,-0.4607,-0.6041,-0.5493,-0.4493,-0.3621,-0.2768,-0.056,0.0736,-0.0567,-0.0314,-0.0605,0.0835
-0.6033,-0.286,-0.4166,-0.3898,-0.4779,-0.4259,-0.3711,-0.1191,-0.1411,-0.1917,-0.1704,0.0963,-0.1946,-0.4363,-0.7596,-0.5137,-0.4922,-0.5578,-0.4197,-0.5619,-0.5028,-0.4203,-0.3166,-0.2494,-0.0149,0.0686,-0.0704,-0.0212,-0.061,0.1134
-0.5443,-0.3089,-0.3627,-0.3715,-0.453,-0.3761,-0.3782,-0.1397,-0.1534,-0.1809,-0.133,0.0992,-0.1427,-0.3977,-0.7509,-0.4795,-0.4518,-0.5333,-0.3831,-0.523,-0.4557,-0.3963,-0.2782,-0.2317,0.0278,0.0544,-0.0839,-0.0124,-0.062,0.1365
-0.4892,-0.343,-0.301,-0.3609,-0.4283,-0.3233,-0.3732,-0.1483,-0.1564,-0.1679,-0.097,0.1015,-0.1041,-0.3682,-0.7355,-0.4544,-0.4266,-0.5053,-0.362,-0.4971,-0.4189,-0.3866,-0.2574,-0.2307,0.0646,0.0326,-0.1006,-0.0074,-0.0641,0.1522
-0.4518,-0.3797,-0.24,-0.3606,-0.4089,-0.2769,-0.3591,-0.1436,-0.1505,-0.157,-0.0685,0.0987,-0.0892,-0.3569,-0.7194,-0.4437,-0.4197,-0.4786,-0.3637,-0.491,-0.4005,-0.3964,-0.2612,-0.2507,0.0883,0.0054,-0.1223,-0.0079,-0.0673,0.1608
-0.4367,-0.412,-0.1869,-0.3708,-0.3961,-0.2435,-0.339,-0.1268,-0.1373,-0.1513,-0.0513,0.0879,-0.1034,-0.3685,-0.7043,-0.4501,-0.43,-0.4561,-0.3895,-0.5069,-0.4047,-0.4266,-0.291,-0.2917,0.0933,-0.0254,-0.1495,-0.0144,-0.0708,0.1635
-0.4396,-0.4353,-0.1468,-0.3892,-0.3884,-0.2255,-0.3162,-0.1013,-0.1194,-0.1521,-0.0464,0.068,-0.1461,-0.4019,-0.6872,-0.4723,-0.4527,-0.4383,-0.4346,-0.5416,-0.4309,-0.4729,-0.3421,-0.3491,0.0773,-0.0576,-0.1812,-0.0264,-0.0731,0.1612
-0.4497,-0.4477,-0.1218,-0.412,-0.3826,-0.2221,-0.2935,-0.072,-0.0997,-0.159,-0.0521,0.0401,-0.2105,-0.4515,-0.6624,-0.5059,-0.4805,-0.4245,-0.4895,-0.5882,-0.4739,-0.5275,-0.4049,-0.4145,0.0413,-0.089,-0.2152,-0.0421,-0.0727,0.155
-0.4538,-0.4498,-0.1118,-0.435,-0.376,-0.2296,-0.2733,-0.0441,-0.0807,-0.1704,-0.0646,0.0068,-0.2862,-0.5082,-0.6239,-0.5435,-0.5048,-0.4125,-0.5421,-0.6367,-0.5254,-0.5809,-0.4668,-0.4769,-0.0098,-0.1172,-0.2489,-0.059,-0.0678,0.1453
-0.4415,-0.4442,-0.1144,-0.4539,-0.3669,-0.243,-0.2579,-0.0218,-0.0641,-0.1838,-0.0792,-0.0282,-0.361,-0.5615,-0.5673,-0.5767,-0.5176,-0.3998,-0.5804,-0.6771,-0.5759,-0.6241,-0.5151,-0.5253,-0.0686,-0.1396,-0.2797,-0.074,-0.0576,0.1327
-0.4081,-0.4342,-0.1259,-0.4648,-0.3559,-0.2572,-0.2484,-0.0078,-0.0515,-0.1967,-0.0914,-0.0611,-0.4239,-0.602,-0.4909,-0.5971,-0.5127,-0.3835,-0.5951,-0.7004,-0.6166,-0.6496,-0.5397,-0.5505,-0.1261,-0.1539,-0.3046,-0.0842,-0.0417,0.1171
-0.3563,-0.4224,-0.1417,-0.4646,-0.3449,-0.2674,-0.2448,-0.0034,-0.0435,-0.2069,-0.098,-0.0893,-0.4671,-0.623,-0.3969,-0.5983,-0.4868,-0.3607,-0.5804,-0.7008,-0.6407,-0.6529,-0.5347,-0.5471,-0.1735,-0.1581,-0.3208,-0.0877,-0.0211,0.0982
-0.2946,-0.4097,-0.1572,-0.451,-0.3364,-0.2701,-0.2461,-0.008,-0.0406,-0.213,-0.0978,-0.1116,-0.4865,-0.6211,-0.2903,-0.5768,-0.4398,-0.3294,-0.5349,-0.6764,-0.6446,-0.6321,-0.499,-0.5142,-0.2033,-0.1514,-0.3258,-0.0834,0.0024,0.0757
-0.2344,-0.3959,-0.1684,-0.4236,-0.3321,-0.2636,-0.25,-0.0201,-0.0429,-0.2146,-0.0914,-0.1287,-0.4824,-0.5969,-0.1785,-0.5326,-0.375,-0.2887,-0.4613,-0.6288,-0.6277,-0.5882,-0.4366,-0.4558,-0.2111,-0.1341,-0.3178,-0.0718,0.0259,0.0496
-0.1855,-0.379,-0.1726,-0.3843,-0.3324,-0.2479,-0.2539,-0.0377,-0.0504,-0.2121,-0.081,-0.1426,-0.4579,-0.554,-0.0696,-0.4688,-0.298,-0.2393,-0.3656,-0.563,-0.5928,-0.5243,-0.355,-0.3791,-0.1963,-0.108,-0.2966,-0.0545,0.0461,0.0208
-0.1525,-0.3564,-0.1686,-0.337,-0.3356,-0.2249,-0.2557,-0.0587,-0.0626,-0.2065,-0.0693,-0.1558,-0.4184,-0.4982,0.0292,-0.3916,-0.2161,-0.1835,-0.2564,-0.4865,-0.5446,-0.4455,-0.2636,-0.2937,-0.1619,-0.0759,-0.2637,-0.0344,0.0598,-0.0087
-0.1331,-0.3255,-0.1561,-0.2881,-0.3393,-0.1975,-0.2538,-0.0808,-0.0788,-0.1993,-0.0591,-0.1706,-0.3702,-0.436,0.1127,-0.3088,-0.1371,-0.1244,-0.1438,-0.4076,-0.4888,-0.358,-0.1725,-0.2094,-0.1144,-0.0414,-0.2233,-0.0146,0.0649,-0.0357
-0.1192,-0.2847,-0.1361,-0.2449,-0.3408,-0.1696,-0.2483,-0.1013,-0.0974,-0.192,-0.0517,-0.188,-0.3192,-0.3736,0.1787,-0.2281,-0.0677,-0.0657,-0.0386,-0.3342,-0.4311,-0.2688,-0.0901,-0.1344,-0.062,-0.008,-0.1813,0.0017,0.0606,-0.0569
-0.0999,-0.2342,-0.1099,-0.2138,-0.3386,-0.145,-0.2406,-0.1177,-0.1162,-0.1859,-0.0469,-0.2075,-0.2709,-0.316,0.2285,-0.156,-0.0128,-0.0105,0.0492,-0.2726,-0.3758,-0.1846,-0.0229,-0.0751,-0.0135,0.0211,-0.1446,0.0116,0.0484,-0.0695
-0.0657,-0.1763,-0.0792,-0.1987,-0.3321,-0.1268,-0.2331,-0.1276,-0.1329,-0.1816,-0.0422,-0.2273,-0.2297,-0.2665,0.2655,-0.0967,0.0251,0.0389,0.1117,-0.2262,-0.3253,-0.111,0.0257,-0.0345,0.0235,0.0435,-0.1197,0.0134,0.0318,-0.0725
-0.012,-0.1152,-0.0453,-0.1993,-0.3212,-0.116,-0.2277,-0.1297,-0.1446,-0.1785,-0.034,-0.2447,-0.1989,-0.2261,0.2947,-0.0511,0.0467,0.0808,0.1449,-0.1948,-0.2797,-0.0517,0.0547,-0.0126,0.0444,0.0571,-0.1109,0.0066,0.0155,-0.0673
0.0589,-0.0562,-0.0097,-0.2097,-0.3051,-0.1111,-0.2243,-0.1231,-0.1486,-0.1747,-0.0182,-0.2566,-0.1792,-0.1933,0.3203,-0.0173,0.0555,0.1149,0.1497,-0.1745,-0.2371,-0.0077,0.0659,-0.0066,0.0477,0.061,-0.1193,-0.0076,0.0045,-0.0569
0.1389,-0.0043,0.0264,-0.2196,-0.2812,-0.1078,-0.2196,-0.1083,-0.1421,-0.1668,0.0077,-0.2601,-0.1693,-0.1645,0.3444,0.009,0.0571,0.1415,0.1317,-0.1585,-0.1935,0.0229,0.0628,-0.0114,0.0352,0.0549,-0.142,-0.0265,0.0031,-0.0455
0.2165,0.0372,0.0617,-0.2162,-0.2457,-0.0999,-0.2073,-0.0857,-0.1232,-0.1508,0.0438,-0.2533,-0.1649,-0.1342,0.366,0.0333,0.0589,0.1617,0.101,-0.1385,-0.1443,0.0448,0.0507,-0.0208,0.0109,0.0392,-0.1731,-0.0463,0.0136,-0.0365
0.2804,0.0673,0.0947,-0.1874,-0.1938,-0.0809,-0.1793,-0.0563,-0.0907,-0.123,0.0865,-0.235,-0.16,-0.0966,0.3824,0.0609,0.068,0.1777,0.0693,-0.1064,-0.0853,0.064,0.0354,-0.0284,-0.0202,0.0157,-0.2046,-0.0628,0.0358,-0.0318
0.3228,0.0883,0.1238,-0.1251,-0.1221,-0.0456,-0.1283,-0.0204,-0.0455,-0.0816,0.1296,-0.2054,-0.1477,-0.0467,0.3898,0.0961,0.09,0.1921,0.048,-0.0567,-0.0141,0.0869,0.0232,-0.0286,-0.0528,-0.0133,-0.2284,-0.0722,0.0669,-0.0317
0.341,0.1049,0.1474,-0.0281,-0.0297,0.0079,-0.0506,0.0214,0.0102,-0.0268,0.1659,-0.1658,-0.1219,0.0184,0.3861,0.1405,0.1277,0.2074,0.0457,0.0127,0.0694,0.1189,0.0193,-0.0172,-0.0824,-0.0443,-0.2377,-0.0718,0.1019,-0.0354
0.3388,0.1231,0.1645,0.0965,0.0805,0.0776,0.0521,0.0686,0.072,0.0385,0.1892,-0.1185,-0.0787,0.0985,0.3723,0.1932,0.1801,0.2259,0.0661,0.0993,0.1626,0.1636,0.0282,0.0083,-0.1046,-0.0732,-0.2279,-0.0604,0.1349,-0.0417
0.3246,0.1484,0.1751,0.2344,0.2011,0.1579,0.1722,0.1195,0.1344,0.1091,0.1965,-0.0667,-0.0174,0.1903,0.353,0.2512,0.2428,0.2488,0.1083,0.1972,0.2607,0.2218,0.0525,0.0491,-0.1158,-0.0957,-0.1972,-0.0385,0.1603,-0.0497
0.3086,0.1846,0.1806,0.3672,0.3223,0.2407,0.2978,0.1711,0.191,0.1789,0.1885,-0.0139,0.0597,0.2884,0.3356,0.3109,0.3095,0.2762,0.1679,0.2989,0.3581,0.2921,0.0931,0.1049,-0.113,-0.1076,-0.1461,-0.0082,0.1739,-0.0593
0.2999,0.2331,0.1839,0.4774,0.4335,0.3173,0.415,0.2188,0.2361,0.2418,0.1689,0.0364,0.1478,0.3867,0.3285,0.369,0.3735,0.3073,0.2386,0.3974,0.4499,0.3711,0.1492,0.1742,-0.095,-0.1059,-0.0777,0.0276,0.1733,-0.0712
0.3036,0.2931,0.1886,0.5531,0.5265,0.3813,0.5112,0.2567,0.2651,0.2928,0.1436,0.0808,0.2409,0.4796,0.3384,0.4243,0.4301,0.3406,0.3148,0.4884,0.5329,0.4543,0.2185,0.2541,-0.0623,-0.089,0.0035,0.065,0.1586,-0.0863
0.3199,0.3625,0.1986,0.5911,0.5972,0.4294,0.5777,0.2791,0.2753,0.3292,0.1186,0.1168,0.3329,0.5633,0.3679,0.478,0.478,0.374,0.3923,0.5719,0.6066,0.537,0.2977,0.3405,-0.0179,-0.0579,0.092,0.0999,0.1318,-0.1047
0.3451,0.4385,0.2165,0.597,0.6461,0.4624,0.611,0.2815,0.2667,0.3506,0.0988,0.1425,0.4184,0.6359,0.4144,0.5329,0.5189,0.4052,0.4683,0.6511,0.6728,0.6145,0.3827,0.428,0.0332,-0.016,0.182,0.1287,0.0959,-0.1252
0.3737,0.5179,0.2431,0.5832,0.6777,0.4842,0.6133,0.262,0.2413,0.3588,0.0874,0.157,0.4937,0.698,0.4708,0.5924,0.5567,0.4325,0.541,0.7312,0.7347,0.6831,0.4689,0.5108,0.0851,0.0313,0.2682,0.1482,0.0548,-0.1447
0.4013,0.5975,0.2771,0.5652,0.6987,0.4996,0.5911,0.2218,0.2032,0.3569,0.0851,0.1601,0.5564,0.7513,0.5268,0.6583,0.5956,0.455,0.6085,0.8168,0.7957,0.7399,0.5511,0.5833,0.1316,0.0774,0.3463,0.1564,0.0121,-0.159
0.4253,0.6734,0.3156,0.5571,0.7151,0.5127,0.5532,0.1658,0.1579,0.3485,0.0904,0.152,0.6056,0.7979,0.5724,0.7302,0.638,0.4732,0.6678,0.91,0.8577,0.7831,0.6242,0.6406,0.1681,0.1159,0.413,0.1524,-0.0284,-0.1638
0.446,0.7413,0.3544,0.5681,0.7309,0.5248,0.5086,0.1021,0.1118,0.3367,0.1003,0.1335,0.6414,0.8394,0.6003,0.8047,0.6838,0.4896,0.7154,1.0086,0.9209,0.812,0.6828,0.6799,0.1914,0.1419,0.4662,0.1365,-0.0637,-0.1564
0.4653,0.7969,0.3898,0.6002,0.7465,0.5348,0.4643,0.041,0.0716,0.3235,0.1109,0.1064,0.6646,0.8763,0.6081,0.8758,0.7295,0.5076,0.7475,1.1068,0.983,0.8271,0.7233,0.7002,0.2009,0.1524,0.5047,0.1105,-0.0906,-0.1367
0.4852,0.8369,0.4194,0.6482,0.7591,0.5394,0.4255,-0.0066,0.0439,0.3104,0.1187,0.074,0.6769,0.9077,0.5989,0.9372,0.7704,0.5316,0.7621,1.1958,1.0403,0.8305,0.7442,0.7028,0.198,0.1473,0.5286,0.078,-0.1069,-0.1079
0.5075,0.861,0.4431,0.7022,0.7641,0.5358,0.3951,-0.0312,0.0344,0.2988,0.1212,0.0413,0.6808,0.9328,0.5802,0.9833,0.8015,0.5647,0.7598,1.2674,1.089,0.826,0.7474,0.6912,0.1863,0.1294,0.5396,0.044,-0.1113,-0.0753
0.533,0.8728,0.4634,0.7502,0.7576,0.5236,0.376,-0.0262,0.0471,0.2907,0.1182,0.0157,0.6805,0.9521,0.5619,1.0117,0.8201,0.6087,0.7445,1.3155,1.127,0.8193,0.7392,0.6712,0.171,0.104,0.5414,0.0153,-0.1038,-0.0451
0.5624,0.8799,0.4851,0.7829,0.7383,0.5063,0.3714,0.01,0.0835,0.2894,0.1108,0.0057,0.6821,0.9681,0.5539,1.0242,0.8269,0.6634,0.7237,1.3394,1.1555,0.8178,0.7293,0.6503,0.1581,0.0786,0.5394,-0.0004,-0.0858,-0.0224
0.5975,0.8922,0.5146,0.7963,0.7099,0.4925,0.3866,0.0733,0.1419,0.2993,0.1016,0.0196,0.6935,0.9867,0.5641,1.0272,0.8266,0.7271,0.7073,1.3441,1.1794,0.8303,0.7301,0.6373,0.154,0.0616,0.5412,0.0047,-0.06,-0.0093
0.6423,0.9202,0.5587,0.7944,0.6821,0.4943,0.4277,0.1534,0.2161,0.3247,0.0928,0.0642,0.7236,1.0162,0.5974,1.0311,0.8276,0.7973,0.7063,1.3406,1.2078,0.8657,0.7549,0.6413,0.1643,0.0611,0.5548,0.0368,-0.0304,-0.0051
0.7027,0.9725,0.6228,0.7899,0.6701,0.5267,0.5009,0.2354,0.2957,0.369,0.0858,0.1419,0.7814,1.0663,0.6558,1.0495,0.8408,0.8725,0.7312,1.3444,1.2524,0.932,0.8151,0.67,0.1926,0.0828,0.5877,0.0993,-0.0014,-0.0065
0.7849,1.0547,0.7095,0.8024,0.6933,0.6039,0.6106,0.3016,0.3667,0.4333,0.0808,0.2498,0.8737,1.1464,0.7393,1.0965,0.8781,0.9517,0.7904,1.373,1.326,1.0349,0.9186,0.7285,0.2393,0.1284,0.6451,0.1907,0.022,-0.0095
0.8923,1.1687,0.8176,0.8552,0.7709,0.7365,0.7563,0.3353,0.4139,0.5151,0.0766,0.379,1.0034,1.2628,0.8458,1.1846,0.9501,1.0352,0.8892,1.4427,1.4396,1.176,1.0676,0.8174,0.3007,0.1942,0.7278,0.3039,0.0353,-0.0116
1.021,1.313,0.9407,0.9695,0.9173,0.9276,0.9311,0.3235,0.423,0.6088,0.0718,0.5148,1.1672,1.417,0.9715,1.3219,1.064,1.1225,1.0281,1.565,1.5996,1.3517,1.2573,0.9318,0.3687,0.2707,0.8309,0.4265,0.0351,-0.0135
1.1583,1.4838,1.0676,1.159,1.1371,1.1704,1.1205,0.2606,0.3837,0.7051,0.0659,0.6387,1.3552,1.6041,1.1093,1.5096,1.2216,1.2119,1.2025,1.7438,1.8052,1.5528,1.4756,1.0614,0.4318,0.3441,0.9441,0.5417,0.0192,-0.0186
1.2831,1.6756,1.1841,1.4251,1.4213,1.4473,1.3033,0.1499,0.2927,0.7932,0.0599,0.7319,1.5523,1.813,1.248,1.7409,1.4186,1.2991,1.4023,1.9735,2.0476,1.7648,1.704,1.1917,0.4768,0.399,1.0527,0.6315,-0.013,-0.0312
1.37,1.8812,1.2756,1.7549,1.7473,1.7314,1.4552,0.0041,0.1554,0.8626,0.0568,0.7792,1.7404,2.0284,1.3723,2.0012,1.6453,1.3782,1.6131,2.2391,2.3105,1.9707,1.9204,1.3073,0.4919,0.4224,1.1409,0.6805,-0.0595,-0.0542
1.3965,2.0914,1.3308,2.1227,2.0823,1.9914,1.5543,-0.157,-0.0137,0.906,0.0606,0.7729,1.9025,2.2333,1.4644,2.2705,1.8874,1.4426,1.8188,2.5181,2.5726,2.1532,2.1025,1.395,0.4694,0.4075,1.1955,0.6797,-0.1166,-0.0856
1.351,2.2944,1.3454,2.4927,2.3885,2.197,1.5865,-0.3097,-0.1926,0.9203,0.0744,0.7153,2.0263,2.4122,1.5079,2.526,2.1286,1.487,2.0032,2.7847,2.8113,2.2986,2.2326,1.4474,0.4077,0.3557,1.2093,0.6294,-0.1789,-0.1181
1.2399,2.476,1.3228,2.8249,2.63,2.324,1.5493,-0.4321,-0.3561,0.9078,0.0995,0.6186,2.1057,2.553,1.4922,2.7456,2.3508,1.5087,2.1525,3.0124,3.005,2.3975,2.2995,1.4628,0.3115,0.2766,1.1826,0.5387,-0.2404,-0.1392
1.0894,2.6209,1.2738,3.0802,2.7785,2.3584,1.452,-0.508,-0.4809,0.8743,0.1334,0.501,2.1404,2.6471,1.4169,2.9098,2.5356,1.5069,2.2549,3.1785,3.1361,2.4446,2.2991,1.445,0.1904,0.1847,1.1222,0.4232,-0.2957,-0.1346
0.9418,2.7143,1.2126,3.2263,2.817,2.2966,1.3118,-0.5303,-0.5507,0.8265,0.1698,0.3821,2.1333,2.6887,1.2939,3.0043,2.6639,1.4815,2.3005,3.2657,3.1919,2.4368,2.2314,1.3989,0.0557,0.0948,1.0376,0.3001,-0.3407,-0.0927
0.8453,2.7452,1.153,3.2424,2.7413,2.1448,1.1485,-0.5009,-0.5592,0.7693,0.1999,0.2774,2.0873,2.673,1.1467,3.0208,2.7181,1.4323,2.2807,3.2646,3.1652,2.3715,2.0984,1.3283,-0.0829,0.0172,0.9379,0.1834,-0.3735,-0.0087
0.84,2.7091,1.1058,3.1232,2.5595,1.9168,0.979,-0.4303,-0.5118,0.7039,0.2137,0.1945,2.0034,2.5966,1.007,2.9592,2.6853,1.3589,2.1896,3.1748,3.055,2.246,1.902,1.2333,-0.2185,-0.0451,0.828,0.0809,-0.3933,0.1123
0.9456,2.6106,1.0763,2.8798,2.2896,1.6317,0.8135,-0.334,-0.4231,0.6277,0.2018,0.1324,1.8804,2.458,0.9076,2.8282,2.5613,1.2621,2.0264,3.0058,2.8672,2.0591,1.6453,1.1108,-0.3483,-0.0965,0.7084,-0.0073,-0.4008,0.2552
1.1548,2.4627,1.0654,2.5393,1.9567,1.3116,0.6556,-0.2296,-0.3136,0.536,0.1578,0.0832,1.7166,2.2591,0.8748,2.6444,2.3534,1.1456,1.7976,2.7755,2.6145,1.8137,1.3356,0.957,-0.4713,-0.1461,0.5759,-0.0867,-0.3971,0.3988
1.4347,2.2854,1.0698,2.1409,1.5894,0.9787,0.5031,-0.1329,-0.2052,0.4244,0.0801,0.0361,1.5123,2.007,0.9216,2.4308,2.0814,1.0175,1.5193,2.5088,2.3161,1.5196,0.9875,0.7708,-0.587,-0.2037,0.4272,-0.1653,-0.3837,0.5209
1.736,2.101,1.0837,1.7294,1.2161,0.6536,0.3517,-0.0556,-0.1163,0.2916,-0.0275,-0.019,1.2723,1.7146,1.0437,2.2123,1.775,0.8893,1.2152,2.2333,1.9954,1.1942,0.6237,0.5561,-0.6932,-0.2759,0.2612,-0.2503,-0.3626,0.6046
2.0051,1.9305,1.1006,1.3482,0.8621,0.3533,0.1977,-0.0039,-0.0593,0.1405,-0.1557,-0.0874,1.007,1.4001,1.2199,2.0123,1.4691,0.7743,0.9141,1.9755,1.6772,0.8609,0.2731,0.323,-0.7853,-0.3637,0.0818,-0.3451,-0.336,0.6424
2.1959,1.7892,1.1136,1.0326,0.5473,0.0906,0.0399,0.0211,-0.0388,-0.0209,-0.2905,-0.1684,0.7311,1.0842,1.4162,1.8482,1.198,0.6844,0.6446,1.7563,1.3847,0.5464,-0.0331,0.0866,-0.8569,-0.4613,-0.1023,-0.4479,-0.3062,0.6379
2.2783,1.6852,1.117,0.8052,0.2851,-0.1266,-0.1196,0.0224,-0.0524,-0.1812,-0.4161,-0.2556,0.4615,0.7878,1.594,1.7295,0.9901,0.6271,0.4301,1.5886,1.136,0.2753,-0.2681,-0.1358,-0.9011,-0.5583,-0.2786,-0.5519,-0.2759,0.6033
2.2416,1.6181,1.1065,0.6738,0.0824,-0.2946,-0.2752,0.0054,-0.0919,-0.3276,-0.5172,-0.3385,0.2146,0.5293,1.7186,1.657,0.8627,0.6041,0.2843,1.476,0.9426,0.0663,-0.4147,-0.3284,-0.913,-0.6417,-0.4336,-0.6471,-0.2472,0.5548
2.0939,1.5813,1.0802,0.6325,-0.0591,-0.4129,-0.419,-0.0234,-0.1459,-0.4484,-0.5824,-0.406,0.0035,0.322,1.7673,1.6243,0.8202,0.6108,0.2091,1.4141,0.8091,-0.0713,-0.4687,-0.4794,-0.8904,-0.6991,-0.5551,-0.7225,-0.2221,0.5074
1.8596,1.5648,1.0393,0.6651,-0.1416,-0.4823,-0.5416,-0.0578,-0.2026,-0.535,-0.6064,-0.449,-0.1631,0.1747,1.7348,1.6204,0.8541,0.6386,0.1953,1.393,0.7348,-0.1375,-0.4394,-0.5827,-0.8352,-0.7216,-0.6354,-0.7686,-0.2017,0.4704
1.5746,1.5588,0.9887,0.7502,-0.1687,-0.5035,-0.6333,-0.0925,-0.2512,-0.5829,-0.591,-0.4621,-0.28,0.0915,1.6338,1.6343,0.946,0.6778,0.2264,1.4019,0.7159,-0.1398,-0.3457,-0.6369,-0.7526,-0.7054,-0.6713,-0.7798,-0.1864,0.4455
1.2816,1.5574,0.9371,0.8675,-0.1435,-0.4761,-0.6853,-0.1236,-0.2837,-0.5918,-0.5441,-0.4451,-0.3449,0.074,1.4917,1.6591,1.0733,0.7207,0.2839,1.4332,0.7488,-0.0894,-0.211,-0.6446,-0.6506,-0.6526,-0.6646,-0.7552,-0.1763,0.4277
1.0235,1.5598,0.8956,1.0019,-0.0673,-0.3979,-0.6904,-0.148,-0.2956,-0.5648,-0.478,-0.4021,-0.3565,0.1226,1.3439,1.6938,1.2144,0.7635,0.3533,1.485,0.832,0.0024,-0.0569,-0.6097,-0.5383,-0.5701,-0.6203,-0.699,-0.1714,0.4085
0.8375,1.5715,0.8757,1.1469,0.0601,-0.2675,-0.644,-0.163,-0.2853,-0.5066,-0.4061,-0.3399,-0.3143,0.2368,1.2245,1.7441,1.3536,0.8068,0.4271,1.5623,0.9664,0.1271,0.1009,-0.5368,-0.4243,-0.4689,-0.5456,-0.6191,-0.1719,0.3792
0.7486,1.6016,0.8862,1.3034,0.239,-0.086,-0.5447,-0.1664,-0.2537,-0.4223,-0.3397,-0.2664,-0.2179,0.4154,1.1594,1.8201,1.4824,0.8541,0.5055,1.6744,1.1546,0.2794,0.2543,-0.4298,-0.316,-0.3612,-0.4474,-0.5258,-0.178,0.3338
0.7657,1.6598,0.9307,1.4774,0.4673,0.1408,-0.3948,-0.1564,-0.2033,-0.3166,-0.2867,-0.1883,-0.0681,0.6549,1.1602,1.932,1.5992,0.9095,0.5947,1.8312,1.3978,0.4559,0.4017,-0.2925,-0.2186,-0.258,-0.332,-0.4287,-0.19,0.2708
0.8799,1.7535,1.0058,1.6748,0.7388,0.4012,-0.2004,-0.1316,-0.138,-0.1932,-0.2496,-0.11,0.1319,0.9483,1.2229,2.0859,1.7063,0.9756,0.7021,2.0385,1.6932,0.6538,0.5448,-0.1286,-0.1344,-0.1674,-0.2042,-0.3358,-0.2076,0.1928
1.0671,1.8843,1.1021,1.8973,1.0415,0.678,0.0291,-0.092,-0.0621,-0.0554,-0.2265,-0.0338,0.3758,1.284,1.3303,2.2803,1.8064,1.0513,0.8326,2.2942,2.0318,0.8679,0.6856,0.057,-0.0637,-0.0932,-0.0673,-0.2514,-0.2302,0.1057
1.2933,2.0476,1.2055,2.139,1.3587,0.9513,0.281,-0.0391,0.0195,0.0937,-0.2113,0.0404,0.6535,1.6454,1.4574,2.5048,1.8999,1.1317,0.9855,2.5866,2.3974,1.0904,0.8233,0.2581,-0.0048,-0.0346,0.0764,-0.1766,-0.2566,0.0167
1.5216,2.2334,1.3012,2.3867,1.6704,1.2015,0.5402,0.0244,0.1016,0.2502,-0.1961,0.1131,0.9516,2.0125,1.5783,2.7418,1.984,1.2089,1.154,2.8955,2.7686,1.3104,0.9547,0.4672,0.0448,0.012,0.2246,-0.1094,-0.2856,-0.068
1.7193,2.4284,1.377,2.6219,1.9571,1.4127,0.7915,0.0943,0.1796,0.4092,-0.1726,0.1846,1.2544,2.3634,1.6729,2.9701,2.0536,1.2744,1.3264,3.1964,3.1217,1.5159,1.0741,0.6757,0.0884,0.0523,0.3753,-0.0467,-0.3162,-0.1441
1.8643,2.6186,1.426,2.8252,2.2022,1.5761,1.0202,0.1664,0.2493,0.5649,-0.1345,0.2543,1.5456,2.6783,1.7307,3.1693,2.1033,1.3213,1.4888,3.4652,3.435,1.6959,1.176,0.8752,0.1291,0.0917,0.5256,0.0151,-0.3475,-0.21
1.9465,2.7912,1.4478,2.9802,2.3951,1.6904,1.2149,0.2362,0.3079,0.7108,-0.0788,0.3204,1.8101,2.941,1.7519,3.3244,2.1295,1.3462,1.6287,3.6829,3.6919,1.842,1.2567,1.0579,0.1692,0.1337,0.6721,0.0782,-0.3789,-0.2662
1.9679,2.9352,1.4479,3.0773,2.532,1.762,1.3685,0.3002,0.3541,0.8409,-0.0068,0.3803,2.035,3.1415,1.7442,3.428,2.1327,1.3501,1.7373,3.839,3.8833,1.9497,1.3157,1.2173,0.2097,0.1788,0.8102,0.1428,-0.4094,-0.3145
1.9393,3.0421,1.4351,3.1156,2.6161,1.8024,1.4787,0.3559,0.3884,0.9498,0.0763,0.4314,2.2111,3.2764,1.7194,3.4805,2.1172,1.3377,1.8105,3.9317,4.0077,2.0188,1.3556,1.3483,0.2493,0.2245,0.9348,0.2067,-0.4374,-0.3565
1.8755,3.106,1.419,3.1025,2.6551,1.8259,1.5482,0.4023,0.4125,1.034,0.1627,0.4709,2.3329,3.3478,1.6886,3.4884,2.0904,1.3162,1.8496,3.9667,4.0696,2.0524,1.3811,1.447,0.2848,0.2654,1.0399,0.2653,-0.461,-0.3931
1.7907,3.1236,1.4076,3.0521,2.6594,1.8456,1.583,0.4397,0.429,1.0919,0.2434,0.4969,2.3984,3.3622,1.6589,3.4618,2.0608,1.2932,1.8596,3.9541,4.0771,2.0554,1.3975,1.5113,0.312,0.2952,1.1197,0.3129,-0.4778,-0.424
1.6963,3.0956,1.4047,2.9811,2.639,1.8708,1.5909,0.47,0.4405,1.1236,0.3107,0.5082,2.4089,3.3281,1.6323,3.4107,2.0356,1.2747,1.8473,3.9051,4.039,2.0328,1.4088,1.5401,0.3266,0.3077,1.1693,0.3436,-0.486,-0.4476
1.5991,3.026,1.4098,2.905,2.6019,1.9047,1.5788,0.4957,0.4494,1.131,0.3594,0.5046,2.3683,3.2537,1.606,3.3425,2.0189,1.2641,1.8193,3.8285,3.9626,1.989,1.4169,1.5345,0.3262,0.299,1.1853,0.353,-0.485,-0.4613
1.5021,2.9221,1.4184,2.834,2.5523,1.9437,1.5519,0.5199,0.4569,1.1165,0.3881,0.4868,2.282,3.1454,1.5736,3.2605,2.01,1.2616,1.7794,3.7291,3.8519,1.9264,1.4215,1.4968,0.3104,0.2682,1.1666,0.3393,-0.4752,-0.4619
1.4056,2.7923,1.4234,2.7704,2.4904,1.9794,1.5125,0.5456,0.4636,1.0831,0.3979,0.4558,2.1569,3.0069,1.5279,3.1627,2.003,1.2637,1.7283,3.6065,3.7074,1.846,1.42,1.4309,0.2817,0.2171,1.1144,0.3031,-0.4583,-0.4473
1.3068,2.6442,1.4171,2.7083,2.4129,2,1.46,0.575,0.4686,1.0331,0.3923,0.4133,1.9999,2.8393,1.4629,3.0435,1.9876,1.2648,1.6633,3.4565,3.5264,1.7472,1.4089,1.3414,0.2445,0.1501,1.0326,0.2476,-0.437,-0.4173
1.2008,2.4835,1.393,2.6359,2.3141,1.9936,1.3921,0.6088,0.4702,0.9683,0.3748,0.3608,1.8179,2.6414,1.3761,2.8949,1.9514,1.2576,1.5799,3.2725,3.3049,1.6284,1.3844,1.2331,0.2038,0.0731,0.9269,0.1775,-0.4136,-0.3752
1.0806,2.3128,1.3468,2.539,2.1878,1.9507,1.3065,0.6463,0.4665,0.8899,0.3482,0.3004,1.6173,2.4118,1.2682,2.7099,1.882,1.2357,1.473,3.0481,3.0397,1.4881,1.3431,1.1097,0.1637,-0.0079,0.8046,0.0983,-0.3901,-0.3269
0.939,2.1322,1.277,2.4055,2.0299,1.8666,1.202,0.6852,0.4557,0.7994,0.3145,0.2346,1.4038,2.1502,1.1426,2.4841,1.77,1.194,1.3395,2.7798,2.7302,1.3256,1.2829,0.9742,0.127,-0.0873,0.6731,0.0154,-0.3673,-0.2804
0.7704,1.9402,1.185,2.2289,1.8399,1.7422,1.0795,0.7222,0.4365,0.6985,0.2745,0.1663,1.1822,1.859,1.0035,2.2179,1.6112,1.13,1.1791,2.4689,2.3802,1.1418,1.2033,0.8282,0.0938,-0.1606,0.5394,-0.0663,-0.3449,-0.2427
0.5745,1.7353,1.074,2.0095,1.621,1.5841,0.9418,0.7529,0.4085,0.5894,0.2288,0.0987,0.957,1.5442,0.8552,1.9169,1.4079,1.0438,0.9953,2.1218,1.9984,0.94,1.106,0.6735,0.0626,-0.2246,0.4093,-0.1429,-0.3221,-0.2181
0.3577,1.5176,0.949,1.754,1.3808,1.4028,0.7926,0.7731,0.3719,0.4748,0.1782,0.0348,0.732,1.2149,0.701,1.5908,1.168,0.9384,0.7945,1.7502,1.5977,0.7265,0.9949,0.5124,0.0308,-0.2773,0.2868,-0.2113,-0.2978,-0.2069
0.1334,1.2898,0.8154,1.4734,1.1291,1.2108,0.6364,0.7782,0.327,0.3575,0.1239,-0.0232,0.5112,0.8827,0.544,1.2524,0.9046,0.8191,0.5853,1.369,1.1937,0.5098,0.8757,0.3487,-0.0043,-0.3176,0.1745,-0.2697,-0.2716,-0.2052
-0.0808,1.0576,0.6791,1.1809,0.8772,1.0197,0.4775,0.7648,0.2747,0.2401,0.067,-0.0738,0.2991,0.5608,0.3883,0.9161,0.6335,0.6935,0.3772,0.9949,0.8034,0.3004,0.7551,0.188,-0.0441,-0.3455,0.0737,-0.3172,-0.2438,-0.2069
-0.2671,0.8289,0.5457,0.8898,0.6354,0.8387,0.32,0.7311,0.2163,0.1252,0.0091,-0.1169,0.101,0.262,0.2394,0.596,0.3718,0.57,0.1791,0.6442,0.4428,0.1085,0.6394,0.0378,-0.0887,-0.3615,-0.0147,-0.354,-0.2156,-0.2059
-0.4114,0.6133,0.4211,0.6118,0.412,0.6733,0.1685,0.6775,0.1538,0.016,-0.0485,-0.1529,-0.0765,-0.0021,0.1048,0.3051,0.1354,0.4577,-0.0009,0.3311,0.1251,-0.0568,0.5337,-0.0941,-0.1362,-0.3667,-0.09,-0.3806,-0.1893,-0.1977
-0.5073,0.4204,0.3109,0.3562,0.2126,0.5262,0.0275,0.6073,0.0902,-0.0846,-0.1044,-0.1824,-0.2267,-0.2227,-0.0076,0.0542,-0.0621,0.3644,-0.1571,0.0663,-0.1402,-0.1901,0.4405,-0.2008,-0.1836,-0.3626,-0.1519,-0.3981,-0.1672,-0.1805
-0.5566,0.2583,0.2196,0.1292,0.0392,0.3968,-0.0982,0.5263,0.0291,-0.1732,-0.1568,-0.2065,-0.3436,-0.3947,-0.0909,-0.149,-0.2115,0.296,-0.2856,-0.1438,-0.3484,-0.2897,0.3605,-0.2782,-0.2273,-0.3511,-0.1998,-0.4077,-0.1512,-0.1554
-0.5688,0.1313,0.1507,-0.0654,-0.1083,0.2832,-0.2046,0.4418,-0.0255,-0.2466,-0.203,-0.2261,-0.4238,-0.517,-0.1417,-0.3007,-0.309,0.2552,-0.3849,-0.2976,-0.4996,-0.3586,0.2925,-0.3256,-0.2641,-0.3349,-0.2339,-0.4109,-0.1422,-0.1254
-0.5575,0.0398,0.1051,-0.2253,-0.2313,0.1831,-0.2885,0.362,-0.0701,-0.3023,-0.2403,-0.2418,-0.4674,-0.5929,-0.1604,-0.4015,-0.3573,0.2415,-0.4555,-0.3979,-0.598,-0.4033,0.2345,-0.3467,-0.2917,-0.3169,-0.2552,-0.4094,-0.1393,-0.0949
-0.5368,-0.0202,0.0815,-0.3486,-0.3306,0.0947,-0.3478,0.2937,-0.1022,-0.3387,-0.2657,-0.2539,-0.4778,-0.6285,-0.1518,-0.4556,-0.3649,0.2511,-0.4999,-0.4512,-0.6506,-0.432,0.1847,-0.3479,-0.3094,-0.3003,-0.2656,-0.405,-0.1403,-0.0684
-0.518,-0.054,0.076,-0.4325,-0.4054,0.018,-0.3818,0.2416,-0.1203,-0.3554,-0.2765,-0.2616,-0.4617,-0.632,-0.1231,-0.4706,-0.3445,0.278,-0.5218,-0.4669,-0.6661,-0.453,0.1416,-0.3375,-0.3179,-0.2879,-0.2677,-0.3994,-0.1415,-0.0498
-0.507,-0.0667,0.0838,-0.4739,-0.4544,-0.0455,-0.3912,0.2074,-0.1246,-0.3529,-0.2713,-0.2635,-0.4273,-0.6121,-0.0819,-0.456,-0.3103,0.3156,-0.5259,-0.455,-0.6533,-0.4728,0.1043,-0.3235,-0.3193,-0.2815,-0.2647,-0.3935,-0.1393,-0.042
-0.5041,-0.0619,0.1001,-0.4717,-0.4758,-0.0932,-0.3779,0.1901,-0.1164,-0.333,-0.2499,-0.2571,-0.3829,-0.577,-0.034,-0.4218,-0.275,0.3576,-0.5173,-0.426,-0.6204,-0.4953,0.0723,-0.3123,-0.3163,-0.2819,-0.2593,-0.388,-0.1306,-0.0457
-0.5045,-0.0417,0.1211,-0.4289,-0.4702,-0.1222,-0.3454,0.1859,-0.0982,-0.299,-0.2146,-0.2403,-0.3364,-0.5341,0.0173,-0.3777,-0.2478,0.3986,-0.5009,-0.3894,-0.5747,-0.5209,0.0451,-0.3077,-0.312,-0.2883,-0.2542,-0.3829,-0.1138,-0.06
-0.5017,-0.0088,0.1443,-0.3538,-0.4407,-0.1312,-0.2987,0.19,-0.0736,-0.2555,-0.1694,-0.2119,-0.294,-0.4896,0.0705,-0.3326,-0.2336,0.4345,-0.4821,-0.3535,-0.5232,-0.548,0.0214,-0.3113,-0.3091,-0.299,-0.2514,-0.3779,-0.0888,-0.0821
-0.4895,0.0322,0.1676,-0.2597,-0.3942,-0.1211,-0.2451,0.1969,-0.0471,-0.2083,-0.1202,-0.1725,-0.26,-0.449,0.1246,-0.2942,-0.2335,0.4619,-0.4667,-0.3251,-0.4725,-0.5734,-0.0007,-0.3223,-0.3099,-0.3114,-0.2522,-0.3729,-0.0571,-0.1084
-0.4658,0.074,0.1886,-0.163,-0.3405,-0.0966,-0.193,0.2014,-0.0238,-0.1638,-0.0732,-0.1247,-0.2371,-0.4171,0.1771,-0.2687,-0.2463,0.4773,-0.4606,-0.3097,-0.4292,-0.5946,-0.0244,-0.3388,-0.3154,-0.3232,-0.2575,-0.3681,-0.0209,-0.1343
-0.4327,0.1078,0.2042,-0.0802,-0.2906,-0.0652,-0.1514,0.1995,-0.0089,-0.1283,-0.0338,-0.0733,-0.2261,-0.3978,0.2237,-0.2604,-0.2698,0.4777,-0.4696,-0.3112,-0.3996,-0.6099,-0.0532,-0.3582,-0.3257,-0.3321,-0.2673,-0.364,0.0165,-0.1561
-0.3967,0.1253,0.2109,-0.0246,-0.2548,-0.0365,-0.1283,0.189,-0.0062,-0.1069,-0.0064,-0.0241,-0.2266,-0.3939,0.2587,-0.2712,-0.3021,0.4603,-0.4978,-0.331,-0.3884,-0.6195,-0.0899,-0.3775,-0.3398,-0.3367,-0.2809,-0.3608,0.0518,-0.1707
-0.3658,0.1207,0.2054,-0.0041,-0.2406,-0.0201,-0.1288,0.1696,-0.0179,-0.1023,0.0069,0.0168,-0.2369,-0.4061,0.2766,-0.2999,-0.3419,0.4244,-0.5465,-0.3681,-0.398,-0.6246,-0.1358,-0.3938,-0.3561,-0.3359,-0.2964,-0.3586,0.082,-0.1764
-0.3468,0.0923,0.1854,-0.0202,-0.2514,-0.0242,-0.1542,0.1433,-0.0435,-0.1149,0.0058,0.0443,-0.2545,-0.4332,0.2733,-0.3428,-0.388,0.3722,-0.6131,-0.4188,-0.4277,-0.6271,-0.1894,-0.4043,-0.3727,-0.3294,-0.3117,-0.3569,0.1049,-0.1729
-0.3437,0.0432,0.1505,-0.0679,-0.2867,-0.0535,-0.2016,0.1135,-0.0798,-0.1425,-0.0083,0.0554,-0.2768,-0.4719,0.2476,-0.394,-0.439,0.3086,-0.6908,-0.4773,-0.4739,-0.6285,-0.2465,-0.4062,-0.3879,-0.3173,-0.3242,-0.3546,0.1196,-0.1605
-0.3562,-0.0204,0.1023,-0.1373,-0.3425,-0.109,-0.2644,0.0841,-0.122,-0.1807,-0.0324,0.0493,-0.301,-0.5173,0.2013,-0.4465,-0.4926,0.2415,-0.77,-0.5363,-0.5301,-0.6295,-0.3003,-0.3978,-0.4002,-0.3003,-0.3315,-0.3505,0.1264,-0.1401
-0.3804,-0.0898,0.0449,-0.2156,-0.4124,-0.1875,-0.3342,0.0586,-0.1644,-0.2241,-0.0624,0.0273,-0.3252,-0.5642,0.1397,-0.4935,-0.5449,0.1797,-0.8397,-0.5891,-0.5888,-0.6297,-0.3431,-0.3786,-0.4086,-0.2791,-0.3316,-0.3431,0.1268,-0.113
-0.4095,-0.1564,-0.0161,-0.2896,-0.4889,-0.2819,-0.4018,0.0388,-0.2016,-0.267,-0.0942,-0.0073,-0.3479,-0.6075,0.0706,-0.5297,-0.5911,0.1312,-0.8901,-0.6302,-0.6428,-0.6277,-0.3676,-0.3496,-0.412,-0.2548,-0.3233,-0.331,0.1229,-0.0811
-0.4368,-0.2129,-0.0741,-0.3485,-0.5646,-0.3821,-0.4595,0.0254,-0.229,-0.3046,-0.1238,-0.0499,-0.3684,-0.6435,0.0038,-0.5525,-0.6266,0.1008,-0.9147,-0.6567,-0.6864,-0.6218,-0.3693,-0.3136,-0.4098,-0.2288,-0.3064,-0.3135,0.1168,-0.0475
-0.4569,-0.2543,-0.123,-0.3849,-0.6326,-0.4769,-0.5016,0.0179,-0.2436,-0.3333,-0.1485,-0.0957,-0.3863,-0.6701,-0.051,-0.5621,-0.648,0.0896,-0.9118,-0.6692,-0.7168,-0.6113,-0.3475,-0.2753,-0.4018,-0.203,-0.2821,-0.2909,0.1107,-0.0163
-0.4669,-0.2785,-0.1583,-0.3962,-0.6875,-0.5552,-0.525,0.0157,-0.2437,-0.3513,-0.1669,-0.1398,-0.4019,-0.6873,-0.0862,-0.5616,-0.6548,0.0942,-0.8849,-0.671,-0.734,-0.5966,-0.3062,-0.2407,-0.389,-0.1801,-0.2532,-0.2644,0.1064,0.0078
-0.4669,-0.2863,-0.1785,-0.3846,-0.7259,-0.6088,-0.5297,0.0188,-0.2295,-0.3584,-0.1785,-0.1782,-0.4155,-0.697,-0.0985,-0.5565,-0.6496,0.108,-0.8421,-0.6682,-0.7415,-0.5801,-0.2542,-0.2159,-0.3738,-0.1631,-0.2242,-0.2366,0.1052,0.0207
-0.4592,-0.2813,-0.1846,-0.3566,-0.7464,-0.6327,-0.5181,0.0276,-0.2024,-0.3556,-0.1834,-0.2077,-0.4279,-0.7026,-0.0894,-0.553,-0.6381,0.1231,-0.7946,-0.668,-0.7444,-0.566,-0.2036,-0.2063,-0.3598,-0.1546,-0.2005,-0.2106,0.1076,0.0202
-0.4471,-0.2687,-0.1806,-0.3224,-0.7495,-0.6266,-0.4943,0.0432,-0.1651,-0.3449,-0.1815,-0.2262,-0.4402,-0.7081,-0.066,-0.5575,-0.6283,0.1315,-0.7545,-0.6773,-0.749,-0.5597,-0.1679,-0.2155,-0.3515,-0.1564,-0.1873,-0.1902,0.1138,0.0073
-0.4344,-0.2543,-0.172,-0.2935,-0.7376,-0.5939,-0.4637,0.0667,-0.1212,-0.3285,-0.1722,-0.2331,-0.4544,-0.7176,-0.039,-0.5747,-0.6288,0.1273,-0.7327,-0.7014,-0.7613,-0.5664,-0.1595,-0.2444,-0.3527,-0.1685,-0.1892,-0.1788,0.1231,-0.0147
-0.4238,-0.2429,-0.1649,-0.2804,-0.7143,-0.5417,-0.4319,0.0986,-0.0745,-0.3091,-0.1548,-0.2291,-0.4724,-0.7339,-0.0209,-0.6074,-0.647,0.1074,-0.7368,-0.7428,-0.785,-0.5902,-0.1864,-0.2908,-0.3658,-0.1894,-0.2084,-0.1794,0.1343,-0.0402
-0.417,-0.2375,-0.1645,-0.2898,-0.6835,-0.4788,-0.4037,0.1379,-0.0289,-0.2889,-0.1294,-0.2164,-0.4957,-0.7581,-0.0217,-0.6554,-0.6871,0.0719,-0.7691,-0.8007,-0.8208,-0.6322,-0.2501,-0.3503,-0.39,-0.2162,-0.2447,-0.1933,0.1463,-0.064
-0.4143,-0.2388,-0.1741,-0.3223,-0.6491,-0.4147,-0.3819,0.182,0.0126,-0.2701,-0.098,-0.1979,-0.5244,-0.7884,-0.0462,-0.7158,-0.7493,0.0238,-0.8264,-0.8705,-0.8658,-0.6897,-0.3445,-0.4163,-0.4221,-0.2453,-0.2944,-0.2206,0.1575,-0.0833
-0.416,-0.2454,-0.1945,-0.3722,-0.6138,-0.3577,-0.3669,0.2273,0.0475,-0.2539,-0.064,-0.1771,-0.556,-0.8207,-0.0921,-0.7834,-0.8289,-0.0314,-0.9002,-0.9451,-0.9138,-0.7566,-0.4568,-0.4813,-0.4564,-0.273,-0.3514,-0.2595,0.167,-0.0991
-0.4227,-0.2548,-0.224,-0.4285,-0.5793,-0.3139,-0.3568,0.2691,0.0751,-0.2402,-0.0318,-0.1566,-0.5857,-0.849,-0.1506,-0.8511,-0.9171,-0.0875,-0.9781,-1.0159,-0.9566,-0.8241,-0.5695,-0.538,-0.4867,-0.2961,-0.4076,-0.3063,0.174,-0.116
-0.4352,-0.265,-0.2592,-0.4783,-0.5463,-0.2866,-0.3475,0.3035,0.0951,-0.2278,-0.0054,-0.1378,-0.607,-0.8669,-0.2095,-0.9123,-1.0021,-0.1382,-1.0469,-1.0747,-0.986,-0.8828,-0.6645,-0.5806,-0.5073,-0.3121,-0.4545,-0.3561,0.1779,-0.1401
-0.4536,-0.2751,-0.2956,-0.5103,-0.515,-0.2763,-0.3349,0.3276,0.1085,-0.2145,0.0135,-0.1207,-0.6131,-0.8683,-0.2564,-0.9611,-1.0726,-0.1786,-1.0951,-1.1153,-0.9957,-0.9251,-0.7265,-0.6052,-0.5142,-0.3194,-0.4843,-0.4026,0.1784,-0.1763
-0.4765,-0.2861,-0.3287,-0.5177,-0.4851,-0.2809,-0.3147,0.3404,0.1165,-0.1973,0.0256,-0.1035,-0.5982,-0.8494,-0.283,-0.9938,-1.1194,-0.2061,-1.1157,-1.1341,-0.9824,-0.9468,-0.7469,-0.6102,-0.5058,-0.3167,-0.4912,-0.4393,0.1752,-0.2255
-0.5006,-0.2995,-0.3546,-0.4989,-0.4562,-0.2963,-0.2843,0.343,0.1208,-0.1736,0.0334,-0.0835,-0.5597,-0.8084,-0.2869,-1.0091,-1.1385,-0.2199,-1.1079,-1.1307,-0.9466,-0.9475,-0.7249,-0.5959,-0.483,-0.3034,-0.4717,-0.4597,0.168,-0.2836
-0.522,-0.3171,-0.3703,-0.4577,-0.4274,-0.3164,-0.2427,0.3381,0.1232,-0.1418,0.0402,-0.0579,-0.4981,-0.7463,-0.2724,-1.0076,-1.1316,-0.222,-1.0766,-1.1074,-0.8916,-0.9309,-0.668,-0.564,-0.4482,-0.2798,-0.4251,-0.4589,0.1565,-0.3423
-0.5376,-0.3393,-0.374,-0.4012,-0.3978,-0.3343,-0.1909,0.3297,0.1255,-0.102,0.0483,-0.0248,-0.4179,-0.6667,-0.2495,-0.9916,-1.1056,-0.2156,-1.0316,-1.0678,-0.8227,-0.9028,-0.5892,-0.5168,-0.4052,-0.2468,-0.3534,-0.434,0.14,-0.3912
-0.5463,-0.365,-0.3654,-0.3377,-0.3664,-0.3438,-0.1325,0.3215,0.1286,-0.0567,0.0581,0.0158,-0.3264,-0.575,-0.2311,-0.9645,-1.0706,-0.205,-0.9839,-1.0165,-0.746,-0.8693,-0.5042,-0.457,-0.358,-0.2066,-0.2615,-0.3854,0.118,-0.4203
-0.5493,-0.3913,-0.3457,-0.2753,-0.3324,-0.3399,-0.0729,0.3164,0.1332,-0.0101,0.0677,0.0621,-0.2332,-0.4781,-0.23,-0.9296,-1.0373,-0.1944,-0.9436,-0.9583,-0.6675,-0.8348,-0.4271,-0.3878,-0.3107,-0.1623,-0.157,-0.3166,0.0899,-0.423
-0.5492,-0.4148,-0.318,-0.2207,-0.2962,-0.3204,-0.019,0.3156,0.1389,0.0323,0.0742,0.1105,-0.1481,-0.3837,-0.2554,-0.8906,-1.0145,-0.1865,-0.9166,-0.8979,-0.5924,-0.8017,-0.3678,-0.3127,-0.2664,-0.1181,-0.0497,-0.2343,0.0559,-0.3977
-0.5489,-0.4316,-0.2866,-0.1791,-0.2591,-0.2862,0.0221,0.3189,0.1447,0.0647,0.0742,0.1563,-0.0798,-0.2995,-0.3104,-0.8517,-1.0072,-0.1825,-0.9047,-0.8401,-0.5254,-0.77,-0.3303,-0.2361,-0.2274,-0.0782,0.0495,-0.1478,0.0176,-0.3481
-0.5509,-0.4387,-0.2565,-0.1543,-0.2243,-0.2412,0.0442,0.3254,0.1496,0.0823,0.0649,0.1945,-0.0346,-0.2326,-0.3912,-0.8174,-1.0161,-0.1813,-0.9054,-0.7901,-0.4709,-0.7387,-0.3132,-0.1635,-0.1952,-0.0467,0.1296,-0.0671,-0.0218,-0.2825
-0.5563,-0.4345,-0.233,-0.1483,-0.1959,-0.1924,0.0433,0.3338,0.1531,0.0821,0.0454,0.2207,-0.0153,-0.1887,-0.4874,-0.7923,-1.0378,-0.1802,-0.9136,-0.7536,-0.4327,-0.7067,-0.3108,-0.1015,-0.1706,-0.0264,0.1816,-0.002,-0.0573,-0.2121
-0.5654,-0.4195,-0.2201,-0.1611,-0.1784,-0.1482,0.0187,0.3436,0.1551,0.0641,0.0175,0.2319,-0.0214,-0.1718,-0.584,-0.7809,-1.0658,-0.1754,-0.9233,-0.7353,-0.4148,-0.6739,-0.3152,-0.0565,-0.1542,-0.019,0.1998,0.0402,-0.0829,-0.1489
-0.5781,-0.3973,-0.2208,-0.1907,-0.1754,-0.1173,-0.0272,0.3546,0.1562,0.031,-0.0148,0.2268,-0.0492,-0.1835,-0.6652,-0.7861,-1.0926,-0.1637,-0.9294,-0.7388,-0.4195,-0.6416,-0.3182,-0.0345,-0.1464,-0.0244,0.183,0.0551,-0.0929,-0.1035
-0.594,-0.3742,-0.2361,-0.2334,-0.1892,-0.1071,-0.0893,0.3671,0.1576,-0.012,-0.0448,0.2061,-0.0931,-0.2228,-0.7175,-0.8088,-1.111,-0.1428,-0.9283,-0.7654,-0.4479,-0.6127,-0.3139,-0.0396,-0.1479,-0.0406,0.1345,0.0429,-0.0832,-0.0836
-0.6133,-0.3584,-0.2648,-0.2842,-0.2194,-0.1219,-0.1602,0.3806,0.1603,-0.0582,-0.0649,0.1723,-0.1472,-0.2864,-0.7329,-0.8471,-1.1164,-0.1129,-0.9187,-0.813,-0.498,-0.5905,-0.2992,-0.0724,-0.1586,-0.0642,0.0614,0.0071,-0.0528,-0.0924
-0.6359,-0.3585,-0.3038,-0.3374,-0.2635,-0.1618,-0.2319,0.3936,0.1651,-0.1007,-0.0681,0.1291,-0.2056,-0.3684,-0.7107,-0.8968,-1.1077,-0.0754,-0.9013,-0.8766,-0.5653,-0.5781,-0.2746,-0.1299,-0.178,-0.0908,-0.0262,-0.0452,-0.004,-0.1283
-0.6606,-0.381,-0.348,-0.3876,-0.3169,-0.2224,-0.2969,0.4037,0.1719,-0.1339,-0.0501,0.0806,-0.2637,-0.4614,-0.6572,-0.9516,-1.0867,-0.0332,-0.878,-0.9488,-0.643,-0.5775,-0.2436,-0.2052,-0.2045,-0.1153,-0.1176,-0.1055,0.0579,-0.1849
-0.6854,-0.4286,-0.3922,-0.4298,-0.374,-0.2951,-0.3493,0.4078,0.1798,-0.1548,-0.011,0.0302,-0.3183,-0.5572,-0.5847,-1.0049,-1.0581,0.0102,-0.8518,-1.0213,-0.723,-0.5893,-0.2119,-0.2887,-0.2357,-0.1338,-0.2027,-0.1649,0.125,-0.2516
-0.7069,-0.4988,-0.431,-0.4611,-0.4293,-0.3686,-0.3857,0.4028,0.1863,-0.1634,0.0438,-0.0198,-0.3677,-0.6483,-0.5081,-1.0508,-1.0272,0.0515,-0.8261,-1.0868,-0.7979,-0.613,-0.1863,-0.3702,-0.2683,-0.1436,-0.2739,-0.2164,0.1889,-0.316
-0.7219,-0.5839,-0.461,-0.4803,-0.4786,-0.4315,-0.4056,0.3871,0.1886,-0.1631,0.1046,-0.0686,-0.4113,-0.7292,-0.4422,-1.0855,-0.9994,0.0876,-0.8048,-1.1401,-0.862,-0.6475,-0.1734,-0.4407,-0.299,-0.1446,-0.327,-0.2553,0.2417,-0.366
-0.7287,-0.6724,-0.4807,-0.4888,-0.5201,-0.4751,-0.4118,0.3605,0.1831,-0.1594,0.1595,-0.1167,-0.4501,-0.7966,-0.3985,-1.1078,-0.9787,0.1156,-0.7918,-1.1791,-0.9125,-0.6919,-0.1787,-0.4948,-0.3249,-0.1391,-0.3615,-0.2805,0.2774,-0.3925
-0.728,-0.7516,-0.4908,-0.4904,-0.5541,-0.4949,-0.4097,0.3245,0.1668,-0.1588,0.1974,-0.1647,-0.4857,-0.8503,-0.3835,-1.1188,-0.967,0.1334,-0.7906,-1.2043,-0.9496,-0.7448,-0.2047,-0.5313,-0.3441,-0.1312,-0.3806,-0.2938,0.2933,-0.3907
-0.7229,-0.8104,-0.4937,-0.49,-0.583,-0.4922,-0.4064,0.2817,0.1375,-0.1669,0.2109,-0.2125,-0.5199,-0.8917,-0.3978,-1.121,-0.9645,0.1397,-0.803,-1.2181,-0.9753,-0.8043,-0.2507,-0.553,-0.3562,-0.1257,-0.3899,-0.299,0.2897,-0.3616
-0.7174,-0.8418,-0.4923,-0.4933,-0.6097,-0.4732,-0.4092,0.2351,0.0946,-0.1871,0.1984,-0.2583,-0.554,-0.9227,-0.436,-1.1172,-0.9693,0.1341,-0.8288,-1.2232,-0.9921,-0.8668,-0.3119,-0.565,-0.3628,-0.1268,-0.3959,-0.3009,0.2701,-0.311
-0.7154,-0.8438,-0.4896,-0.5055,-0.6368,-0.4475,-0.4238,0.1877,0.0395,-0.2197,0.164,-0.2987,-0.5884,-0.945,-0.4887,-1.1096,-0.9784,0.1172,-0.8653,-1.2211,-1.002,-0.9263,-0.3799,-0.5726,-0.3662,-0.1368,-0.4044,-0.3037,0.24,-0.2483
-0.719,-0.8202,-0.4881,-0.5296,-0.6657,-0.4253,-0.453,0.1419,-0.0245,-0.2618,0.1163,-0.3292,-0.6218,-0.9586,-0.5442,-1.0997,-0.9885,0.0909,-0.9076,-1.2122,-1.0054,-0.9748,-0.4447,-0.5792,-0.3689,-0.1555,-0.4193,-0.3102,0.2061,-0.1853
-0.7279,-0.7786,-0.4896,-0.5659,-0.6954,-0.4154,-0.4955,0.1001,-0.0923,-0.3079,0.0663,-0.3448,-0.6515,-0.9621,-0.5906,-1.0877,-0.9969,0.0576,-0.9497,-1.1954,-1.0007,-1.0034,-0.4956,-0.5856,-0.3724,-0.1803,-0.4413,-0.3208,0.1747,-0.1337
-0.7396,-0.7283,-0.4952,-0.6097,-0.7223,-0.4219,-0.5459,0.0642,-0.1575,-0.3508,0.024,-0.3422,-0.6733,-0.9523,-0.6179,-1.0728,-1.0018,0.0205,-0.9854,-1.1685,-0.9852,-1.0036,-0.5235,-0.5885,-0.3767,-0.2064,-0.4684,-0.3341,0.1507,-0.1039
-0.7499,-0.677,-0.5043,-0.6517,-0.7398,-0.4434,-0.5957,0.0361,-0.2137,-0.3836,-0.0031,-0.3199,-0.6822,-0.9253,-0.6182,-1.0529,-1.0017,-0.0166,-1.0088,-1.1291,-0.9547,-0.9687,-0.5217,-0.5825,-0.3796,-0.2283,-0.4958,-0.3468,0.137,-0.1032
-0.753,-0.6288,-0.5148,-0.6784,-0.7395,-0.4721,-0.6343,0.0172,-0.2549,-0.3999,-0.0118,-0.2794,-0.673,-0.8771,-0.5868,-1.0243,-0.9952,-0.0492,-1.0152,-1.0745,-0.9052,-0.8952,-0.4867,-0.5608,-0.3779,-0.2412,-0.5174,-0.3554,0.1341,-0.135
-0.7423,-0.5833,-0.5221,-0.6752,-0.7126,-0.496,-0.6511,0.0086,-0.2769,-0.3958,-0.0027,-0.2251,-0.6417,-0.8049,-0.522,-0.9823,-0.9795,-0.0727,-1.0007,-1.0023,-0.8333,-0.7834,-0.4186,-0.5179,-0.3688,-0.2423,-0.5275,-0.357,0.1404,-0.1973
-0.7108,-0.5367,-0.5204,-0.6299,-0.6529,-0.5018,-0.6384,0.0111,-0.2774,-0.3703,0.0201,-0.1635,-0.5873,-0.7084,-0.4256,-0.9224,-0.9508,-0.0831,-0.9628,-0.9115,-0.7381,-0.6386,-0.3214,-0.4517,-0.351,-0.2312,-0.5227,-0.3508,0.1527,-0.2828
-0.6532,-0.484,-0.5034,-0.5371,-0.5592,-0.479,-0.5931,0.0248,-0.2567,-0.3254,0.051,-0.1029,-0.5127,-0.591,-0.3024,-0.8415,-0.905,-0.0774,-0.9011,-0.8033,-0.622,-0.4711,-0.2038,-0.3654,-0.3261,-0.2105,-0.5031,-0.3381,0.1671,-0.3799
-0.5668,-0.4218,-0.466,-0.4009,-0.4368,-0.4227,-0.5177,0.0482,-0.2178,-0.2668,0.0837,-0.0516,-0.4253,-0.46,-0.1602,-0.7398,-0.8392,-0.0554,-0.8183,-0.6817,-0.4914,-0.2956,-0.0781,-0.268,-0.2989,-0.1852,-0.4729,-0.3227,0.1804,-0.4746
-0.4535,-0.3499,-0.4065,-0.2347,-0.2972,-0.3351,-0.4204,0.0788,-0.166,-0.2021,0.113,-0.0172,-0.336,-0.3262,-0.0087,-0.6213,-0.7531,-0.0194,-0.7204,-0.5536,-0.3559,-0.1294,0.0404,-0.1727,-0.2761,-0.1617,-0.4399,-0.3096,0.1901,-0.5535
-0.3194,-0.2717,-0.327,-0.0595,-0.1557,-0.2251,-0.3137,0.1125,-0.1078,-0.14,0.1355,-0.0049,-0.2567,-0.2023,0.1423,-0.4937,-0.6504,0.0261,-0.6165,-0.4278,-0.2273,0.01,0.1367,-0.0949,-0.2647,-0.1459,-0.4128,-0.3039,0.1958,-0.6072
-0.1738,-0.1934,-0.2336,0.1005,-0.0285,-0.106,-0.2114,0.145,-0.0501,-0.0886,0.1496,-0.0166,-0.1983,-0.1005,0.2842,-0.367,-0.538,0.0758,-0.5171,-0.3133,-0.1168,0.1087,0.1984,-0.0477,-0.2699,-0.142,-0.3995,-0.309,0.1981,-0.6317
-0.0272,-0.1223,-0.1351,0.2223,0.0708,0.0072,-0.1269,0.1723,0.0015,-0.0536,0.1561,-0.0505,-0.1673,-0.0297,0.4112,-0.2515,-0.4261,0.1248,-0.4317,-0.2179,-0.033,0.1597,0.2196,-0.0391,-0.293,-0.1509,-0.4045,-0.3257,0.1986,-0.6292
0.1109,-0.0632,-0.0413,0.2897,0.1341,0.1015,-0.0696,0.1921,0.043,-0.0379,0.1563,-0.1013,-0.1647,0.0063,0.52,-0.1555,-0.3254,0.1707,-0.3665,-0.1458,0.0204,0.1646,0.2021,-0.069,-0.3311,-0.1703,-0.4269,-0.3519,0.1988,-0.6065
0.2332,-0.017,0.0392,0.2966,0.1603,0.1682,-0.0439,0.2036,0.0727,-0.0409,0.1516,-0.1613,-0.1847,0.01,0.6092,-0.0835,-0.2453,0.214,-0.3228,-0.0966,0.0453,0.134,0.1559,-0.129,-0.3771,-0.1947,-0.4609,-0.3832,0.1996,-0.5731
0.3348,0.0201,0.1002,0.2491,0.1559,0.2041,-0.0483,0.2077,0.0906,-0.059,0.142,-0.2217,-0.2167,-0.0099,0.6783,-0.0349,-0.1913,0.2573,-0.2962,-0.065,0.0494,0.0851,0.0971,-0.204,-0.422,-0.2172,-0.4964,-0.4138,0.2004,-0.5382
0.4129,0.0559,0.1388,0.1653,0.1333,0.2123,-0.0759,0.206,0.0981,-0.0867,0.1266,-0.2749,-0.2469,-0.0401,0.7272,-0.0042,-0.164,0.304,-0.2784,-0.0421,0.0442,0.0381,0.044,-0.2755,-0.4563,-0.231,-0.5221,-0.4384,0.1997,-0.5094
0.4661,0.0993,0.1559,0.0717,0.1081,0.2005,-0.1162,0.2004,0.097,-0.1173,0.1041,-0.3147,-0.262,-0.0657,0.7566,0.0176,-0.158,0.3568,-0.2587,-0.0171,0.043,0.0119,0.0132,-0.3255,-0.4727,-0.2316,-0.5277,-0.4531,0.1959,-0.4914
0.4942,0.1575,0.1557,-0.0022,0.0954,0.1794,-0.1574,0.1931,0.0897,-0.1442,0.0738,-0.338,-0.2516,-0.0728,0.7689,0.0411,-0.1634,0.4172,-0.2269,0.0201,0.058,0.0202,0.017,-0.3404,-0.4672,-0.217,-0.5064,-0.4562,0.1876,-0.486
0.4995,0.2338,0.1453,-0.03,0.107,0.16,-0.1885,0.1861,0.0788,-0.1622,0.0364,-0.3445,-0.2105,-0.0511,0.7693,0.0763,-0.167,0.4845,-0.1756,0.0773,0.0981,0.0696,0.0605,-0.3128,-0.4398,-0.1885,-0.4565,-0.4482,0.1749,-0.4924
0.4872,0.3263,0.1341,0.0056,0.1483,0.1518,-0.2014,0.1817,0.0666,-0.1679,-0.006,-0.3365,-0.1395,0.004,0.7659,0.1302,-0.1557,0.5571,-0.1016,0.158,0.1669,0.1585,0.1424,-0.243,-0.3945,-0.1499,-0.3812,-0.4317,0.1585,-0.5077
0.4666,0.4287,0.1317,0.1097,0.2184,0.1612,-0.1919,0.1824,0.0551,-0.1603,-0.05,-0.3181,-0.0444,0.0912,0.7687,0.2061,-0.119,0.6332,-0.006,0.2617,0.2631,0.2787,0.2549,-0.1376,-0.3376,-0.1065,-0.288,-0.4103,0.1405,-0.5272
0.4499,0.5333,0.1473,0.275,0.3111,0.1919,-0.16,0.1906,0.0459,-0.1412,-0.0921,-0.2947,0.0652,0.2044,0.7872,0.3032,-0.0511,0.7111,0.1064,0.384,0.3806,0.4177,0.3862,-0.0084,-0.2766,-0.064,-0.187,-0.3886,0.1229,-0.5449
0.4508,0.6337,0.1872,0.4842,0.4172,0.2449,-0.1092,0.2078,0.0398,-0.1138,-0.1289,-0.2716,0.1784,0.3341,0.8279,0.4179,0.0487,0.7899,0.2286,0.5188,0.5111,0.5615,0.523,0.1306,-0.2188,-0.0276,-0.0883,-0.3704,0.1073,-0.5537
0.4809,0.727,0.2546,0.7138,0.5271,0.3199,-0.0453,0.2344,0.0368,-0.0821,-0.1583,-0.2529,0.2852,0.4703,0.8919,0.5443,0.1763,0.8692,0.3534,0.6595,0.6459,0.6975,0.6521,0.2656,-0.1696,-0.0011,-0.0006,-0.3582,0.0939,-0.5465
0.5473,0.8152,0.3481,0.9394,0.6335,0.4159,0.0255,0.269,0.0362,-0.0501,-0.1797,-0.2412,0.3787,0.6044,0.974,0.6762,0.3239,0.9486,0.4744,0.8004,0.778,0.8164,0.7638,0.3858,-0.1318,0.0135,0.0707,-0.3528,0.082,-0.5178
0.6502,0.9028,0.462,1.1392,0.7316,0.5307,0.0975,0.3085,0.0366,-0.0203,-0.1931,-0.2366,0.4557,0.7305,1.0639,0.8072,0.4815,1.0275,0.5873,0.9373,0.9031,0.9134,0.8527,0.4849,-0.1061,0.0161,0.1239,-0.353,0.0695,-0.4648
0.7827,0.9946,0.5873,1.2973,0.8196,0.66,0.1667,0.3482,0.037,0.0063,-0.1993,-0.237,0.5177,0.8463,1.1487,0.9317,0.6383,1.1045,0.6897,1.0675,1.0201,0.9885,0.9189,0.5615,-0.091,0.0086,0.1612,-0.356,0.0548,-0.3892
0.9321,1.093,0.7129,1.4051,0.8971,0.7964,0.231,0.3832,0.0361,0.0307,-0.1988,-0.2391,0.5692,0.952,1.2173,1.0448,0.7846,1.1773,0.7808,1.1891,1.1298,1.0457,0.9674,0.6192,-0.0836,-0.0058,0.1871,-0.3582,0.0369,-0.2976
1.0826,1.1963,0.8279,1.4617,0.9646,0.9295,0.2896,0.4086,0.0333,0.0549,-0.1915,-0.239,0.6168,1.0493,1.2628,1.1427,0.9126,1.2429,0.8608,1.3001,1.2339,1.091,1.0067,0.6646,-0.0806,-0.0228,0.2078,-0.3561,0.0162,-0.2009
1.2176,1.2994,0.9225,1.4731,1.0226,1.0462,0.3428,0.4205,0.0281,0.0812,-0.1774,-0.2337,0.6665,1.1401,1.2844,1.223,1.0172,1.298,0.93,1.3986,1.3336,1.1311,1.0459,0.7052,-0.0786,-0.0379,0.2291,-0.3472,-0.0057,-0.1121
1.3232,1.3949,0.9903,1.4516,1.0714,1.1337,0.3915,0.4166,0.0203,0.1112,-0.1568,-0.2213,0.7222,1.2251,1.287,1.2846,1.0966,1.3396,0.9887,1.4826,1.4287,1.1713,1.0924,0.7473,-0.075,-0.0473,0.2548,-0.3306,-0.0264,-0.044
1.3901,1.4756,1.0286,1.413,1.1117,1.1825,0.4359,0.3963,0.0097,0.1451,-0.1308,-0.2021,0.7849,1.3035,1.2791,1.3286,1.1518,1.3659,1.0369,1.5505,1.5175,1.2145,1.15,0.7941,-0.0676,-0.0484,0.2863,-0.3069,-0.044,-0.0059
1.4157,1.5362,1.0391,1.3744,1.1445,1.1888,0.4762,0.3614,-0.0036,0.1817,-0.1016,-0.1778,0.8523,1.3729,1.2701,1.3574,1.1863,1.3766,1.0746,1.6018,1.5972,1.2609,1.2176,0.8451,-0.0555,-0.0407,0.3219,-0.2781,-0.0568,-0.0014
1.4043,1.5751,1.0276,1.3516,1.1719,1.1563,0.5113,0.3152,-0.0194,0.2181,-0.0717,-0.1516,0.9197,1.4304,1.2684,1.3756,1.2054,1.3739,1.1022,1.6378,1.6652,1.3083,1.2904,0.896,-0.039,-0.0258,0.3574,-0.2472,-0.0642,-0.0282
1.3663,1.5945,1.0021,1.3561,1.1962,1.0953,0.5396,0.2623,-0.0371,0.2512,-0.0436,-0.1268,0.9819,1.4733,1.279,1.3886,1.215,1.3621,1.1208,1.6617,1.7199,1.3531,1.3605,0.9402,-0.0196,-0.0068,0.3875,-0.2175,-0.0664,-0.0782
1.3167,1.6002,0.9718,1.3936,1.22,1.021,0.5597,0.2079,-0.0558,0.278,-0.0186,-0.1066,1.0342,1.5001,1.3038,1.4024,1.2206,1.3465,1.1317,1.6783,1.7612,1.3916,1.419,0.9702,-0.0002,0.0121,0.407,-0.1921,-0.0643,-0.1399
1.2723,1.5997,0.945,1.463,1.2456,0.9501,0.5707,0.1571,-0.0743,0.297,0.0024,-0.0931,1.0743,1.5115,1.3417,1.4227,1.2269,1.3329,1.1369,1.6933,1.7912,1.4209,1.4581,0.9797,0.0154,0.027,0.4128,-0.1735,-0.0594,-0.2012
1.2479,1.6008,0.9281,1.5563,1.2743,0.8979,0.5737,0.1144,-0.0912,0.308,0.0195,-0.0869,1.1026,1.5103,1.3894,1.4536,1.2375,1.3259,1.1384,1.7125,1.8135,1.4402,1.4729,0.9654,0.0233,0.0351,0.404,-0.1631,-0.0534,-0.2513
1.2541,1.6093,0.9248,1.6611,1.3061,0.8751,0.5712,0.0831,-0.1048,0.3125,0.033,-0.0872,1.122,1.5012,1.443,1.4973,1.2549,1.328,1.1376,1.7401,1.8324,1.4503,1.4618,0.928,0.02,0.0351,0.3831,-0.1607,-0.0476,-0.2832
1.2946,1.6283,0.9364,1.7629,1.3393,0.8867,0.5672,0.0649,-0.114,0.3135,0.0436,-0.092,1.1371,1.4897,1.4983,1.5529,1.2808,1.3393,1.1356,1.7781,1.8514,1.453,1.4273,0.8719,0.0033,0.0273,0.3545,-0.1648,-0.043,-0.2933
1.3654,1.6586,0.9619,1.8488,1.3712,0.931,0.5657,0.0594,-0.1179,0.314,0.0522,-0.0983,1.1521,1.4813,1.5518,1.617,1.3159,1.3576,1.1327,1.8256,1.8723,1.4505,1.3748,0.8041,-0.0271,0.013,0.3236,-0.1729,-0.0396,-0.282
1.4562,1.6987,0.9987,1.9105,1.3985,1.0002,0.5696,0.0638,-0.1166,0.3169,0.06,-0.1028,1.17,1.4794,1.6012,1.6842,1.3593,1.3791,1.1286,1.8789,1.8948,1.4439,1.3117,0.7325,-0.0697,-0.006,0.295,-0.1821,-0.0369,-0.2526
1.5523,1.7466,1.043,1.9455,1.4179,1.082,0.5792,0.0735,-0.1112,0.3237,0.0682,-0.1027,1.1909,1.4853,1.6448,1.7479,1.4086,1.3993,1.1231,1.9322,1.9161,1.4334,1.2458,0.6637,-0.122,-0.0284,0.2717,-0.19,-0.034,-0.2103
1.6387,1.7995,1.0901,1.9569,1.4267,1.1623,0.5923,0.083,-0.1037,0.3341,0.0778,-0.0957,1.2125,1.4972,1.6817,1.8022,1.4591,1.414,1.1155,1.9789,1.9323,1.4177,1.1838,0.6017,-0.1808,-0.0532,0.254,-0.1949,-0.0295,-0.1607
1.7036,1.8551,1.1346,1.9513,1.4231,1.2271,0.6041,0.0866,-0.0971,0.3457,0.0887,-0.0813,1.2302,1.5112,1.711,1.8424,1.5048,1.4202,1.1055,2.0129,1.9387,1.3954,1.1306,0.5474,-0.2427,-0.0802,0.2402,-0.1965,-0.0225,-0.1092
1.7411,1.9104,1.1717,1.9357,1.4062,1.2652,0.6085,0.0807,-0.0942,0.355,0.0999,-0.0606,1.2385,1.5221,1.7321,1.8665,1.5393,1.4169,1.0931,2.0301,1.9319,1.3655,1.088,0.4991,-0.3046,-0.1093,0.2271,-0.1955,-0.0123,-0.0595
1.7518,1.962,1.1969,1.9148,1.3759,1.2699,0.5997,0.064,-0.0972,0.3577,0.1093,-0.0358,1.2321,1.5249,1.7441,1.875,1.5569,1.4048,1.078,2.0291,1.91,1.3278,1.0553,0.4536,-0.3631,-0.14,0.2116,-0.1936,0.0009,-0.0138
1.742,2.0056,1.2071,1.8899,1.3326,1.2393,0.5733,0.0393,-0.1067,0.35,0.1142,-0.0107,1.2075,1.5159,1.7461,1.8708,1.5547,1.3862,1.0598,2.0114,1.8741,1.2835,1.0292,0.4077,-0.4148,-0.1713,0.1916,-0.1927,0.016,0.0271
1.7205,2.0363,1.2011,1.859,1.2772,1.1758,0.5281,0.0122,-0.1217,0.3297,0.1118,0.011,1.1636,1.4939,1.7378,1.8582,1.5331,1.3644,1.0385,1.9817,1.828,1.2349,1.0056,0.3597,-0.4565,-0.2015,0.1668,-0.1944,0.0314,0.0636
1.6965,2.0495,1.1802,1.8196,1.2113,1.0856,0.4659,-0.0096,-0.1392,0.2965,0.1001,0.0261,1.1025,1.4604,1.7196,1.8424,1.4963,1.3432,1.0139,1.9464,1.7777,1.1854,0.9802,0.3104,-0.4851,-0.2281,0.1389,-0.1997,0.0444,0.0961
1.6775,2.0426,1.1479,1.7713,1.1377,0.977,0.3916,-0.0189,-0.1555,0.2524,0.0784,0.0325,1.0294,1.4199,1.6932,1.8287,1.4517,1.3262,0.9869,1.9135,1.7309,1.1389,0.951,0.2632,-0.4982,-0.2483,0.111,-0.2082,0.0526,0.1253
1.6679,2.016,1.1095,1.7178,1.0612,0.8602,0.3123,-0.0112,-0.1673,0.2015,0.0472,0.0301,0.9515,1.3783,1.6612,1.822,1.4083,1.3162,0.9589,1.8905,1.6956,1.0992,0.9183,0.2233,-0.4948,-0.2592,0.087,-0.2189,0.0535,0.1518
1.6689,1.9741,1.0711,1.667,0.9883,0.7457,0.2359,0.0133,-0.1726,0.1488,0.0088,0.0205,0.877,1.3425,1.627,1.8262,1.3749,1.3152,0.9317,1.8833,1.6783,1.0697,0.8849,0.1966,-0.4757,-0.2589,0.0707,-0.2296,0.0452,0.1761
1.6791,1.9244,1.0388,1.629,0.9261,0.6434,0.1693,0.05,-0.1718,0.0994,-0.0338,0.0065,0.813,1.3181,1.5942,1.8434,1.3581,1.3236,0.9073,1.8949,1.6825,1.0521,0.8551,0.1879,-0.4436,-0.2467,0.0642,-0.2381,0.0271,0.1988
1.6953,1.8762,1.017,1.6123,0.8807,0.5614,0.1166,0.0905,-0.1668,0.057,-0.0768,-0.0087,0.7639,1.308,1.566,1.8733,1.3609,1.3402,0.8872,1.9245,1.7077,1.0461,0.833,0.1989,-0.403,-0.2236,0.0678,-0.2427,-0.0004,0.2203
1.7135,1.8382,1.0081,1.6209,0.8555,0.5046,0.0788,0.1256,-0.161,0.0233,-0.1167,-0.0228,0.7307,1.3115,1.5447,1.9122,1.3822,1.3619,0.872,1.9673,1.7488,1.0486,0.8208,0.2273,-0.3601,-0.1924,0.0791,-0.2429,-0.0356,0.241
1.7302,1.8172,1.0125,1.6533,0.8504,0.4743,0.0539,0.148,-0.157,-0.0018,-0.1508,-0.0341,0.7103,1.3241,1.5315,1.9544,1.4169,1.3852,0.8612,2.0157,1.7973,1.055,0.8184,0.2669,-0.3213,-0.1577,0.0937,-0.2401,-0.0755,0.2611
1.743,1.8172,1.0287,1.7026,0.8624,0.4682,0.0382,0.1541,-0.1562,-0.0198,-0.1773,-0.0424,0.6973,1.3396,1.5262,1.9924,1.4576,1.4062,0.853,2.061,1.8433,1.0599,0.8232,0.308,-0.2924,-0.1249,0.1062,-0.2369,-0.1168,0.2804
1.7506,1.8391,1.0544,1.7585,0.8865,0.4816,0.028,0.1451,-0.1582,-0.0328,-0.1951,-0.0485,0.6852,1.3512,1.5279,2.0195,1.4959,1.4223,0.8454,2.0958,1.8781,1.0587,0.8306,0.34,-0.2768,-0.0993,0.1112,-0.2368,-0.156,0.2979
1.7528,1.8804,1.0867,1.8102,0.9173,0.5086,0.0201,0.1265,-0.1603,-0.0425,-0.2038,-0.0533,0.6681,1.3534,1.5353,2.0308,1.5242,1.4325,0.8356,2.1154,1.8959,1.0486,0.8358,0.3533,-0.2757,-0.0852,0.105,-0.2431,-0.1901,0.3118
1.7497,1.9355,1.123,1.8493,0.95,0.5435,0.013,0.1062,-0.1595,-0.0498,-0.2033,-0.0578,0.6428,1.3438,1.5471,2.0244,1.5372,1.437,0.821,2.1188,1.8952,1.0291,0.8342,0.3413,-0.2872,-0.085,0.0864,-0.2583,-0.2174,0.3193
1.7417,1.996,1.1605,1.871,0.9813,0.5814,0.0065,0.0925,-0.1526,-0.0548,-0.1936,-0.0624,0.609,1.323,1.5622,2.0018,1.5322,1.4371,0.7994,2.1081,1.8785,1.0016,0.8224,0.3023,-0.3072,-0.0985,0.057,-0.2828,-0.2368,0.3174
1.7299,2.0516,1.1968,1.8746,1.0092,0.6188,0.0011,0.092,-0.1377,-0.057,-0.176,-0.0669,0.5695,1.2944,1.58,1.9667,1.5089,1.4339,0.7687,2.0877,1.8514,0.9685,0.7986,0.2397,-0.3301,-0.1232,0.0211,-0.3149,-0.2484,0.3035
1.716,2.0927,1.2301,1.8633,1.0326,0.6539,-0.0022,0.1085,-0.1143,-0.0559,-0.1522,-0.0699,0.5298,1.2631,1.5998,1.9239,1.4693,1.4277,0.7282,2.0622,1.8207,0.9327,0.7631,0.1616,-0.3502,-0.1547,-0.0156,-0.3508,-0.2532,0.2768
1.7023,2.1121,1.2588,1.842,1.0512,0.6861,-0.0022,0.1424,-0.0833,-0.0508,-0.1251,-0.07,0.4965,1.2352,1.62,1.8787,1.4171,1.4182,0.6782,2.0359,1.7933,0.8963,0.7187,0.079,-0.3628,-0.1874,-0.0469,-0.385,-0.2524,0.2387
1.6912,2.1074,1.2821,1.8172,1.0653,0.7159,0.0025,0.1912,-0.047,-0.0411,-0.0974,-0.0654,0.476,1.216,1.638,1.8355,1.3573,1.4038,0.6211,2.0119,1.7747,0.861,0.6702,0.0043,-0.3649,-0.2159,-0.0677,-0.4119,-0.2483,0.1936
1.6837,2.0816,1.2992,1.7954,1.0761,0.7447,0.0135,0.2505,-0.008,-0.0262,-0.0714,-0.0547,0.473,1.2093,1.6501,1.7977,1.2961,1.3826,0.5606,1.9926,1.7684,0.8279,0.6239,-0.0518,-0.356,-0.2363,-0.0752,-0.4267,-0.2435,0.1468
1.6779,2.0423,1.3093,1.7832,1.0859,0.7739,0.0325,0.315,0.0309,-0.0054,-0.0478,-0.0376,0.4893,1.2173,1.6526,1.7675,1.2395,1.353,0.5019,1.9795,1.7758,0.7977,0.5865,-0.0815,-0.3378,-0.2461,-0.0695,-0.4267,-0.2404,0.1035
1.6686,2,1.3119,1.7864,1.0979,0.8049,0.0607,0.3798,0.0673,0.0219,-0.026,-0.0146,0.5238,1.2401,1.6427,1.7462,1.1931,1.3139,0.4512,1.9741,1.7967,0.7712,0.5635,-0.0819,-0.3142,-0.2454,-0.0533,-0.4116,-0.2414,0.0664
1.6481,1.9651,1.3067,1.8097,1.116,0.8382,0.099,0.4405,0.0997,0.056,-0.004,0.0124,0.5726,1.2762,1.6199,1.7344,1.1609,1.2663,0.4141,1.9781,1.8296,0.7489,0.5578,-0.0544,-0.2896,-0.2362,-0.0316,-0.3844,-0.2472,0.0354
1.6092,1.9458,1.2937,1.8551,1.1434,0.8732,0.1472,0.4934,0.1269,0.0967,0.0208,0.0405,0.63,1.323,1.5848,1.732,1.1445,1.2128,0.3955,1.9929,1.8726,0.7318,0.5692,-0.005,-0.2686,-0.2221,-0.0103,-0.3499,-0.2576,0.0083
1.5485,1.9457,1.2736,1.9203,1.1816,0.9082,0.2035,0.5353,0.1483,0.1427,0.0504,0.0664,0.69,1.3765,1.5396,1.7379,1.1431,1.1575,0.3981,2.0184,1.923,0.7205,0.5941,0.0581,-0.2546,-0.2072,0.0056,-0.3144,-0.2707,-0.0175
1.469,1.962,1.2477,1.9982,1.2292,0.9407,0.265,0.5635,0.1633,0.1919,0.086,0.0867,0.7472,1.4326,1.4861,1.7494,1.1528,1.106,0.4222,2.053,1.9773,0.7151,0.6269,0.1257,-0.2494,-0.1952,0.0126,-0.2836,-0.2837,-0.043
1.3806,1.9861,1.2183,2.0765,1.2812,0.9679,0.3272,0.576,0.1715,0.2412,0.1268,0.0987,0.7981,1.4865,1.4268,1.7625,1.1671,1.0635,0.465,2.0922,2.0311,0.7156,0.6613,0.19,-0.2524,-0.1882,0.0106,-0.2618,-0.2935,-0.067
1.2992,2.0056,1.188,2.1394,1.3304,0.9877,0.3859,0.5719,0.173,0.2872,0.1702,0.1007,0.8412,1.5339,1.3641,1.7714,1.1776,1.0348,0.5212,2.1295,2.0789,0.722,0.6922,0.2459,-0.2611,-0.1864,0.0027,-0.2504,-0.2976,-0.0867
1.2419,2.0077,1.1594,2.1715,1.3689,0.9999,0.4374,0.5526,0.168,0.3265,0.2116,0.093,0.877,1.5711,1.3019,1.7701,1.1758,1.0225,0.583,2.1571,2.1152,0.7338,0.7168,0.2917,-0.2711,-0.1878,-0.005,-0.2479,-0.2949,-0.0991
1.2217,1.9836,1.1351,2.1621,1.3906,1.0067,0.4802,0.5217,0.1579,0.3565,0.2452,0.0769,0.907,1.5956,1.2454,1.7535,1.1555,1.027,0.6417,2.1678,2.1347,0.7511,0.7349,0.3289,-0.2772,-0.1885,-0.0051,-0.2504,-0.2858,-0.1029
1.2427,1.9314,1.1165,2.1086,1.393,1.0123,0.5146,0.4852,0.1444,0.3759,0.265,0.055,0.933,1.6065,1.2002,1.719,1.1151,1.0463,0.6887,2.157,2.1342,0.7738,0.7489,0.361,-0.2744,-0.1844,0.0098,-0.2531,-0.2725,-0.0992
1.2976,1.857,1.1044,2.0185,1.3775,1.022,0.5429,0.4503,0.1295,0.3844,0.2658,0.0303,0.956,1.604,1.1711,1.6672,1.058,1.0762,0.7176,2.1234,2.1126,0.8018,0.7624,0.3913,-0.2593,-0.1723,0.0444,-0.2515,-0.2577,-0.0918
1.3686,1.7714,1.0983,1.9073,1.3488,1.0405,0.5673,0.4242,0.1152,0.3828,0.2451,0.0052,0.9748,1.5888,1.1595,1.6014,0.9919,1.1114,0.7247,2.069,2.0708,0.8341,0.779,0.4219,-0.2312,-0.1513,0.0991,-0.2432,-0.2447,-0.0849
1.4328,1.687,1.0972,1.7942,1.3124,1.0702,0.5888,0.4125,0.1028,0.3721,0.2036,-0.0188,0.9861,1.5609,1.1622,1.526,0.9262,1.1461,0.7099,1.9976,2.0107,0.8681,0.8008,0.4515,-0.1928,-0.1236,0.1692,-0.2288,-0.2355,-0.082
1.4679,1.6138,1.0991,1.696,1.272,1.109,0.6057,0.4179,0.0925,0.3528,0.1452,-0.0417,0.984,1.5189,1.1716,1.4447,0.8688,1.1754,0.6759,1.9126,1.9339,0.8988,0.8276,0.4755,-0.1496,-0.0943,0.2447,-0.2113,-0.231,-0.0837
1.458,1.5571,1.1014,1.6219,1.2278,1.1498,0.6136,0.4398,0.0839,0.3246,0.0767,-0.0648,0.9612,1.4594,1.1767,1.3587,0.8231,1.1955,0.6277,1.8156,1.8407,0.9192,0.8559,0.4866,-0.1097,-0.0707,0.312,-0.1962,-0.2304,-0.0874
1.3964,1.5172,1.1013,1.5709,1.1757,1.1813,0.6058,0.4741,0.0758,0.2862,0.0054,-0.0907,0.9099,1.3779,1.1656,1.2659,0.7872,1.2042,0.5704,1.7052,1.7294,0.9202,0.8796,0.4759,-0.0813,-0.0607,0.3561,-0.1896,-0.2318,-0.0877
1.2852,1.491,1.0956,1.5327,1.109,1.1895,0.5747,0.514,0.0667,0.2359,-0.0619,-0.1221,0.8234,1.2691,1.1277,1.1618,0.7539,1.2004,0.5084,1.5772,1.5968,0.893,0.8909,0.4351,-0.0719,-0.0709,0.3637,-0.1971,-0.2326,-0.0784
1.1334,1.4738,1.0814,1.4911,1.0201,1.1616,0.5142,0.5522,0.0548,0.1716,-0.1205,-0.1616,0.6976,1.129,1.0561,1.0407,0.7137,1.1841,0.4447,1.4267,1.4393,0.8305,0.8828,0.3585,-0.0859,-0.1057,0.3257,-0.2229,-0.2306,-0.054
0.9529,1.4607,1.0566,1.4303,0.9035,1.0891,0.421,0.5821,0.0387,0.0922,-0.1689,-0.2111,0.532,0.956,0.9486,0.8981,0.6578,1.1559,0.38,1.2497,1.2547,0.7295,0.8505,0.2447,-0.1243,-0.166,0.2392,-0.2683,-0.2244,-0.0113
0.7562,1.4476,1.0208,1.34,0.7583,0.9712,0.2969,0.6001,0.0179,-0.0019,-0.208,-0.2706,0.3309,0.7524,0.808,0.7326,0.5812,1.1177,0.3146,1.0458,1.0435,0.5924,0.7937,0.0971,-0.1846,-0.2489,0.1086,-0.3319,-0.2138,0.0497
0.5535,1.4316,0.9756,1.2192,0.5888,0.8159,0.1484,0.6064,-0.0073,-0.1079,-0.2405,-0.3387,0.1029,0.5248,0.6422,0.5472,0.4846,1.0725,0.2484,0.8191,0.8108,0.4274,0.7167,-0.0761,-0.2608,-0.3485,-0.055,-0.4096,-0.1993,0.1258
0.3528,1.411,0.9251,1.0765,0.4045,0.6392,-0.0134,0.6045,-0.0353,-0.2205,-0.2696,-0.4121,-0.1389,0.284,0.4624,0.3492,0.3743,1.0245,0.1818,0.5786,0.5653,0.2476,0.6282,-0.2627,-0.3451,-0.4568,-0.2357,-0.4948,-0.1824,0.211
