FP1,F3,F7,FC3,C3,C5,P3,P7,PO7,PO3,O1,Oz,Pz,CPz,FP2,Fz,F4,F8,FC4,FCz,Cz,C4,C6,P4,P8,PO8,PO4,O2,HEOG_left,HEOG_right
0.1316,0.2929,-0.1287,-0.4072,-0.2237,-0.105,-0.0817,-0.1573,-0.0807,-0.0275,-0.0397,-0.2092,-0.2102,-0.0243,0.1644,-0.177,0.036,0.102,-0.2515,-0.1967,0.0656,-0.0559,-0.1019,0.0467,0.1257,0.1542,0.1107,0.1223,0.0042,0.0563
0.1716,0.2306,-0.1209,-0.3964,-0.2191,-0.1103,-0.0679,-0.1248,-0.0352,-0.0103,-0.021,-0.153,-0.1566,-0.0259,0.1641,-0.1276,0.0249,0.1157,-0.2449,-0.1687,0.0478,-0.0111,-0.0573,0.0743,0.1321,0.1487,0.0617,0.1219,0.0132,0.0616
0.2049,0.1688,-0.112,-0.3819,-0.2137,-0.1113,-0.0522,-0.094,0.0065,0.0075,-0.0035,-0.0991,-0.1059,-0.0278,0.1617,-0.086,0.0202,0.1302,-0.2338,-0.1426,0.0303,0.0305,-0.0172,0.1007,0.1367,0.1421,0.0167,0.1211,0.0182,0.0622
0.2271,0.1092,-0.1013,-0.361,-0.2063,-0.1044,-0.033,-0.0662,0.042,0.0262,0.0117,-0.0493,-0.0603,-0.0292,0.1553,-0.0577,0.0264,0.1456,-0.2146,-0.1196,0.0142,0.0665,0.0145,0.1251,0.1386,0.1334,-0.0211,0.1198,0.0165,0.0553
0.2366,0.054,-0.0875,-0.3318,-0.1958,-0.0873,-0.0094,-0.0417,0.07,0.0462,0.0244,-0.0046,-0.0212,-0.0289,0.144,-0.0465,0.0448,0.1608,-0.1865,-0.1007,0.0003,0.0944,0.0351,0.1465,0.1373,0.1222,-0.0489,0.1182,0.0061,0.0396
0.2348,0.0063,-0.0699,-0.2937,-0.1814,-0.0597,0.0187,-0.0205,0.0904,0.0676,0.035,0.0347,0.0104,-0.0255,0.1279,-0.0536,0.0729,0.1735,-0.1513,-0.0866,-0.0108,0.112,0.0438,0.1643,0.1329,0.1087,-0.0654,0.1174,-0.0141,0.0162
0.2256,-0.0306,-0.0479,-0.2476,-0.1627,-0.0233,0.0502,-0.0018,0.1042,0.09,0.0443,0.0689,0.0346,-0.0175,0.1083,-0.0774,0.1055,0.1811,-0.113,-0.0771,-0.0187,0.1182,0.0411,0.178,0.1261,0.094,-0.0702,0.1186,-0.0431,-0.0115
0.2137,-0.0535,-0.0222,-0.1958,-0.1396,0.0182,0.0829,0.0155,0.113,0.112,0.0525,0.0981,0.0528,-0.0035,0.0878,-0.1135,0.1362,0.1814,-0.0764,-0.0718,-0.0229,0.1132,0.0293,0.1876,0.1182,0.0794,-0.0639,0.1228,-0.0778,-0.0389
0.2036,-0.0606,0.0055,-0.1418,-0.1125,0.0601,0.1144,0.0323,0.1189,0.1318,0.0588,0.1224,0.0675,0.0173,0.0696,-0.1556,0.1591,0.1734,-0.0453,-0.0697,-0.0235,0.0997,0.0114,0.1936,0.1112,0.0669,-0.048,0.1305,-0.1128,-0.0606
0.1978,-0.0515,0.0327,-0.0899,-0.0826,0.0974,0.1419,0.0496,0.1241,0.147,0.0623,0.1419,0.0814,0.0446,0.0571,-0.1968,0.1706,0.158,-0.0219,-0.0695,-0.0205,0.0817,-0.0091,0.1968,0.1068,0.0583,-0.0248,0.1413,-0.1418,-0.0719
0.1968,-0.0274,0.0561,-0.0445,-0.0509,0.1259,0.1632,0.0674,0.1307,0.1556,0.0617,0.1566,0.0971,0.0766,0.0525,-0.2305,0.1695,0.138,-0.0067,-0.0703,-0.0148,0.0643,-0.0288,0.198,0.1067,0.055,0.0031,0.1543,-0.1584,-0.0699
0.1986,0.0088,0.0725,-0.0089,-0.0192,0.1431,0.1765,0.0855,0.141,0.1562,0.0563,0.1669,0.1159,0.1098,0.057,-0.252,0.1574,0.1178,0.0011,-0.0715,-0.0083,0.0514,-0.0449,0.1976,0.1117,0.0578,0.033,0.1682,-0.1586,-0.0537
0.1995,0.0526,0.0798,0.0148,0.0104,0.148,0.1807,0.1024,0.156,0.1483,0.0467,0.1737,0.1368,0.139,0.0694,-0.2593,0.1372,0.1018,0.0022,-0.074,-0.0039,0.0452,-0.0558,0.1952,0.1212,0.0663,0.0619,0.1814,-0.1411,-0.0246
0.1952,0.0988,0.0768,0.0262,0.0353,0.1413,0.1751,0.1163,0.1752,0.1323,0.0339,0.1779,0.1564,0.1581,0.0869,-0.2536,0.1117,0.0937,-0.0034,-0.0794,-0.0055,0.0448,-0.0611,0.1894,0.1333,0.0791,0.0871,0.1921,-0.1085,0.0142
0.1813,0.1412,0.0638,0.0267,0.0528,0.1244,0.159,0.1251,0.1958,0.109,0.0196,0.1799,0.1693,0.1614,0.1051,-0.2391,0.0828,0.0953,-0.0167,-0.0901,-0.0173,0.0465,-0.062,0.1777,0.145,0.0931,0.1056,0.1985,-0.0662,0.0583
0.1543,0.1738,0.0423,0.0186,0.0598,0.0993,0.1323,0.1269,0.2129,0.079,0.0052,0.1794,0.169,0.144,0.1188,-0.2214,0.0505,0.1059,-0.0397,-0.1086,-0.0427,0.0448,-0.0611,0.1569,0.1523,0.1046,0.1146,0.1983,-0.0211,0.1027
0.1122,0.1911,0.0147,0.0049,0.0539,0.068,0.0951,0.12,0.2197,0.0426,-0.0092,0.1748,0.1495,0.1039,0.1229,-0.2067,0.0137,0.1221,-0.0741,-0.1364,-0.0833,0.034,-0.0613,0.1242,0.1515,0.1089,0.1111,0.1892,0.0198,0.1431
0.0545,0.1888,-0.0161,-0.0119,0.0337,0.0327,0.0481,0.1036,0.2094,-0.0005,-0.0249,0.1638,0.1069,0.042,0.1133,-0.1996,-0.0291,0.1392,-0.1205,-0.1734,-0.1379,0.0102,-0.0655,0.0777,0.1396,0.1015,0.093,0.1687,0.0514,0.1761
-0.0173,0.1649,-0.0469,-0.0296,-0.0008,-0.0047,-0.0073,0.0778,0.1765,-0.0504,-0.0442,0.1438,0.0406,-0.0373,0.0879,-0.2021,-0.0785,0.1517,-0.1773,-0.2175,-0.2023,-0.028,-0.0755,0.0171,0.1153,0.0792,0.0593,0.1354,0.0712,0.1993
-0.1001,0.1198,-0.0753,-0.0469,-0.0477,-0.0419,-0.0687,0.0434,0.1189,-0.1069,-0.0697,0.113,-0.046,-0.127,0.047,-0.2132,-0.1327,0.155,-0.2402,-0.2644,-0.2698,-0.0782,-0.0914,-0.0556,0.0793,0.0407,0.0111,0.0889,0.0798,0.2119
-0.1891,0.0567,-0.0994,-0.0631,-0.1031,-0.0769,-0.1326,0.0024,0.0384,-0.1683,-0.1031,0.0711,-0.1456,-0.2185,-0.0063,-0.2293,-0.1879,0.1458,-0.3027,-0.3091,-0.3324,-0.1353,-0.1115,-0.1361,0.0339,-0.0126,-0.0487,0.0306,0.0799,0.214
-0.2777,-0.019,-0.1181,-0.0778,-0.1617,-0.1076,-0.1946,-0.0423,-0.0585,-0.2315,-0.1443,0.02,-0.2479,-0.3031,-0.067,-0.2451,-0.2383,0.1234,-0.3572,-0.3462,-0.3825,-0.1919,-0.1325,-0.2182,-0.0166,-0.0765,-0.1149,-0.0358,0.0754,0.2064
-0.3588,-0.0997,-0.1313,-0.0904,-0.2173,-0.1327,-0.2498,-0.0868,-0.1622,-0.292,-0.1904,-0.0363,-0.3416,-0.3732,-0.1286,-0.2554,-0.2772,0.0894,-0.3962,-0.3709,-0.4143,-0.2405,-0.15,-0.2944,-0.0673,-0.1444,-0.1808,-0.105,0.0701,0.1899
-0.4248,-0.1776,-0.1393,-0.1005,-0.2637,-0.1513,-0.2935,-0.1273,-0.2615,-0.3444,-0.2363,-0.0918,-0.4159,-0.4235,-0.1844,-0.2562,-0.2983,0.0474,-0.4138,-0.3803,-0.4249,-0.2746,-0.1597,-0.3569,-0.1129,-0.2084,-0.2389,-0.1702,0.0668,0.1656
-0.4692,-0.245,-0.1435,-0.107,-0.2954,-0.1631,-0.3216,-0.1596,-0.3463,-0.3834,-0.2756,-0.1401,-0.4624,-0.4509,-0.2287,-0.2448,-0.2972,0.0022,-0.4066,-0.3726,-0.4141,-0.2903,-0.1581,-0.3991,-0.1491,-0.2604,-0.2819,-0.2248,0.0671,0.1347
-0.4875,-0.2959,-0.1449,-0.1088,-0.3086,-0.1678,-0.3315,-0.1807,-0.4091,-0.4044,-0.3015,-0.1752,-0.4762,-0.4544,-0.257,-0.2205,-0.272,-0.0407,-0.3745,-0.3479,-0.3841,-0.2863,-0.1431,-0.4162,-0.1726,-0.2937,-0.3044,-0.2633,0.0713,0.0986
-0.478,-0.326,-0.1446,-0.1043,-0.3015,-0.1655,-0.3223,-0.1888,-0.4465,-0.4045,-0.3086,-0.193,-0.4565,-0.4346,-0.267,-0.184,-0.2244,-0.0768,-0.3207,-0.3069,-0.3382,-0.2642,-0.1148,-0.4064,-0.1819,-0.3037,-0.3031,-0.2821,0.0784,0.0594
-0.4421,-0.3332,-0.1429,-0.0923,-0.2744,-0.1565,-0.2951,-0.1839,-0.4591,-0.383,-0.2942,-0.1916,-0.4066,-0.3934,-0.2583,-0.1369,-0.1591,-0.1025,-0.2509,-0.2512,-0.2803,-0.2277,-0.075,-0.3713,-0.1773,-0.2893,-0.2784,-0.2805,0.0876,0.0197
-0.3842,-0.3172,-0.1395,-0.0716,-0.2298,-0.1416,-0.253,-0.1675,-0.4511,-0.3414,-0.2582,-0.1721,-0.3327,-0.3335,-0.2327,-0.0819,-0.0835,-0.1166,-0.1722,-0.183,-0.2141,-0.1819,-0.0272,-0.3153,-0.1604,-0.2522,-0.2336,-0.2602,0.0981,-0.0171
-0.3115,-0.2799,-0.1335,-0.042,-0.1716,-0.1222,-0.2003,-0.1422,-0.4284,-0.2834,-0.2038,-0.1378,-0.2431,-0.2588,-0.194,-0.0227,-0.0071,-0.1194,-0.0925,-0.1055,-0.1428,-0.1323,0.0237,-0.2454,-0.1343,-0.197,-0.1747,-0.225,0.1093,-0.0477
-0.2318,-0.2247,-0.124,-0.004,-0.1052,-0.1002,-0.1419,-0.111,-0.3966,-0.2143,-0.1367,-0.0933,-0.1465,-0.1742,-0.147,0.0366,0.0604,-0.1133,-0.019,-0.0229,-0.0697,-0.0839,0.0725,-0.1697,-0.1027,-0.1306,-0.1089,-0.1798,0.1211,-0.0688
-0.1534,-0.1566,-0.1106,0.0408,-0.0361,-0.0778,-0.0827,-0.0764,-0.3596,-0.1398,-0.0638,-0.044,-0.0508,-0.0853,-0.0969,0.0913,0.1107,-0.1015,0.0431,0.0596,0.0017,-0.041,0.1144,-0.096,-0.0694,-0.0608,-0.0432,-0.1299,0.1334,-0.0784
-0.0828,-0.0818,-0.0934,0.0899,0.0306,-0.0569,-0.0268,-0.0402,-0.3183,-0.0656,0.0077,0.0051,0.0377,0.0019,-0.0485,0.1374,0.1384,-0.087,0.0907,0.1365,0.0683,-0.0058,0.1456,-0.0306,-0.0378,0.005,0.0167,-0.0799,0.1454,-0.0756
-0.0245,-0.0068,-0.0731,0.1399,0.0906,-0.0384,0.0228,-0.0034,-0.2705,0.0034,0.0717,0.0496,0.1151,0.0818,-0.0052,0.1724,0.1422,-0.0725,0.1238,0.2024,0.1269,0.0211,0.1641,0.0226,-0.0108,0.0608,0.0674,-0.0335,0.1561,-0.0614
0.0198,0.0616,-0.0508,0.1874,0.141,-0.0226,0.0643,0.0334,-0.2121,0.0634,0.1237,0.086,0.1793,0.1497,0.031,0.196,0.1249,-0.0598,0.1449,0.2535,0.1752,0.0408,0.1697,0.0623,0.0098,0.1022,0.1077,0.0066,0.1638,-0.0385
0.0505,0.117,-0.0277,0.2289,0.1802,-0.009,0.0968,0.0692,-0.1396,0.1122,0.1609,0.1114,0.2297,0.2025,0.0596,0.2096,0.0925,-0.05,0.1582,0.2883,0.2121,0.0556,0.1638,0.0893,0.0227,0.1274,0.1379,0.0383,0.1663,-0.0112
0.0692,0.1544,-0.0048,0.2615,0.2077,0.0035,0.1197,0.1026,-0.052,0.1479,0.1824,0.1236,0.2662,0.2385,0.0804,0.2165,0.0525,-0.0442,0.1686,0.3072,0.2373,0.068,0.1487,0.1054,0.0273,0.1357,0.1591,0.0598,0.161,0.0152
0.0782,0.1703,0.0173,0.2828,0.2239,0.0158,0.1329,0.1315,0.0473,0.1702,0.1887,0.1212,0.2885,0.2575,0.0932,0.2202,0.0119,-0.0441,0.1801,0.313,0.2515,0.0795,0.127,0.1122,0.0226,0.1279,0.1721,0.0697,0.146,0.0351
0.0792,0.164,0.0386,0.2913,0.2298,0.0284,0.1365,0.1535,0.1503,0.1791,0.1819,0.1039,0.2961,0.2606,0.0976,0.2235,-0.0236,-0.0515,0.1954,0.3092,0.2562,0.0903,0.1011,0.1108,0.0084,0.1058,0.1767,0.0672,0.1198,0.0435
0.0739,0.1371,0.0596,0.2867,0.2271,0.0413,0.1313,0.1663,0.246,0.1761,0.165,0.0733,0.2884,0.2503,0.0933,0.2285,-0.0505,-0.0677,0.2153,0.3001,0.2531,0.0992,0.073,0.1016,-0.015,0.0721,0.1725,0.0525,0.0826,0.0374
0.0636,0.0945,0.0809,0.2696,0.2186,0.0542,0.119,0.1681,0.3222,0.1641,0.1421,0.0327,0.2659,0.2299,0.08,0.2361,-0.0673,-0.093,0.239,0.2893,0.2443,0.1046,0.0446,0.085,-0.0461,0.0308,0.159,0.0272,0.0359,0.0155
0.0502,0.043,0.1031,0.2424,0.2075,0.0662,0.1024,0.1583,0.3689,0.1469,0.1178,-0.013,0.2307,0.2036,0.0586,0.2462,-0.0738,-0.1256,0.2653,0.28,0.2322,0.1047,0.0183,0.0623,-0.0817,-0.013,0.1372,-0.0055,-0.0169,-0.0206
0.0358,-0.0089,0.1264,0.2089,0.1981,0.0768,0.0848,0.1374,0.3803,0.1291,0.096,-0.0583,0.1866,0.1758,0.0307,0.2584,-0.0701,-0.1615,0.2927,0.2742,0.2194,0.0994,-0.0036,0.036,-0.117,-0.0534,0.1093,-0.0416,-0.0709,-0.067
0.0231,-0.053,0.1501,0.1742,0.1939,0.0856,0.0691,0.1068,0.3563,0.1146,0.0797,-0.0985,0.1393,0.1505,-0.001,0.2722,-0.0568,-0.1953,0.3207,0.2726,0.2082,0.0902,-0.0183,0.01,-0.1469,-0.0847,0.0791,-0.0764,-0.1208,-0.1181
0.0139,-0.0826,0.173,0.1437,0.1979,0.0928,0.0576,0.0691,0.302,0.1062,0.07,-0.1299,0.0947,0.1308,-0.0339,0.2873,-0.0346,-0.2212,0.3495,0.2749,0.2008,0.0801,-0.0237,-0.0115,-0.1665,-0.1028,0.0513,-0.1064,-0.1612,-0.1671
0.0095,-0.0939,0.1937,0.1223,0.2113,0.0993,0.0514,0.0275,0.2266,0.1047,0.0662,-0.1511,0.0582,0.1184,-0.0654,0.3035,-0.0044,-0.2341,0.3799,0.2798,0.1987,0.0736,-0.0184,-0.0246,-0.1725,-0.1053,0.0305,-0.1288,-0.1881,-0.2076
0.0096,-0.0861,0.2109,0.1138,0.2334,0.1062,0.0506,-0.014,0.1417,0.1093,0.0664,-0.162,0.0338,0.1139,-0.0938,0.3212,0.0327,-0.2313,0.4129,0.2861,0.2029,0.075,-0.0023,-0.0267,-0.1639,-0.0926,0.02,-0.1427,-0.199,-0.2345
0.0123,-0.0615,0.2241,0.1203,0.2624,0.1154,0.055,-0.0509,0.0593,0.118,0.0681,-0.1637,0.024,0.1173,-0.1178,0.341,0.0754,-0.2121,0.4493,0.2929,0.2144,0.0878,0.0232,-0.0172,-0.1422,-0.0674,0.022,-0.148,-0.1934,-0.245
0.015,-0.0245,0.2337,0.1423,0.2958,0.1282,0.0646,-0.0786,-0.0102,0.1293,0.0693,-0.1574,0.0295,0.1285,-0.1367,0.3643,0.1225,-0.1788,0.4895,0.3002,0.2343,0.114,0.0558,0.0033,-0.1111,-0.0335,0.0366,-0.1455,-0.1727,-0.2388
0.0152,0.0197,0.2408,0.1789,0.3313,0.1463,0.08,-0.0929,-0.0589,0.1425,0.0693,-0.1448,0.0501,0.148,-0.1499,0.3922,0.1727,-0.1353,0.5329,0.3094,0.2639,0.1532,0.0925,0.0325,-0.075,0.0044,0.063,-0.136,-0.1402,-0.2183
0.0112,0.0662,0.2471,0.228,0.3673,0.1704,0.1027,-0.0908,-0.0821,0.158,0.0686,-0.1275,0.0843,0.1768,-0.1566,0.426,0.2251,-0.0864,0.5784,0.3228,0.3043,0.2029,0.1301,0.0677,-0.0388,0.042,0.0991,-0.1204,-0.1004,-0.1878
0.0025,0.1109,0.2539,0.287,0.4033,0.2006,0.1339,-0.0711,-0.0789,0.1778,0.0687,-0.1076,0.1294,0.2161,-0.1565,0.4661,0.2779,-0.0372,0.6241,0.3427,0.3558,0.2586,0.1653,0.1058,-0.0067,0.0757,0.142,-0.0999,-0.0584,-0.1526
-0.0105,0.1515,0.2618,0.3525,0.4392,0.2365,0.174,-0.0352,-0.0514,0.2038,0.071,-0.0878,0.1814,0.2662,-0.1497,0.5118,0.3286,0.0081,0.6678,0.3703,0.417,0.3147,0.1951,0.1436,0.0182,0.1026,0.1879,-0.076,-0.02,-0.1179
-0.0269,0.187,0.2702,0.421,0.4755,0.277,0.2218,0.0133,-0.0046,0.2371,0.0761,-0.0717,0.2349,0.326,-0.1372,0.5609,0.3737,0.0462,0.7074,0.4054,0.4846,0.3649,0.217,0.1778,0.034,0.1205,0.2327,-0.0511,0.0097,-0.0885
-0.0462,0.2172,0.2775,0.4884,0.5123,0.3207,0.2742,0.0685,0.0545,0.277,0.0833,-0.063,0.2833,0.3917,-0.1209,0.6096,0.4091,0.0755,0.7415,0.4459,0.5532,0.4036,0.2291,0.2055,0.0398,0.1281,0.272,-0.0281,0.0264,-0.0677
-0.0686,0.2421,0.2818,0.551,0.5487,0.3659,0.3265,0.1233,0.1179,0.3205,0.0902,-0.0651,0.3201,0.4577,-0.1034,0.6531,0.4308,0.0957,0.7693,0.4881,0.6162,0.427,0.2309,0.2243,0.0363,0.1251,0.3017,-0.0103,0.0279,-0.0575
-0.0945,0.2618,0.2813,0.6053,0.5834,0.4108,0.373,0.17,0.1774,0.3627,0.0937,-0.0799,0.3398,0.5172,-0.0866,0.6866,0.4358,0.1075,0.7912,0.5276,0.6671,0.4339,0.224,0.2332,0.0252,0.1123,0.3192,-0.0001,0.0141,-0.0583
-0.1244,0.276,0.2754,0.648,0.6139,0.4533,0.4084,0.2022,0.226,0.398,0.091,-0.1069,0.3393,0.5641,-0.0719,0.7064,0.4235,0.1129,0.8083,0.5604,0.7008,0.4263,0.2121,0.2328,0.0102,0.0927,0.3241,0.0013,-0.0125,-0.0689
-0.1577,0.2841,0.2641,0.6767,0.6378,0.4904,0.4291,0.2155,0.2591,0.4218,0.0807,-0.1431,0.3196,0.5938,-0.0587,0.7105,0.3956,0.1144,0.8223,0.5836,0.715,0.4088,0.2005,0.2263,-0.0045,0.0704,0.3187,-0.0049,-0.0473,-0.087
-0.193,0.2854,0.249,0.6896,0.6529,0.5188,0.434,0.2085,0.2752,0.4319,0.0637,-0.183,0.2852,0.605,-0.0448,0.6995,0.3568,0.1148,0.8352,0.5966,0.7106,0.3882,0.1956,0.2182,-0.0135,0.051,0.3076,-0.015,-0.0844,-0.1094
-0.2273,0.2803,0.2322,0.6861,0.6585,0.5348,0.4245,0.1831,0.2765,0.429,0.0432,-0.2196,0.2442,0.5997,-0.0271,0.677,0.3139,0.117,0.8493,0.6007,0.6921,0.372,0.2027,0.2145,-0.0123,0.0402,0.2968,-0.0238,-0.1174,-0.133
-0.2573,0.2701,0.2161,0.6673,0.656,0.5358,0.4051,0.145,0.2686,0.4173,0.0245,-0.2456,0.2069,0.5835,-0.0019,0.6496,0.2757,0.1232,0.8666,0.5998,0.6667,0.3674,0.2247,0.2208,0.002,0.0427,0.2922,-0.0249,-0.1407,-0.1554
-0.2791,0.2582,0.203,0.6368,0.6499,0.5215,0.3823,0.1025,0.2601,0.4036,0.0138,-0.2539,0.1843,0.5644,0.0335,0.6265,0.2515,0.1349,0.8897,0.6,0.6444,0.3796,0.2614,0.2416,0.03,0.0615,0.2985,-0.0128,-0.1502,-0.1758
-0.2896,0.25,0.1948,0.6015,0.6475,0.4957,0.3645,0.066,0.2608,0.3967,0.0182,-0.2395,0.1871,0.5526,0.0809,0.6187,0.2501,0.1525,0.9215,0.6095,0.6365,0.4123,0.3094,0.2798,0.0694,0.0972,0.3181,0.0164,-0.1443,-0.1954
-0.2861,0.2521,0.1928,0.571,0.6586,0.4662,0.3609,0.0461,0.2801,0.4052,0.0437,-0.1989,0.2234,0.5588,0.14,0.6376,0.2783,0.1754,0.9653,0.637,0.6539,0.4667,0.3634,0.3359,0.1158,0.1477,0.3512,0.0642,-0.1242,-0.2171
-0.2675,0.2712,0.1976,0.556,0.693,0.4441,0.38,0.0518,0.3248,0.4363,0.0949,-0.1317,0.2979,0.5918,0.2086,0.6917,0.3393,0.2019,1.0239,0.6901,0.7051,0.5419,0.4178,0.4086,0.1635,0.2091,0.3957,0.1291,-0.0938,-0.2449
-0.2346,0.3123,0.2088,0.5654,0.7572,0.4406,0.4274,0.0877,0.3965,0.4941,0.1734,-0.0403,0.4095,0.6563,0.2829,0.7841,0.4308,0.2292,1.0973,0.7724,0.7935,0.6345,0.4672,0.4936,0.2068,0.2755,0.4475,0.2071,-0.0591,-0.2827
-0.19,0.3762,0.2249,0.6035,0.8512,0.4633,0.5035,0.1529,0.4907,0.577,0.2765,0.0697,0.5502,0.7502,0.3576,0.9099,0.5441,0.2538,1.1819,0.881,0.9146,0.7373,0.5075,0.5843,0.241,0.3401,0.5009,0.2911,-0.0269,-0.3332
-0.1386,0.4581,0.2425,0.6669,0.9661,0.5127,0.6014,0.2395,0.5963,0.6774,0.3961,0.1888,0.7047,0.8629,0.4262,1.0552,0.6642,0.2716,1.2688,1.0053,1.0551,0.8394,0.5353,0.6705,0.2623,0.3953,0.5484,0.3722,-0.004,-0.3962
-0.0874,0.5477,0.2568,0.7446,1.0833,0.5801,0.7069,0.3337,0.6968,0.7814,0.5189,0.3046,0.851,0.9759,0.4817,1.1986,0.7716,0.2784,1.3439,1.1271,1.1938,0.9262,0.5467,0.74,0.2679,0.4335,0.5811,0.4395,0.0049,-0.468
-0.0444,0.6299,0.2622,0.8194,1.1773,0.6487,0.7997,0.4174,0.773,0.8705,0.6276,0.4027,0.9639,1.0652,0.5173,1.3146,0.8456,0.2702,1.3906,1.2236,1.3044,0.9811,0.5379,0.779,0.2565,0.4481,0.59,0.4825,-0.0019,-0.5417
-0.0169,0.6881,0.2527,0.8714,1.2202,0.6972,0.8573,0.4722,0.8063,0.9251,0.704,0.4687,1.0194,1.1067,0.5276,1.3788,0.8682,0.2445,1.3924,1.2718,1.3607,0.9882,0.5053,0.7758,0.2279,0.4344,0.5673,0.4925,-0.023,-0.6076
-0.01,0.7079,0.224,0.8828,1.1887,0.7048,0.8598,0.4834,0.7827,0.9288,0.7329,0.4913,0.9993,1.0809,0.5098,1.3734,0.8279,0.2004,1.3376,1.2536,1.3426,0.9363,0.4465,0.7229,0.1842,0.3914,0.5087,0.465,-0.0533,-0.6551
-0.025,0.6801,0.1742,0.8423,1.0692,0.6563,0.7945,0.4429,0.6958,0.8721,0.7053,0.4646,0.896,0.9787,0.4644,1.2906,0.7227,0.1393,1.2222,1.1606,1.2408,0.821,0.3618,0.6198,0.1293,0.3223,0.4151,0.4009,-0.0858,-0.6745
-0.0588,0.6035,0.1048,0.747,0.8619,0.5462,0.6597,0.3516,0.548,0.7553,0.6211,0.3892,0.7144,0.8033,0.3961,1.1353,0.5604,0.0644,1.0515,0.9963,1.0598,0.6472,0.2545,0.4739,0.0688,0.2343,0.2932,0.3071,-0.1128,-0.6597
-0.1051,0.4848,0.0205,0.6034,0.5809,0.3798,0.4653,0.2188,0.3514,0.5888,0.4893,0.2732,0.4715,0.5708,0.3132,0.9234,0.3576,-0.0191,0.8393,0.7757,0.8168,0.4283,0.1309,0.2994,0.0092,0.1374,0.1546,0.1952,-0.1276,-0.6089
-0.1555,0.3371,-0.0719,0.4255,0.2524,0.1719,0.2313,0.0608,0.1249,0.3918,0.3263,0.1308,0.1939,0.3067,0.2263,0.6794,0.1368,-0.1057,0.6057,0.523,0.5393,0.1849,-0.0003,0.1152,-0.0434,0.0432,0.0144,0.0796,-0.1263,-0.5265
-0.2015,0.1775,-0.1642,0.2319,-0.0901,-0.0564,-0.0153,-0.1029,-0.1077,0.1883,0.153,-0.0201,-0.0867,0.0417,0.1469,0.4313,-0.0774,-0.1896,0.3736,0.2668,0.2601,-0.0589,-0.129,-0.0582,-0.0849,-0.038,-0.1113,-0.0249,-0.1084,-0.422
-0.2363,0.0239,-0.2484,0.0431,-0.4113,-0.2806,-0.2455,-0.2524,-0.3218,0.0036,-0.0085,-0.1606,-0.339,-0.1937,0.0846,0.2062,-0.2617,-0.2657,0.1653,0.0358,0.0113,-0.2783,-0.2452,-0.2021,-0.1134,-0.0982,-0.209,-0.1057,-0.0775,-0.3091
-0.2554,-0.1073,-0.3177,-0.1216,-0.6782,-0.4771,-0.4326,-0.3703,-0.4955,-0.1405,-0.1391,-0.2739,-0.5363,-0.3736,0.0459,0.0265,-0.3973,-0.3304,-0.0006,-0.1456,-0.1795,-0.4519,-0.3401,-0.3026,-0.1298,-0.1333,-0.2688,-0.1542,-0.04,-0.2036
-0.2571,-0.2031,-0.3664,-0.2454,-0.8646,-0.6255,-0.556,-0.444,-0.6123,-0.2287,-0.2253,-0.3478,-0.6603,-0.48,0.0323,-0.0928,-0.4717,-0.3809,-0.111,-0.2597,-0.2929,-0.5639,-0.407,-0.3522,-0.1373,-0.1435,-0.2869,-0.1667,-0.004,-0.1206
-0.2429,-0.2546,-0.3907,-0.3154,-0.9535,-0.7104,-0.6037,-0.4661,-0.6631,-0.2539,-0.261,-0.3763,-0.7027,-0.5046,0.0403,-0.1453,-0.4802,-0.4162,-0.1592,-0.2971,-0.3193,-0.6065,-0.4421,-0.3509,-0.1407,-0.1327,-0.2655,-0.145,0.0225,-0.0723
-0.2167,-0.2577,-0.3886,-0.3239,-0.9381,-0.7236,-0.5733,-0.4351,-0.648,-0.2178,-0.2479,-0.3602,-0.6654,-0.4485,0.0625,-0.1332,-0.4255,-0.436,-0.1454,-0.257,-0.2592,-0.5801,-0.4454,-0.3054,-0.1451,-0.1075,-0.2123,-0.0956,0.0343,-0.0658
-0.1839,-0.2135,-0.3602,-0.2688,-0.8228,-0.6646,-0.4718,-0.3553,-0.5755,-0.1303,-0.1947,-0.3066,-0.5594,-0.3221,0.0894,-0.0658,-0.3176,-0.4409,-0.0758,-0.147,-0.1225,-0.4935,-0.4194,-0.2278,-0.1542,-0.0756,-0.1392,-0.0284,0.0293,-0.1019
-0.1504,-0.1273,-0.308,-0.1547,-0.622,-0.5411,-0.3141,-0.2363,-0.4612,-0.0068,-0.1151,-0.2273,-0.4024,-0.1425,0.1121,0.0419,-0.172,-0.4319,0.0379,0.0188,0.0732,-0.3615,-0.3696,-0.1332,-0.1699,-0.0442,-0.0596,0.0453,0.0101,-0.1752
-0.1215,-0.0089,-0.2368,0.0069,-0.3587,-0.3674,-0.1211,-0.092,-0.3261,0.1337,-0.0251,-0.1366,-0.2159,0.068,0.124,0.1717,-0.0077,-0.4107,0.1805,0.2203,0.3045,-0.2031,-0.3023,-0.0368,-0.1912,-0.0191,0.013,0.1138,-0.0176,-0.2748
-0.1009,0.1286,-0.1531,0.1988,-0.0611,-0.1631,0.0837,0.0612,-0.1928,0.2719,0.0598,-0.0497,-0.0221,0.2856,0.1225,0.3052,0.1551,-0.3792,0.3345,0.4349,0.5456,-0.0382,-0.2244,0.048,-0.2149,-0.0036,0.0677,0.1677,-0.0464,-0.3865
-0.0903,0.2708,-0.0645,0.4004,0.2408,0.0507,0.2773,0.2068,-0.0826,0.3913,0.1273,0.0203,0.1593,0.4878,0.1089,0.4263,0.298,-0.3401,0.4823,0.6397,0.7709,0.1149,-0.1421,0.1119,-0.2363,0.001,0.0973,0.2004,-0.0692,-0.4953
-0.0893,0.4031,0.0217,0.5908,0.5194,0.2539,0.4409,0.3303,-0.0129,0.4801,0.17,0.0642,0.3131,0.6561,0.0876,0.5233,0.407,-0.2962,0.6088,0.8144,0.9592,0.2425,-0.0604,0.1504,-0.2504,-0.0043,0.0995,0.2092,-0.0812,-0.5878
-0.0958,0.5133,0.0993,0.7523,0.7537,0.4308,0.5616,0.4219,0.0055,0.533,0.1864,0.0775,0.4301,0.7789,0.0643,0.5902,0.4745,-0.2506,0.7029,0.9445,1.0959,0.337,0.0178,0.1643,-0.2531,-0.017,0.0768,0.1959,-0.0804,-0.6538
-0.1068,0.5933,0.1639,0.8731,0.9309,0.5716,0.6343,0.477,-0.0312,0.5507,0.18,0.0614,0.5075,0.8522,0.0447,0.6269,0.4999,-0.2059,0.759,1.0223,1.1749,0.3976,0.0912,0.1581,-0.2422,-0.0339,0.0356,0.1659,-0.068,-0.6881
-0.1189,0.6396,0.2134,0.9489,1.0476,0.6728,0.6611,0.4964,-0.1197,0.5389,0.1577,0.0218,0.5478,0.879,0.0326,0.6372,0.4895,-0.1636,0.7776,1.0478,1.1989,0.4294,0.1605,0.1398,-0.2168,-0.0509,-0.0148,0.1269,-0.0471,-0.6901
-0.1292,0.6532,0.2475,0.9823,1.1083,0.7364,0.6499,0.4852,-0.2505,0.5063,0.128,-0.0322,0.5575,0.8683,0.0297,0.6277,0.4543,-0.1235,0.7646,1.0275,1.1772,0.4416,0.2275,0.1178,-0.1782,-0.0641,-0.0643,0.0878,-0.0213,-0.6634
-0.1356,0.6391,0.2675,0.9809,1.1227,0.7678,0.6118,0.4509,-0.4096,0.462,0.0983,-0.0905,0.5451,0.8315,0.0348,0.6049,0.4076,-0.084,0.7298,0.9722,1.123,0.445,0.2943,0.1002,-0.1285,-0.0704,-0.1042,0.0563,0.0064,-0.6143
-0.1372,0.6038,0.2753,0.9547,1.1033,0.7744,0.5586,0.4018,-0.5804,0.414,0.0736,-0.1437,0.5192,0.7806,0.0453,0.5742,0.3617,-0.042,0.6847,0.8946,1.0506,0.4491,0.3622,0.0925,-0.0706,-0.0673,-0.1282,0.0378,0.0343,-0.5501
-0.134,0.5548,0.2734,0.9142,1.0618,0.763,0.5004,0.3454,-0.7461,0.3676,0.0557,-0.1851,0.4868,0.7257,0.0575,0.5388,0.3259,0.0059,0.6405,0.8066,0.9723,0.4604,0.4312,0.0978,-0.0075,-0.0541,-0.1337,0.0341,0.0623,-0.4776
-0.1266,0.4985,0.2644,0.868,1.0079,0.7398,0.4445,0.2869,-0.8917,0.3252,0.0433,-0.2111,0.4531,0.6736,0.0682,0.5,0.305,0.0624,0.6062,0.718,0.897,0.4815,0.4997,0.1163,0.0581,-0.0311,-0.1217,0.0443,0.0911,-0.4023
-0.1159,0.4401,0.2513,0.8222,0.9486,0.7091,0.3946,0.2298,-1.0057,0.2875,0.0334,-0.2214,0.421,0.6285,0.0751,0.4587,0.2996,0.1286,0.5874,0.6352,0.8302,0.5112,0.5651,0.146,0.1239,0,-0.0959,0.0648,0.1216,-0.3274
-0.1027,0.3832,0.2373,0.7807,0.8877,0.674,0.3521,0.1754,-1.0815,0.254,0.022,-0.2183,0.392,0.5923,0.0777,0.4155,0.3067,0.2029,0.5862,0.5615,0.7742,0.5458,0.6243,0.1842,0.1879,0.0368,-0.0612,0.0915,0.1538,-0.2543
-0.0876,0.3301,0.2253,0.7447,0.8273,0.6362,0.3164,0.124,-1.1178,0.2243,0.0061,-0.2053,0.3668,0.5655,0.0768,0.372,0.3217,0.2815,0.601,0.4976,0.7292,0.5809,0.6747,0.2276,0.2485,0.0765,-0.0228,0.1203,0.1863,-0.1835
-0.0707,0.2817,0.2177,0.7137,0.7682,0.5969,0.2864,0.0756,-1.1182,0.1984,-0.0157,-0.1863,0.3456,0.548,0.0748,0.3302,0.3396,0.3586,0.6276,0.4428,0.6942,0.6126,0.7144,0.2735,0.3041,0.1163,0.0154,0.1485,0.2166,-0.1151
-0.0519,0.2378,0.2159,0.6862,0.7109,0.5566,0.261,0.0307,-1.0901,0.1775,-0.0427,-0.1644,0.3288,0.5398,0.0743,0.2923,0.3567,0.4282,0.6602,0.3954,0.6679,0.6385,0.7429,0.3195,0.3528,0.1538,0.0511,0.1746,0.2418,-0.0496
-0.0313,0.1977,0.2197,0.6597,0.6559,0.5154,0.2403,-0.0092,-1.0434,0.1631,-0.0719,-0.1412,0.3165,0.5406,0.0781,0.26,0.3708,0.4851,0.6925,0.3542,0.6489,0.658,0.7603,0.3637,0.3927,0.1872,0.0842,0.1988,0.2589,0.011
-0.0085,0.1602,0.2278,0.6321,0.6042,0.4738,0.2251,-0.0415,-0.9883,0.1575,-0.0992,-0.1169,0.3089,0.5498,0.0883,0.2339,0.3811,0.526,0.7187,0.3186,0.6361,0.6721,0.7677,0.4046,0.4221,0.2156,0.116,0.2225,0.2661,0.0641
0.0164,0.1243,0.2377,0.6012,0.5572,0.4323,0.2173,-0.0632,-0.9342,0.1625,-0.1195,-0.0906,0.3058,0.566,0.106,0.2138,0.3883,0.55,0.7346,0.2888,0.6281,0.6823,0.7659,0.4409,0.4396,0.2393,0.1487,0.2474,0.2633,0.1062
0.0426,0.0898,0.2462,0.5656,0.5159,0.3918,0.2186,-0.0711,-0.8881,0.1794,-0.1285,-0.0611,0.3067,0.5868,0.1308,0.1983,0.3933,0.5583,0.7377,0.2655,0.6231,0.6899,0.7557,0.4711,0.4448,0.2589,0.1841,0.2752,0.2516,0.1341
0.0689,0.0573,0.2506,0.525,0.4815,0.354,0.23,-0.0631,-0.8539,0.2084,-0.1234,-0.0281,0.3107,0.6086,0.1612,0.1854,0.3969,0.5536,0.7274,0.2494,0.6191,0.6953,0.7371,0.4939,0.4378,0.2752,0.2226,0.3069,0.2331,0.1456
0.0933,0.0289,0.2488,0.4799,0.4544,0.321,0.2514,-0.0389,-0.8319,0.2481,-0.1034,0.0078,0.3168,0.6271,0.1945,0.173,0.3993,0.5393,0.7046,0.2405,0.6136,0.6973,0.7095,0.5078,0.4195,0.2887,0.2627,0.3424,0.2103,0.14
0.1133,0.0074,0.2399,0.4319,0.4346,0.2956,0.2812,0.0002,-0.8192,0.2958,-0.0701,0.0447,0.3246,0.6381,0.2271,0.1598,0.4002,0.5186,0.6714,0.2379,0.6044,0.6936,0.6718,0.5116,0.3914,0.2989,0.3013,0.3804,0.1852,0.1187
0.1262,-0.0037,0.2251,0.3844,0.4223,0.2813,0.3168,0.0508,-0.81,0.3479,-0.0268,0.0797,0.3341,0.638,0.2551,0.1452,0.3988,0.4943,0.6304,0.2402,0.59,0.6818,0.6229,0.5047,0.3551,0.3048,0.3341,0.4187,0.1591,0.0844
0.1297,-0.0012,0.2073,0.3416,0.418,0.2811,0.3554,0.1081,-0.7978,0.4005,0.0217,0.1101,0.3459,0.6251,0.275,0.1299,0.394,0.4679,0.5843,0.2455,0.5702,0.6597,0.5627,0.4875,0.3131,0.3049,0.3567,0.4547,0.1321,0.0414
0.1221,0.0169,0.1907,0.3088,0.4224,0.2971,0.3946,0.1668,-0.7766,0.4497,0.0697,0.1338,0.3609,0.6,0.2839,0.1158,0.3849,0.4406,0.5359,0.252,0.5465,0.6266,0.4924,0.4616,0.2679,0.2977,0.3662,0.4858,0.1041,-0.0055
0.1024,0.0509,0.1803,0.2912,0.4368,0.3298,0.433,0.2213,-0.743,0.4925,0.1114,0.1498,0.38,0.5652,0.2798,0.1053,0.3708,0.4128,0.4873,0.2591,0.5218,0.5835,0.4151,0.43,0.2225,0.2827,0.3612,0.51,0.0746,-0.0513
0.07,0.0985,0.1809,0.2923,0.4616,0.3777,0.4698,0.2672,-0.6968,0.5268,0.1409,0.1582,0.4034,0.5256,0.2619,0.1015,0.3513,0.3852,0.4407,0.267,0.5002,0.5333,0.3356,0.3963,0.1795,0.2603,0.3428,0.526,0.044,-0.0913
0.0249,0.155,0.1953,0.3134,0.4965,0.4368,0.5048,0.301,-0.6415,0.5514,0.1535,0.1605,0.4304,0.4865,0.2304,0.1068,0.3274,0.3587,0.3981,0.2769,0.4855,0.4804,0.2595,0.3646,0.1413,0.2319,0.3141,0.5333,0.0135,-0.1215
-0.0322,0.2139,0.2242,0.3524,0.5395,0.5013,0.5378,0.3209,-0.5829,0.566,0.1463,0.1586,0.4593,0.4533,0.1866,0.1226,0.3003,0.3347,0.3617,0.29,0.4807,0.4298,0.1931,0.3383,0.1098,0.1998,0.2795,0.532,-0.0147,-0.1393
-0.1,0.268,0.2651,0.4035,0.5869,0.5639,0.5683,0.3272,-0.5271,0.5711,0.1189,0.1549,0.4875,0.4297,0.133,0.1492,0.2721,0.3146,0.3333,0.3069,0.4868,0.386,0.1412,0.3197,0.0857,0.1667,0.2444,0.5229,-0.0383,-0.1439
-0.1757,0.3106,0.3127,0.4585,0.6333,0.617,0.5949,0.3213,-0.4793,0.5674,0.0741,0.1511,0.512,0.417,0.0733,0.1848,0.2452,0.2993,0.3144,0.327,0.5025,0.3523,0.1071,0.3095,0.0693,0.1351,0.2143,0.5071,-0.0549,-0.1362
-0.2552,0.3373,0.3599,0.5079,0.6725,0.6537,0.616,0.3061,-0.4417,0.5563,0.0171,0.1483,0.5297,0.4142,0.0126,0.2263,0.2214,0.2888,0.3056,0.3484,0.5244,0.33,0.0918,0.3073,0.0604,0.1072,0.1937,0.4863,-0.0633,-0.1191
-0.333,0.3463,0.3989,0.5433,0.6986,0.6694,0.6296,0.2849,-0.4129,0.5392,-0.0448,0.1469,0.5381,0.4187,-0.0432,0.2693,0.2022,0.2821,0.3064,0.3685,0.5478,0.3188,0.094,0.3118,0.059,0.0851,0.1863,0.4629,-0.0638,-0.0969
-0.4028,0.3393,0.4231,0.5585,0.7074,0.6627,0.6341,0.2615,-0.389,0.5177,-0.1034,0.1469,0.5361,0.4267,-0.0874,0.3089,0.1879,0.2771,0.3154,0.3844,0.5677,0.3169,0.1109,0.3219,0.065,0.0705,0.194,0.4398,-0.0578,-0.0743
-0.4581,0.3209,0.4282,0.5512,0.697,0.6357,0.629,0.2393,-0.3642,0.4936,-0.1508,0.1482,0.5244,0.4342,-0.1141,0.3406,0.1783,0.2717,0.3303,0.394,0.58,0.3218,0.1384,0.3369,0.0787,0.0651,0.2171,0.4205,-0.0479,-0.0552
-0.4935,0.2972,0.4136,0.5226,0.6683,0.5939,0.6152,0.221,-0.3325,0.4686,-0.181,0.1513,0.5056,0.4382,-0.1187,0.3603,0.1728,0.2637,0.3477,0.3957,0.5818,0.3301,0.1718,0.3563,0.1001,0.0704,0.2542,0.4087,-0.0365,-0.0418
-0.5058,0.2744,0.3818,0.4775,0.6248,0.5447,0.5949,0.2089,-0.2896,0.4446,-0.1903,0.1567,0.4832,0.4362,-0.0997,0.3655,0.1703,0.2517,0.3642,0.389,0.5716,0.3387,0.2064,0.3795,0.1284,0.0871,0.302,0.4074,-0.0256,-0.0341
-0.4946,0.2579,0.3381,0.4223,0.5716,0.4964,0.5713,0.204,-0.2331,0.4233,-0.1779,0.165,0.461,0.4271,-0.0592,0.3551,0.17,0.2348,0.3764,0.3743,0.5491,0.3444,0.2373,0.4051,0.1618,0.1146,0.3561,0.4186,-0.0166,-0.0301
-0.4627,0.2503,0.2891,0.3643,0.5147,0.4561,0.5476,0.2068,-0.1635,0.4063,-0.1461,0.1771,0.4419,0.4105,-0.0027,0.3295,0.1715,0.2128,0.3812,0.3524,0.5153,0.3446,0.2597,0.4306,0.1974,0.1503,0.411,0.4422,-0.0101,-0.0268
-0.4153,0.252,0.2411,0.3107,0.46,0.4288,0.5271,0.217,-0.0834,0.3947,-0.0992,0.1933,0.4275,0.3877,0.0617,0.2906,0.1751,0.186,0.3766,0.3247,0.4722,0.3378,0.2697,0.4529,0.2314,0.19,0.4613,0.476,-0.0065,-0.021
-0.3595,0.2611,0.199,0.2675,0.4128,0.4173,0.512,0.2339,0.0025,0.3893,-0.0432,0.2139,0.4178,0.3606,0.1247,0.2419,0.1813,0.155,0.3615,0.2932,0.4224,0.3235,0.2646,0.4683,0.2599,0.2284,0.5022,0.5161,-0.0061,-0.0111
-0.3022,0.2742,0.1655,0.2393,0.377,0.4215,0.5036,0.2566,0.0887,0.3904,0.0162,0.2387,0.4119,0.3325,0.178,0.188,0.1909,0.1208,0.3363,0.2608,0.3696,0.303,0.2433,0.4744,0.2795,0.2597,0.5307,0.5575,-0.0091,0.0032
-0.2495,0.2879,0.1415,0.2287,0.3554,0.4398,0.5021,0.2841,0.1689,0.3975,0.0738,0.2673,0.4084,0.3072,0.2157,0.1347,0.2048,0.0847,0.3025,0.231,0.3182,0.2785,0.2068,0.4701,0.2882,0.2794,0.5453,0.5951,-0.0156,0.0202
-0.2049,0.2999,0.1263,0.2363,0.3493,0.4695,0.507,0.3154,0.2376,0.4099,0.1261,0.2989,0.4065,0.289,0.2356,0.0883,0.2229,0.0485,0.2625,0.2078,0.273,0.2537,0.1584,0.4563,0.2858,0.285,0.5463,0.6244,-0.0254,0.037
-0.1691,0.3093,0.1185,0.2603,0.359,0.5078,0.5171,0.3498,0.29,0.4263,0.1714,0.3326,0.4061,0.2817,0.2387,0.0549,0.2446,0.014,0.2195,0.1951,0.2386,0.2321,0.1027,0.4354,0.2739,0.2766,0.5356,0.6423,-0.0376,0.0505
-0.1404,0.317,0.1166,0.2971,0.3834,0.5518,0.5311,0.386,0.323,0.4453,0.2094,0.3672,0.4079,0.2878,0.2286,0.0394,0.2685,-0.017,0.1772,0.1961,0.2189,0.2172,0.0458,0.4109,0.2556,0.2567,0.516,0.6475,-0.0506,0.0582
-0.1156,0.3246,0.1194,0.3408,0.42,0.5981,0.5472,0.4227,0.3355,0.465,0.2402,0.4011,0.412,0.308,0.2101,0.0438,0.2922,-0.0437,0.1388,0.212,0.2154,0.2111,-0.0067,0.3865,0.2343,0.2298,0.4903,0.6404,-0.0625,0.0592
-0.0919,0.334,0.1262,0.3841,0.4646,0.6431,0.5632,0.4576,0.3282,0.4835,0.2641,0.4326,0.4177,0.3397,0.1872,0.0666,0.3129,-0.0659,0.1072,0.2409,0.227,0.2139,-0.0497,0.3647,0.2136,0.2011,0.4611,0.6231,-0.0715,0.0544
-0.068,0.3455,0.136,0.4184,0.512,0.6821,0.5765,0.4878,0.304,0.4984,0.2805,0.4592,0.4221,0.3772,0.1625,0.1019,0.3273,-0.0846,0.084,0.2777,0.2493,0.2237,-0.0801,0.3471,0.1958,0.1749,0.4298,0.5983,-0.0767,0.0459
-0.0448,0.3585,0.1478,0.4358,0.5557,0.7103,0.5842,0.5101,0.2674,0.5073,0.2887,0.4784,0.4211,0.4127,0.1365,0.1405,0.3328,-0.1017,0.0696,0.3146,0.2754,0.2368,-0.0971,0.3334,0.1821,0.1544,0.3973,0.5693,-0.0785,0.0365
-0.0249,0.3707,0.1604,0.4302,0.5898,0.7232,0.5836,0.5209,0.2239,0.5077,0.2881,0.4875,0.41,0.4371,0.1083,0.172,0.3278,-0.1191,0.0635,0.3424,0.2973,0.248,-0.1021,0.3225,0.1725,0.1404,0.3638,0.5389,-0.0786,0.0285
-0.0115,0.3795,0.1724,0.3991,0.6091,0.7176,0.5727,0.5178,0.1796,0.4981,0.2791,0.485,0.3854,0.4432,0.0763,0.1868,0.3125,-0.1385,0.0649,0.3532,0.3081,0.2526,-0.0979,0.3132,0.1662,0.1322,0.3297,0.5097,-0.0795,0.0234
-0.0075,0.3828,0.1823,0.3443,0.6111,0.6931,0.5511,0.4995,0.1402,0.4786,0.2636,0.4704,0.3468,0.4275,0.0401,0.1789,0.2892,-0.1604,0.0726,0.3424,0.304,0.2472,-0.0884,0.3044,0.1623,0.1281,0.2961,0.4836,-0.0837,0.0211
-0.0141,0.3797,0.1894,0.272,0.5958,0.652,0.5197,0.4665,0.1101,0.4507,0.2449,0.4451,0.2967,0.3911,0.001,0.1476,0.2618,-0.1841,0.0859,0.3101,0.2852,0.2304,-0.0772,0.2959,0.1602,0.126,0.2646,0.4622,-0.0929,0.0206
-0.0311,0.3709,0.1934,0.1916,0.5655,0.599,0.4809,0.421,0.0917,0.4179,0.2268,0.4123,0.2406,0.3402,-0.0373,0.0971,0.2349,-0.2075,0.1043,0.261,0.2565,0.2033,-0.0671,0.2883,0.1598,0.1243,0.2377,0.4462,-0.1074,0.0202
-0.0565,0.3579,0.1949,0.1139,0.5244,0.54,0.4376,0.3662,0.0851,0.384,0.213,0.3761,0.1851,0.2844,-0.0695,0.0356,0.213,-0.2278,0.1274,0.2036,0.2254,0.1694,-0.0597,0.2824,0.1617,0.1219,0.2173,0.4357,-0.1257,0.0182
-0.0875,0.3431,0.195,0.0488,0.4769,0.4811,0.3928,0.3062,0.0883,0.3529,0.2055,0.3411,0.1365,0.234,-0.0897,-0.0264,0.1988,-0.2418,0.1543,0.1475,0.2002,0.1337,-0.055,0.2791,0.1665,0.1189,0.205,0.4304,-0.1455,0.0139
-0.1207,0.3285,0.1952,0.0031,0.4271,0.4269,0.3488,0.245,0.0976,0.3276,0.2044,0.3116,0.0994,0.1979,-0.0927,-0.0793,0.1932,-0.247,0.1835,0.1013,0.1874,0.1015,-0.0517,0.2789,0.1754,0.1161,0.2012,0.4293,-0.1633,0.0071
-0.1527,0.3154,0.1968,-0.0202,0.3781,0.3802,0.3073,0.1868,0.1079,0.3092,0.2081,0.2909,0.076,0.1813,-0.0757,-0.1159,0.1949,-0.242,0.2122,0.0707,0.1901,0.0779,-0.0473,0.2817,0.189,0.1149,0.2049,0.4315,-0.1761,-0.0009
-0.18,0.3045,0.2008,-0.0222,0.3318,0.3418,0.27,0.1352,0.1147,0.2976,0.2136,0.2806,0.0662,0.185,-0.0387,-0.1328,0.2012,-0.2273,0.2376,0.0573,0.2074,0.067,-0.039,0.2873,0.2074,0.1169,0.2148,0.4362,-0.1818,-0.0085
-0.1998,0.2955,0.2077,-0.0076,0.2896,0.3117,0.2386,0.0941,0.1142,0.2918,0.218,0.2811,0.0683,0.2061,0.015,-0.1306,0.2088,-0.2051,0.2564,0.0588,0.2354,0.071,-0.0243,0.2956,0.2299,0.1236,0.2287,0.4424,-0.1794,-0.0135
-0.2095,0.2881,0.2179,0.0178,0.2532,0.2895,0.2152,0.0669,0.1048,0.2903,0.219,0.2909,0.0801,0.2389,0.0799,-0.1129,0.2149,-0.1786,0.2666,0.0704,0.2683,0.0902,-0.002,0.3067,0.2549,0.1357,0.2452,0.4493,-0.1699,-0.0145
-0.2073,0.2819,0.2314,0.0481,0.2246,0.2757,0.2022,0.0561,0.0873,0.2921,0.2154,0.3077,0.0996,0.2772,0.1487,-0.085,0.218,-0.1511,0.268,0.0866,0.301,0.123,0.0274,0.3208,0.28,0.1529,0.2628,0.4562,-0.1555,-0.0112
-0.1931,0.277,0.2484,0.0791,0.2066,0.2712,0.2014,0.0628,0.0646,0.2963,0.2074,0.328,0.1251,0.3151,0.2135,-0.0526,0.2178,-0.1258,0.2618,0.1024,0.3299,0.1659,0.0617,0.3383,0.3027,0.1734,0.2808,0.462,-0.1398,-0.0045
-0.1679,0.2737,0.2686,0.1081,0.2014,0.2772,0.213,0.0852,0.0409,0.3022,0.1959,0.3479,0.1548,0.348,0.2668,-0.0207,0.2149,-0.1051,0.251,0.1146,0.3534,0.2139,0.0972,0.3589,0.3203,0.1943,0.2987,0.4655,-0.1267,0.0031
-0.1345,0.272,0.2912,0.1344,0.2097,0.2936,0.2353,0.1191,0.0205,0.3085,0.1823,0.3636,0.1865,0.3728,0.3023,0.0067,0.2102,-0.0908,0.2389,0.1217,0.3714,0.2614,0.1296,0.381,0.3305,0.2115,0.3154,0.4652,-0.12,0.0084
-0.0967,0.2717,0.3146,0.1577,0.2299,0.3189,0.264,0.1585,0.0072,0.3137,0.1679,0.3721,0.2172,0.3877,0.3161,0.0267,0.204,-0.0837,0.2287,0.1233,0.3841,0.3023,0.1543,0.4022,0.3319,0.221,0.3294,0.4596,-0.1224,0.0084
-0.0583,0.2717,0.3362,0.1778,0.2577,0.3492,0.2936,0.1964,0.0034,0.3157,0.154,0.372,0.2438,0.3915,0.3069,0.0377,0.1966,-0.0843,0.2226,0.1201,0.3912,0.3317,0.168,0.4191,0.3239,0.22,0.3387,0.4479,-0.1345,0.0016
-0.0226,0.2705,0.3531,0.1939,0.287,0.379,0.3178,0.2265,0.0104,0.3126,0.1416,0.3643,0.2628,0.384,0.277,0.0392,0.1875,-0.0917,0.2217,0.1124,0.3915,0.3466,0.1691,0.4285,0.3073,0.2076,0.3411,0.43,-0.1543,-0.0116
0.0085,0.2665,0.362,0.2046,0.3112,0.4023,0.3314,0.245,0.0271,0.3031,0.1313,0.3516,0.2718,0.3657,0.2315,0.0316,0.1764,-0.1046,0.2259,0.1006,0.3834,0.3463,0.1583,0.4281,0.2844,0.1857,0.335,0.4071,-0.1775,-0.0281
0.0344,0.2589,0.3603,0.2087,0.3246,0.4145,0.3309,0.2503,0.0505,0.2868,0.1232,0.338,0.2697,0.3382,0.1782,0.0159,0.163,-0.1205,0.234,0.085,0.3652,0.3326,0.1388,0.4176,0.2586,0.1585,0.3198,0.3814,-0.1981,-0.0435
0.0553,0.2478,0.3466,0.2056,0.3241,0.4133,0.3156,0.2433,0.0747,0.2642,0.1166,0.3276,0.2572,0.3038,0.1258,-0.0062,0.1471,-0.1368,0.2445,0.0659,0.3364,0.3099,0.1155,0.3982,0.2343,0.1315,0.2964,0.3555,-0.2095,-0.0526
0.0722,0.2344,0.3211,0.1964,0.3094,0.3993,0.2869,0.2268,0.0919,0.2366,0.1102,0.3233,0.2367,0.2657,0.0831,-0.0328,0.1291,-0.1508,0.2557,0.044,0.2983,0.2834,0.0945,0.3729,0.2159,0.1103,0.2668,0.3321,-0.2065,-0.0518
0.0858,0.2213,0.2855,0.1841,0.2832,0.3765,0.2488,0.2041,0.0933,0.2056,0.1025,0.3256,0.2118,0.2276,0.0567,-0.0615,0.1094,-0.1604,0.2658,0.0206,0.254,0.2589,0.081,0.3458,0.2073,0.0991,0.2341,0.3132,-0.1861,-0.0394
0.0968,0.2114,0.243,0.1728,0.2507,0.3501,0.2063,0.1787,0.0711,0.1731,0.0917,0.3328,0.1867,0.1928,0.05,-0.0894,0.0888,-0.1645,0.2738,-0.0022,0.2082,0.2411,0.0789,0.3209,0.2109,0.0999,0.2015,0.2999,-0.1487,-0.017
0.1054,0.2071,0.1979,0.1671,0.2178,0.3257,0.1651,0.1534,0.0207,0.1409,0.0769,0.3412,0.165,0.1644,0.0628,-0.1135,0.0683,-0.1632,0.2788,-0.0221,0.166,0.233,0.0896,0.3015,0.227,0.112,0.1719,0.2924,-0.0978,0.0111
0.111,0.21,0.1545,0.1707,0.1898,0.3069,0.1303,0.13,-0.0573,0.1102,0.0577,0.3459,0.1493,0.1437,0.0906,-0.131,0.0492,-0.1576,0.2807,-0.0373,0.1319,0.235,0.1118,0.2891,0.2537,0.1326,0.1469,0.29,-0.0394,0.0392
0.1131,0.2193,0.1162,0.1851,0.1703,0.295,0.1053,0.1098,-0.1571,0.0818,0.0343,0.3422,0.1402,0.1309,0.1264,-0.1399,0.0329,-0.1493,0.2795,-0.0465,0.1082,0.2451,0.1417,0.2829,0.2867,0.1568,0.1269,0.2911,0.0194,0.0612
0.1106,0.2329,0.0857,0.2091,0.1603,0.2891,0.0919,0.0934,-0.2681,0.0556,0.0081,0.3266,0.1368,0.1242,0.1616,-0.1393,0.0204,-0.1409,0.2756,-0.0495,0.0949,0.2593,0.1739,0.2803,0.3202,0.1791,0.1102,0.2939,0.0713,0.072
0.103,0.247,0.0644,0.239,0.1583,0.2863,0.0895,0.0814,-0.377,0.0312,-0.019,0.298,0.1367,0.121,0.1883,-0.1299,0.0125,-0.1352,0.2693,-0.0472,0.09,0.2722,0.2026,0.2767,0.3478,0.1941,0.094,0.2961,0.1111,0.069
0.0898,0.2576,0.0525,0.27,0.1611,0.2836,0.0959,0.0739,-0.4704,0.0082,-0.0443,0.258,0.1375,0.1184,0.2007,-0.1137,0.0092,-0.1346,0.261,-0.041,0.09,0.2783,0.2226,0.2671,0.3639,0.1978,0.0749,0.2956,0.1356,0.052
0.0707,0.2614,0.0498,0.2966,0.1647,0.2782,0.1078,0.0708,-0.5379,-0.0134,-0.065,0.2105,0.1366,0.1136,0.1969,-0.0943,0.0103,-0.1413,0.251,-0.0327,0.091,0.2735,0.2303,0.2475,0.3649,0.1884,0.05,0.2911,0.1443,0.0232
0.0456,0.2562,0.0555,0.3144,0.1653,0.2685,0.1217,0.0715,-0.5739,-0.0334,-0.0782,0.161,0.1327,0.1053,0.1788,-0.0756,0.0146,-0.1567,0.2393,-0.0239,0.0899,0.2553,0.2248,0.2154,0.3495,0.1664,0.0181,0.282,0.139,-0.0133
0.0146,0.2416,0.0687,0.3206,0.1601,0.2541,0.1347,0.0751,-0.5789,-0.0509,-0.0817,0.1148,0.1253,0.0929,0.1514,-0.0619,0.0208,-0.1807,0.2252,-0.0161,0.0842,0.2236,0.2071,0.1713,0.3193,0.135,-0.0199,0.269,0.1229,-0.0526
-0.022,0.2184,0.0881,0.3146,0.1477,0.2349,0.1447,0.0804,-0.559,-0.0647,-0.0742,0.0764,0.1152,0.0769,0.1215,-0.057,0.0266,-0.2123,0.2076,-0.0105,0.0729,0.1806,0.18,0.1181,0.2776,0.0986,-0.0607,0.2534,0.0998,-0.0897
-0.0633,0.1882,0.1119,0.2977,0.1283,0.2115,0.1507,0.0864,-0.5239,-0.0737,-0.0554,0.0484,0.1038,0.0582,0.0959,-0.0631,0.0299,-0.249,0.185,-0.0081,0.0556,0.1298,0.1473,0.0605,0.2289,0.0625,-0.0997,0.2366,0.0734,-0.1202
-0.1076,0.1536,0.138,0.2727,0.1034,0.1842,0.1526,0.0925,-0.4848,-0.0774,-0.0265,0.0311,0.0926,0.0379,0.0797,-0.0811,0.0282,-0.2876,0.1559,-0.0094,0.0331,0.0757,0.113,0.0044,0.1774,0.0316,-0.1323,0.2198,0.0471,-0.1411
-0.1521,0.1168,0.1638,0.2438,0.0753,0.1537,0.151,0.0986,-0.4523,-0.0758,0.0101,0.023,0.0828,0.017,0.0753,-0.11,0.0199,-0.3247,0.1195,-0.0145,0.0068,0.023,0.0803,-0.0451,0.1266,0.009,-0.1546,0.2031,0.0233,-0.1506
-0.1941,0.0807,0.1868,0.2155,0.047,0.121,0.1463,0.1044,-0.434,-0.0702,0.0504,0.0207,0.0747,-0.0036,0.0821,-0.1474,0.0041,-0.3573,0.0766,-0.0229,-0.0208,-0.024,0.0514,-0.0837,0.0789,-0.0035,-0.1649,0.186,0.0038,-0.1487
-0.2309,0.0477,0.2046,0.1919,0.0213,0.0875,0.1385,0.1094,-0.4341,-0.0623,0.0898,0.0204,0.0673,-0.0229,0.0973,-0.1897,-0.0189,-0.3833,0.0294,-0.0332,-0.047,-0.0618,0.0278,-0.1094,0.0354,-0.0066,-0.164,0.1673,-0.0108,-0.1369
-0.2612,0.02,0.2158,0.1766,0.0009,0.0555,0.1274,0.1126,-0.4518,-0.0548,0.123,0.0179,0.059,-0.0396,0.1172,-0.2324,-0.0471,-0.4015,-0.0178,-0.0431,-0.0689,-0.0877,0.01,-0.122,-0.0034,-0.0021,-0.1548,0.1457,-0.0208,-0.118
-0.2852,-0.0005,0.22,0.1719,-0.0121,0.0281,0.1124,0.1125,-0.4827,-0.0499,0.1454,0.0104,0.0481,-0.0525,0.1379,-0.2707,-0.0772,-0.4121,-0.0598,-0.0501,-0.0834,-0.1009,-0.002,-0.1231,-0.0376,0.007,-0.1418,0.1203,-0.0275,-0.0957
-0.305,-0.0131,0.2184,0.1786,-0.0165,0.0089,0.0932,0.1077,-0.52,-0.0496,0.1535,-0.0034,0.033,-0.0605,0.157,-0.2999,-0.1055,-0.4161,-0.091,-0.0513,-0.0886,-0.1014,-0.0084,-0.1151,-0.0668,0.0174,-0.1297,0.0911,-0.0323,-0.0741
-0.3234,-0.0177,0.2133,0.1961,-0.0116,0.0013,0.0704,0.0978,-0.556,-0.0546,0.1461,-0.0226,0.0134,-0.0625,0.1734,-0.3155,-0.1278,-0.4151,-0.1068,-0.0441,-0.083,-0.0907,-0.0094,-0.1011,-0.0904,0.0268,-0.122,0.059,-0.0367,-0.0569
-0.3432,-0.0148,0.2082,0.2228,0.0028,0.0078,0.0453,0.0833,-0.5852,-0.0641,0.1243,-0.045,-0.0096,-0.0579,0.188,-0.3142,-0.1407,-0.4107,-0.1041,-0.0267,-0.0661,-0.0711,-0.0046,-0.0835,-0.1071,0.0341,-0.12,0.0261,-0.0415,-0.0472
-0.3657,-0.0058,0.2065,0.256,0.0264,0.029,0.0209,0.0661,-0.6049,-0.0762,0.0917,-0.0669,-0.0332,-0.0463,0.2025,-0.2941,-0.1417,-0.4038,-0.0824,0.0017,-0.0382,-0.0446,0.0064,-0.0639,-0.1153,0.0397,-0.1223,-0.0049,-0.0467,-0.0474
-0.3905,0.0077,0.2115,0.2927,0.059,0.0639,0.0006,0.0487,-0.6157,-0.088,0.0531,-0.0851,-0.0536,-0.0277,0.2186,-0.2551,-0.1295,-0.3948,-0.0432,0.041,-0.0008,-0.013,0.0242,-0.043,-0.1133,0.0451,-0.1251,-0.0312,-0.0519,-0.0585
-0.415,0.0237,0.2247,0.3298,0.1001,0.1092,-0.0119,0.0337,-0.6204,-0.0966,0.0142,-0.0966,-0.0667,-0.0026,0.237,-0.1992,-0.1042,-0.3827,0.01,0.0899,0.0439,0.0227,0.0489,-0.0205,-0.1006,0.0528,-0.1234,-0.0502,-0.0557,-0.08
-0.4357,0.0403,0.2461,0.364,0.1486,0.1605,-0.0136,0.0227,-0.6228,-0.0996,-0.0199,-0.1003,-0.0692,0.0282,0.257,-0.1303,-0.0672,-0.366,0.0724,0.1458,0.0929,0.0623,0.0802,0.0037,-0.0784,0.0646,-0.1127,-0.0609,-0.0572,-0.1101
-0.4487,0.0553,0.2733,0.3925,0.2026,0.2127,-0.0028,0.0166,-0.6253,-0.0956,-0.0456,-0.0966,-0.0591,0.0629,0.2756,-0.0541,-0.0209,-0.343,0.1388,0.205,0.1423,0.1054,0.1166,0.0296,-0.0494,0.0814,-0.0908,-0.0634,-0.0555,-0.1454
-0.4511,0.0668,0.3024,0.4127,0.2592,0.2608,0.0201,0.0144,-0.6286,-0.0852,-0.0617,-0.0874,-0.0369,0.0992,0.2888,0.0226,0.0312,-0.3121,0.2046,0.2627,0.1879,0.1515,0.1556,0.0564,-0.0181,0.1024,-0.0581,-0.0597,-0.0505,-0.1818
-0.4416,0.0731,0.3288,0.4228,0.3144,0.3007,0.0529,0.0144,-0.6316,-0.0703,-0.0689,-0.0754,-0.005,0.1343,0.2919,0.0926,0.0849,-0.2727,0.2659,0.3141,0.2261,0.1988,0.194,0.0823,0.0104,0.1251,-0.0183,-0.0529,-0.0423,-0.2149
-0.4209,0.0731,0.3478,0.422,0.3639,0.33,0.0919,0.0143,-0.6316,-0.0541,-0.0697,-0.0636,0.0327,0.165,0.2812,0.1494,0.1357,-0.2253,0.3201,0.3547,0.2541,0.2449,0.2281,0.1049,0.0312,0.1463,0.0228,-0.0466,-0.031,-0.2409
-0.3908,0.0666,0.3563,0.4113,0.4035,0.3481,0.1327,0.012,-0.6259,-0.0398,-0.0668,-0.0536,0.0721,0.1893,0.2553,0.1879,0.1798,-0.1713,0.3662,0.3816,0.2709,0.2863,0.2546,0.1216,0.0411,0.1626,0.059,-0.0437,-0.0167,-0.2573
-0.354,0.0546,0.3533,0.3934,0.4306,0.3564,0.1712,0.0061,-0.6127,-0.0303,-0.0625,-0.046,0.1094,0.206,0.2156,0.2053,0.2145,-0.1134,0.4042,0.3943,0.278,0.3199,0.2708,0.1306,0.0392,0.1715,0.085,-0.0457,0.0011,-0.2632
-0.3132,0.0392,0.3395,0.3725,0.4442,0.358,0.2041,-0.0038,-0.5928,-0.0268,-0.0582,-0.0396,0.1421,0.2159,0.1662,0.2016,0.2384,-0.055,0.4352,0.3949,0.2786,0.3432,0.2753,0.1307,0.0265,0.1722,0.0976,-0.0528,0.0232,-0.2595
-0.2709,0.0234,0.3178,0.3533,0.4456,0.3563,0.2296,-0.0175,-0.5689,-0.0292,-0.0537,-0.0321,0.1686,0.2209,0.113,0.1795,0.252,-0.0005,0.4604,0.3878,0.2776,0.3546,0.2679,0.122,0.0059,0.1654,0.0961,-0.0635,0.0498,-0.2491
-0.2291,0.0106,0.2917,0.3403,0.437,0.3545,0.247,-0.0341,-0.5458,-0.0363,-0.0486,-0.0216,0.1883,0.2239,0.0621,0.1441,0.2567,0.0456,0.4808,0.3786,0.2796,0.3541,0.2492,0.1057,-0.0192,0.1531,0.0823,-0.076,0.0805,-0.236
-0.1899,0.0039,0.2647,0.3365,0.4215,0.3545,0.2562,-0.0531,-0.5288,-0.0463,-0.0429,-0.0066,0.2003,0.2274,0.0187,0.1018,0.2545,0.079,0.4966,0.3728,0.2884,0.3426,0.2207,0.0838,-0.0451,0.138,0.0593,-0.0886,0.1134,-0.2248
-0.1551,0.0054,0.24,0.3431,0.4019,0.3565,0.2581,-0.0737,-0.5222,-0.0572,-0.0369,0.0127,0.2038,0.233,-0.0143,0.0598,0.248,0.0965,0.5077,0.3745,0.3053,0.3224,0.1849,0.0591,-0.0691,0.1228,0.0312,-0.1001,0.1453,-0.2193
-0.1269,0.0162,0.2198,0.3597,0.381,0.3599,0.2539,-0.0953,-0.5276,-0.067,-0.0319,0.035,0.1985,0.2413,-0.0356,0.0246,0.2396,0.0968,0.5138,0.386,0.3291,0.2971,0.1448,0.0347,-0.0885,0.1104,0.0025,-0.1099,0.1727,-0.2218
-0.1073,0.0361,0.2057,0.3847,0.3613,0.364,0.2455,-0.1166,-0.5434,-0.0734,-0.0295,0.0583,0.1845,0.2519,-0.046,0.0019,0.232,0.0808,0.5149,0.4073,0.3572,0.2712,0.1044,0.014,-0.1013,0.1031,-0.0221,-0.1172,0.1921,-0.2319
-0.098,0.0636,0.1991,0.4163,0.3458,0.3686,0.2356,-0.1358,-0.5646,-0.0739,-0.0301,0.0806,0.1637,0.2645,-0.0467,-0.004,0.228,0.052,0.5123,0.437,0.3863,0.2497,0.068,0.0002,-0.1057,0.1028,-0.0383,-0.121,0.2014,-0.2469
-0.0998,0.0968,0.2009,0.4527,0.3381,0.375,0.2278,-0.1501,-0.5845,-0.0654,-0.0329,0.101,0.1399,0.2793,-0.0399,0.0094,0.2301,0.0154,0.5082,0.4729,0.414,0.2376,0.04,-0.0039,-0.1006,0.1104,-0.0419,-0.1195,0.1999,-0.2626
-0.1127,0.1333,0.2122,0.4929,0.3425,0.3856,0.226,-0.1565,-0.596,-0.0451,-0.0351,0.1193,0.1188,0.2978,-0.0274,0.043,0.2403,-0.0233,0.5059,0.5134,0.4402,0.2385,0.0237,0.0034,-0.0861,0.1258,-0.0302,-0.1108,0.1891,-0.2741
-0.1351,0.1712,0.2337,0.5364,0.3632,0.4035,0.2337,-0.1524,-0.5932,-0.0107,-0.0327,0.1365,0.1073,0.3221,-0.0112,0.0962,0.2596,-0.0583,0.5095,0.5576,0.467,0.2545,0.021,0.0226,-0.0633,0.1477,-0.0017,-0.0927,0.1717,-0.2775
-0.1643,0.2091,0.2655,0.5832,0.4035,0.4315,0.2537,-0.1361,-0.5725,0.0384,-0.0212,0.1542,0.1121,0.3552,0.0069,0.1671,0.2876,-0.085,0.5229,0.6057,0.4983,0.2853,0.0319,0.053,-0.0348,0.1742,0.0431,-0.0639,0.1514,-0.271
-0.1963,0.2466,0.3068,0.6335,0.4649,0.4707,0.2871,-0.1073,-0.5334,0.1014,0.0032,0.1738,0.1382,0.3992,0.0257,0.2524,0.3227,-0.1001,0.5492,0.6586,0.5384,0.3285,0.0551,0.0927,-0.0039,0.2031,0.1016,-0.0238,0.1321,-0.2548
-0.2266,0.2843,0.3557,0.6875,0.5461,0.5206,0.3332,-0.0674,-0.4784,0.1751,0.0425,0.1963,0.1879,0.455,0.0444,0.3476,0.3616,-0.1018,0.5898,0.7169,0.5902,0.3804,0.088,0.1397,0.0262,0.2328,0.1698,0.0269,0.1167,-0.2316
-0.2505,0.3228,0.4092,0.7449,0.6424,0.578,0.3891,-0.0194,-0.4125,0.2551,0.0958,0.2218,0.2596,0.521,0.063,0.4469,0.4006,-0.09,0.6443,0.7799,0.6544,0.4364,0.1273,0.1918,0.0529,0.2628,0.2428,0.0861,0.107,-0.2049
-0.2645,0.3625,0.463,0.8044,0.7467,0.6383,0.4502,0.0327,-0.3428,0.3355,0.1594,0.2496,0.348,0.5933,0.0825,0.5429,0.4351,-0.0662,0.7102,0.845,0.728,0.4921,0.1701,0.2471,0.075,0.2931,0.3156,0.1506,0.1036,-0.1786
-0.2663,0.4029,0.5127,0.8637,0.8499,0.6956,0.511,0.0846,-0.2767,0.4105,0.227,0.2784,0.4447,0.6659,0.1045,0.6276,0.4612,-0.0332,0.783,0.9074,0.8051,0.5435,0.2136,0.304,0.0926,0.3245,0.3837,0.2164,0.1057,-0.1563
-0.2559,0.4417,0.5534,0.919,0.9426,0.7441,0.5655,0.1322,-0.2211,0.4747,0.2914,0.3063,0.5397,0.7314,0.131,0.6926,0.4763,0.0056,0.8569,0.9611,0.8781,0.5877,0.2559,0.3611,0.1066,0.3577,0.4435,0.279,0.1123,-0.1401
-0.2357,0.4756,0.5806,0.9655,1.0162,0.7796,0.6088,0.1721,-0.1804,0.5236,0.345,0.3317,0.6224,0.7826,0.1637,0.7306,0.4793,0.0461,0.9259,0.9997,0.939,0.6227,0.2956,0.4163,0.1187,0.3923,0.4929,0.3344,0.1218,-0.1311
-0.2096,0.5003,0.591,0.9975,1.0642,0.7993,0.6372,0.2021,-0.1564,0.5545,0.3822,0.3531,0.6839,0.8139,0.2036,0.7367,0.4711,0.0843,0.984,1.0182,0.9814,0.6474,0.3323,0.4675,0.1307,0.427,0.5308,0.3791,0.1332,-0.1294
-0.1827,0.5115,0.583,1.0098,1.0825,0.8024,0.6487,0.2211,-0.1476,0.5665,0.3994,0.3696,0.7179,0.8219,0.2502,0.7096,0.454,0.1165,1.0268,1.0142,1.0019,0.6618,0.3659,0.5116,0.144,0.4591,0.557,0.4111,0.1455,-0.1348
-0.1604,0.5062,0.5571,0.9987,1.0704,0.7895,0.6434,0.2285,-0.1504,0.5599,0.396,0.3805,0.7217,0.8061,0.3014,0.6522,0.4315,0.1403,1.0518,0.9884,1.0003,0.6666,0.3964,0.5459,0.1591,0.4855,0.572,0.4297,0.158,-0.1468
-0.1469,0.4831,0.5166,0.9631,1.0296,0.7621,0.6227,0.2248,-0.16,0.5369,0.3741,0.3858,0.6963,0.7695,0.3532,0.5714,0.4073,0.1543,1.059,0.9454,0.9801,0.6632,0.4237,0.5677,0.1761,0.5031,0.5768,0.4361,0.1704,-0.1651
-0.1452,0.4436,0.467,0.906,0.9647,0.7223,0.5897,0.2112,-0.1721,0.5007,0.3384,0.3863,0.6462,0.7173,0.4004,0.4774,0.3846,0.1584,1.0506,0.8925,0.947,0.6534,0.4467,0.5753,0.1939,0.5098,0.5723,0.4328,0.1821,-0.1898
-0.1567,0.3912,0.415,0.8336,0.8821,0.6722,0.5479,0.1895,-0.1837,0.4552,0.2947,0.3834,0.5783,0.6565,0.4375,0.3813,0.3662,0.1537,1.0307,0.8382,0.9085,0.6389,0.464,0.5683,0.2109,0.5046,0.5597,0.423,0.1923,-0.2212
-0.1816,0.3309,0.3674,0.7545,0.7896,0.6138,0.5015,0.1623,-0.1939,0.4048,0.2493,0.3791,0.5007,0.5944,0.459,0.2939,0.3538,0.1421,1.0041,0.791,0.8716,0.6213,0.4732,0.5473,0.2247,0.4875,0.5403,0.4099,0.2,-0.2594
-0.2186,0.2685,0.3297,0.6782,0.6953,0.5494,0.4541,0.1324,-0.204,0.3538,0.2079,0.3757,0.4216,0.5376,0.4614,0.2233,0.3482,0.1262,0.9753,0.7575,0.842,0.6013,0.472,0.5145,0.233,0.4597,0.5156,0.3961,0.2043,-0.3043
-0.2654,0.2095,0.3046,0.6131,0.6071,0.4817,0.4091,0.1024,-0.2166,0.3063,0.1745,0.3756,0.3486,0.4911,0.4429,0.1743,0.3492,0.1083,0.9478,0.7413,0.8231,0.5792,0.4586,0.4729,0.2336,0.4234,0.4874,0.3832,0.2047,-0.3547
-0.3188,0.1583,0.2922,0.5655,0.5316,0.4136,0.3696,0.0745,-0.2346,0.2657,0.1514,0.3812,0.2879,0.4585,0.4051,0.1476,0.3561,0.0907,0.9237,0.7429,0.8163,0.5554,0.4328,0.4268,0.2252,0.3813,0.4581,0.3719,0.2014,-0.4085
-0.3742,0.1179,0.2896,0.5384,0.474,0.3483,0.3378,0.0503,-0.26,0.2347,0.139,0.394,0.2443,0.4415,0.3525,0.1404,0.3676,0.0752,0.9042,0.7598,0.8207,0.5306,0.3963,0.3808,0.208,0.3366,0.4308,0.3621,0.1953,-0.4629
-0.4259,0.09,0.2924,0.5321,0.4369,0.2887,0.3153,0.0303,-0.2935,0.2152,0.136,0.4149,0.2212,0.4399,0.292,0.1474,0.3821,0.0628,0.8894,0.7875,0.834,0.5058,0.3529,0.3397,0.1836,0.2932,0.4083,0.353,0.1884,-0.5141
-0.468,0.0749,0.2954,0.5441,0.4212,0.2376,0.3028,0.0147,-0.3338,0.2081,0.1399,0.4434,0.2196,0.4523,0.2316,0.1623,0.3977,0.0537,0.8789,0.8207,0.8531,0.4824,0.3074,0.3074,0.1548,0.2547,0.393,0.3437,0.1833,-0.5579
-0.4948,0.0721,0.2944,0.5707,0.4249,0.1969,0.2999,0.003,-0.3787,0.2128,0.1473,0.4776,0.2384,0.4756,0.1786,0.1787,0.4126,0.0472,0.8715,0.8542,0.8741,0.4614,0.2649,0.286,0.1252,0.2244,0.3859,0.3334,0.183,-0.5904
-0.5025,0.0804,0.2864,0.6072,0.4443,0.1677,0.3046,-0.0054,-0.4253,0.2275,0.155,0.5137,0.2731,0.5052,0.138,0.1916,0.4246,0.0419,0.8661,0.8835,0.893,0.4428,0.2296,0.2752,0.0979,0.2045,0.3865,0.3211,0.1901,-0.6079
-0.4896,0.0979,0.2706,0.6488,0.474,0.1504,0.3139,-0.011,-0.4706,0.2485,0.1598,0.5465,0.3168,0.5356,0.1114,0.1983,0.4317,0.0354,0.8612,0.9054,0.9061,0.4258,0.2036,0.2718,0.0755,0.1956,0.3918,0.3062,0.2061,-0.6084
-0.4584,0.1229,0.2482,0.6914,0.5077,0.144,0.3235,-0.0142,-0.5123,0.2714,0.1592,0.5702,0.3602,0.5605,0.0975,0.1978,0.4318,0.0248,0.8551,0.9184,0.9102,0.4081,0.1869,0.2706,0.0591,0.1965,0.3976,0.2876,0.231,-0.592
-0.4138,0.1529,0.2215,0.7312,0.5389,0.1466,0.3291,-0.0156,-0.5484,0.291,0.1517,0.5793,0.3938,0.5744,0.0926,0.1908,0.4235,0.0077,0.8469,0.9219,0.9031,0.3876,0.1779,0.2657,0.0489,0.2043,0.399,0.2649,0.2629,-0.561
-0.363,0.1854,0.194,0.7653,0.5625,0.1549,0.3265,-0.016,-0.5781,0.3027,0.1368,0.5706,0.4093,0.573,0.0923,0.179,0.4058,-0.0172,0.836,0.9165,0.8839,0.3625,0.174,0.2517,0.0439,0.2154,0.3916,0.2381,0.2983,-0.5203
-0.3137,0.2174,0.1691,0.7915,0.5748,0.1657,0.3131,-0.0163,-0.6009,0.3032,0.1155,0.5437,0.4023,0.555,0.0926,0.1638,0.3788,-0.0495,0.8231,0.9038,0.8533,0.3331,0.1735,0.2263,0.0432,0.2263,0.3736,0.2084,0.3329,-0.4759
-0.2718,0.2454,0.1498,0.8089,0.5748,0.1755,0.2882,-0.0175,-0.6172,0.2916,0.0898,0.5016,0.3728,0.5219,0.0918,0.1466,0.344,-0.0861,0.8098,0.8853,0.8138,0.3013,0.1756,0.1905,0.0461,0.2345,0.3457,0.1781,0.3623,-0.434
-0.2408,0.2657,0.1383,0.8178,0.5641,0.182,0.2537,-0.0201,-0.6279,0.2693,0.0627,0.4508,0.3259,0.4785,0.0897,0.1283,0.304,-0.1224,0.7986,0.8632,0.7693,0.2715,0.1811,0.149,0.0523,0.239,0.3116,0.1505,0.3831,-0.399
-0.2211,0.2752,0.1355,0.8197,0.5462,0.1843,0.2137,-0.0241,-0.6339,0.2402,0.0376,0.3994,0.2704,0.4315,0.0879,0.1094,0.2628,-0.1526,0.792,0.8393,0.7247,0.2488,0.1919,0.1089,0.0616,0.2401,0.2767,0.1292,0.3941,-0.3731
-0.2099,0.2719,0.1411,0.8177,0.5257,0.1837,0.174,-0.028,-0.6363,0.2093,0.0174,0.3558,0.2174,0.3888,0.0882,0.0909,0.2247,-0.1718,0.7923,0.8157,0.6854,0.2386,0.2098,0.0782,0.074,0.2394,0.2468,0.1171,0.3961,-0.3553
-0.2032,0.2556,0.1538,0.8157,0.5079,0.1826,0.1405,-0.0297,-0.6361,0.1821,0.004,0.3266,0.1771,0.357,0.0921,0.0742,0.194,-0.1764,0.8002,0.7948,0.6564,0.2445,0.2358,0.063,0.0889,0.2385,0.2263,0.1154,0.3924,-0.3425
-0.1963,0.2285,0.1713,0.8178,0.4972,0.1849,0.1186,-0.0266,-0.6345,0.1628,-0.003,0.315,0.1575,0.3412,0.0993,0.0614,0.1735,-0.1659,0.8151,0.7787,0.6414,0.2677,0.2689,0.0665,0.1049,0.2386,0.2167,0.1231,0.3873,-0.3303
-0.1857,0.1949,0.1914,0.8281,0.4971,0.1941,0.1116,-0.016,-0.6333,0.1539,-0.0054,0.3202,0.1621,0.3434,0.108,0.0544,0.1646,-0.1425,0.8344,0.7697,0.6428,0.306,0.3061,0.0871,0.1202,0.2395,0.2168,0.1366,0.3859,-0.3148
-0.1698,0.1603,0.2117,0.8493,0.5092,0.2134,0.1209,0.0039,-0.6344,0.1555,-0.0063,0.3382,0.1903,0.3627,0.1149,0.0552,0.1665,-0.1104,0.8542,0.7692,0.6606,0.3548,0.3428,0.1199,0.1322,0.2398,0.2224,0.1511,0.3921,-0.2938
-0.1484,0.1304,0.2303,0.8819,0.5334,0.244,0.1455,0.0339,-0.6404,0.1661,-0.0088,0.3628,0.2374,0.3954,0.1168,0.0645,0.177,-0.0754,0.87,0.7781,0.6932,0.4074,0.3736,0.1571,0.1389,0.2374,0.2283,0.1611,0.4081,-0.2676
-0.123,0.1093,0.2461,0.924,0.568,0.2854,0.1825,0.0735,-0.6532,0.1832,-0.0147,0.3875,0.2963,0.4367,0.1113,0.0821,0.1931,-0.0429,0.8774,0.7961,0.7372,0.4568,0.3941,0.1911,0.139,0.23,0.2295,0.1624,0.4336,-0.2393
-0.0958,0.0986,0.2583,0.9714,0.6101,0.3355,0.2281,0.1207,-0.6741,0.2039,-0.0241,0.4067,0.3589,0.4807,0.0983,0.1064,0.2119,-0.017,0.8737,0.8216,0.7879,0.4971,0.4018,0.2154,0.1322,0.2164,0.2231,0.1531,0.4656,-0.2135
-0.0697,0.0975,0.2668,1.0178,0.656,0.3908,0.2776,0.1721,-0.7029,0.2257,-0.0353,0.4162,0.4176,0.5228,0.0801,0.1349,0.2317,0.0002,0.8579,0.8524,0.8404,0.5247,0.3972,0.2268,0.1197,0.1963,0.209,0.1337,0.4994,-0.1955
-0.0469,0.1027,0.2719,1.0566,0.7017,0.4471,0.3266,0.2233,-0.738,0.247,-0.0455,0.4147,0.4667,0.5593,0.0607,0.1648,0.2518,0.0093,0.8315,0.8856,0.8898,0.5387,0.3833,0.2255,0.104,0.1713,0.1898,0.1073,0.5293,-0.19
-0.0298,0.1096,0.2746,1.0821,0.7438,0.5006,0.3709,0.2696,-0.7765,0.2666,-0.0519,0.4025,0.5024,0.5885,0.0451,0.1933,0.2724,0.0128,0.7982,0.9182,0.9322,0.541,0.3653,0.2149,0.0884,0.144,0.1695,0.0782,0.5498,-0.1994
-0.0199,0.114,0.276,1.0904,0.7793,0.5478,0.4069,0.3065,-0.8151,0.2833,-0.0522,0.382,0.5238,0.6099,0.0378,0.2175,0.2938,0.0143,0.7623,0.9472,0.9644,0.5351,0.3486,0.1998,0.0759,0.1174,0.1526,0.0505,0.5568,-0.2238
-0.0182,0.1125,0.2778,1.0805,0.8059,0.5863,0.4317,0.3303,-0.851,0.2959,-0.0461,0.3562,0.5316,0.6236,0.0415,0.2343,0.316,0.0174,0.728,0.9694,0.9841,0.5249,0.3374,0.1857,0.069,0.0944,0.1419,0.0273,0.5481,-0.2604
-0.0251,0.104,0.2822,1.054,0.8219,0.6145,0.4436,0.3391,-0.8828,0.3025,-0.0348,0.3282,0.5284,0.6298,0.0566,0.2404,0.3375,0.0245,0.6977,0.9814,0.9898,0.5133,0.3333,0.1762,0.0684,0.0765,0.1375,0.0094,0.5239,-0.3042
-0.0403,0.0893,0.2915,1.0148,0.8267,0.6323,0.4417,0.3328,-0.9105,0.301,-0.0213,0.3005,0.5176,0.6282,0.0812,0.2321,0.3559,0.0357,0.6716,0.9797,0.9801,0.5013,0.3346,0.1731,0.073,0.0644,0.1368,-0.0043,0.4863,-0.3486
-0.0627,0.0708,0.3078,0.9679,0.8209,0.6405,0.4267,0.3135,-0.9358,0.2891,-0.0096,0.2737,0.5027,0.618,0.1119,0.206,0.3682,0.0496,0.6474,0.9615,0.9543,0.4878,0.3369,0.1753,0.0801,0.0572,0.1346,-0.0168,0.4397,-0.387
-0.091,0.052,0.3326,0.9185,0.8058,0.6409,0.4002,0.2846,-0.9612,0.2649,-0.0041,0.247,0.487,0.5979,0.1444,0.16,0.3709,0.0631,0.6213,0.9252,0.9122,0.4701,0.3339,0.1798,0.0866,0.0529,0.1248,-0.0319,0.389,-0.4139
-0.1234,0.0363,0.3661,0.8709,0.7835,0.6356,0.3645,0.2497,-0.9898,0.2271,-0.0084,0.2182,0.4726,0.5669,0.1749,0.0934,0.3619,0.0723,0.5886,0.8703,0.8543,0.4448,0.3195,0.1824,0.089,0.0492,0.1018,-0.0534,0.3389,-0.426
-0.1585,0.0263,0.4078,0.8277,0.7566,0.627,0.3221,0.2123,-1.0241,0.1758,-0.0249,0.1847,0.4603,0.5245,0.2007,0.0076,0.3402,0.0744,0.5457,0.7983,0.7819,0.4092,0.2894,0.1792,0.0849,0.0439,0.0623,-0.0842,0.2932,-0.4225
-0.1947,0.0231,0.4559,0.7901,0.7274,0.6171,0.2756,0.1749,-1.0655,0.1123,-0.0536,0.1448,0.4504,0.4718,0.2206,-0.0939,0.3069,0.0678,0.491,0.7124,0.6976,0.3624,0.2425,0.1678,0.0735,0.0355,0.0057,-0.1251,0.2538,-0.4055
-0.2311,0.0263,0.5083,0.7574,0.6975,0.6075,0.2273,0.1388,-1.1135,0.0398,-0.0924,0.0983,0.4423,0.411,0.235,-0.2063,0.2648,0.0535,0.4254,0.617,0.6052,0.306,0.181,0.1483,0.0556,0.0238,-0.0649,-0.175,0.2202,-0.3789
-0.2671,0.0337,0.5628,0.7278,0.6683,0.5992,0.179,0.1046,-1.1663,-0.0372,-0.137,0.0474,0.4355,0.3462,0.2457,-0.3239,0.2181,0.0341,0.3526,0.5172,0.5092,0.2435,0.1104,0.1231,0.0335,0.0093,-0.1442,-0.2309,0.1907,-0.3476
