FP1,F3,F7,FC3,C3,C5,P3,P7,PO7,PO3,O1,Oz,Pz,CPz,FP2,Fz,F4,F8,FC4,FCz,Cz,C4,C6,P4,P8,PO8,PO4,O2,(corr) HEOG,(corr) VEOG
-0.3901,-0.8555,-0.983,-0.6389,-0.3268,-0.4233,-0.0443,-0.3553,0.0011,0.0725,0.5117,-0.2469,0.3272,0.036,-0.8991,-0.812,-0.5351,-0.4514,-0.3855,-0.5782,-0.2576,-0.2672,-0.5487,0.2068,0.298,0.2234,0.4178,-0.0951,0.497,-0.4309
-0.4912,-0.8387,-0.8297,-0.6063,-0.3366,-0.3675,-0.0002,-0.2017,-0.0713,0.1091,0.4631,-0.1404,0.3096,0.047,-0.7735,-0.7874,-0.5767,-0.4436,-0.4983,-0.5366,-0.2118,-0.3397,-0.5184,0.1731,0.244,0.2685,0.2865,0.0453,0.3649,-0.4363
-0.5812,-0.8213,-0.6866,-0.5765,-0.3487,-0.319,0.0312,-0.0684,-0.1329,0.1394,0.4132,-0.05,0.2799,0.0487,-0.6664,-0.7628,-0.6136,-0.4412,-0.5966,-0.4983,-0.1747,-0.4061,-0.4958,0.1372,0.185,0.2989,0.1629,0.1618,0.2435,-0.4336
-0.6519,-0.8042,-0.5594,-0.5544,-0.3658,-0.2836,0.0405,0.0286,-0.1772,0.1576,0.3615,0.0123,0.2308,0.0343,-0.5956,-0.7383,-0.6424,-0.4493,-0.6678,-0.4655,-0.1525,-0.4603,-0.4862,0.0969,0.1191,0.3043,0.0521,0.2373,0.1422,-0.4142
-0.6976,-0.787,-0.4554,-0.5422,-0.3879,-0.2641,0.0243,0.0826,-0.2009,0.1609,0.3085,0.0406,0.1606,0.0011,-0.5709,-0.714,-0.6614,-0.4704,-0.706,-0.4394,-0.148,-0.4996,-0.492,0.052,0.0469,0.2805,-0.0423,0.2638,0.0682,-0.3737
-0.7158,-0.7686,-0.382,-0.5389,-0.4118,-0.2597,-0.0138,0.0961,-0.2044,0.1496,0.2556,0.0358,0.0739,-0.0496,-0.5909,-0.6896,-0.671,-0.5031,-0.7131,-0.4197,-0.1601,-0.5241,-0.5125,0.0037,-0.0275,0.2296,-0.1187,0.2436,0.0246,-0.3131
-0.7075,-0.7469,-0.3438,-0.5406,-0.4324,-0.2664,-0.0645,0.0791,-0.1915,0.1265,0.2057,0.0045,-0.0198,-0.1124,-0.6431,-0.6646,-0.6724,-0.5421,-0.6974,-0.405,-0.1842,-0.5366,-0.5428,-0.0453,-0.0978,0.1595,-0.1767,0.1876,0.0106,-0.2395
-0.6765,-0.7195,-0.3403,-0.5414,-0.4434,-0.2783,-0.1157,0.0445,-0.1682,0.0962,0.1616,-0.0433,-0.108,-0.1788,-0.7064,-0.638,-0.6671,-0.579,-0.6705,-0.3928,-0.2134,-0.5407,-0.5753,-0.0914,-0.157,0.0818,-0.2168,0.1118,0.0208,-0.1654
-0.6289,-0.6838,-0.3641,-0.5347,-0.4395,-0.2889,-0.1555,0.0043,-0.1409,0.0637,0.1261,-0.0966,-0.1788,-0.2395,-0.7568,-0.6085,-0.6556,-0.6039,-0.6431,-0.3797,-0.2397,-0.5392,-0.6004,-0.1306,-0.1988,0.0085,-0.2399,0.0331,0.0473,-0.1052
-0.5715,-0.6372,-0.4021,-0.5143,-0.4172,-0.2922,-0.1755,-0.0332,-0.1154,0.0332,0.1014,-0.1456,-0.2231,-0.2856,-0.7736,-0.5742,-0.6367,-0.6083,-0.6212,-0.3623,-0.2562,-0.5326,-0.6098,-0.1597,-0.2195,-0.0504,-0.2477,-0.0341,0.0814,-0.0714
-0.5111,-0.5772,-0.4384,-0.4755,-0.376,-0.2841,-0.1723,-0.0646,-0.0945,0.0075,0.0887,-0.1831,-0.2372,-0.311,-0.7453,-0.5333,-0.6084,-0.5869,-0.605,-0.3376,-0.2583,-0.5198,-0.598,-0.1769,-0.2189,-0.0883,-0.2426,-0.0804,0.1159,-0.0707
-0.453,-0.502,-0.4582,-0.4164,-0.3184,-0.2627,-0.148,-0.0906,-0.0787,-0.0125,0.0878,-0.2051,-0.223,-0.313,-0.6721,-0.4845,-0.5685,-0.5398,-0.5895,-0.3038,-0.2447,-0.4982,-0.5641,-0.1825,-0.1996,-0.1031,-0.2281,-0.1023,0.1467,-0.1009
-0.3998,-0.4109,-0.451,-0.3378,-0.2494,-0.2284,-0.1088,-0.1135,-0.0656,-0.0272,0.0967,-0.2109,-0.1876,-0.2933,-0.5649,-0.4274,-0.5161,-0.4719,-0.5671,-0.2611,-0.2173,-0.4652,-0.5117,-0.1781,-0.1667,-0.0965,-0.2078,-0.1016,0.1728,-0.152
-0.3506,-0.3049,-0.412,-0.2434,-0.1747,-0.183,-0.0626,-0.1348,-0.0523,-0.0374,0.1116,-0.2025,-0.1407,-0.2563,-0.4409,-0.3627,-0.4521,-0.3915,-0.5311,-0.2108,-0.1801,-0.4197,-0.4467,-0.1664,-0.1262,-0.0731,-0.1847,-0.0838,0.1952,-0.2083
-0.3011,-0.1866,-0.3423,-0.1384,-0.0996,-0.1289,-0.0166,-0.1537,-0.0359,-0.0437,0.1273,-0.1835,-0.0917,-0.2079,-0.3182,-0.2914,-0.3792,-0.3076,-0.4778,-0.1556,-0.1375,-0.3619,-0.3759,-0.1493,-0.084,-0.0392,-0.1603,-0.0563,0.2162,-0.2528
-0.2446,-0.0603,-0.2465,-0.0288,-0.0277,-0.0681,0.0244,-0.1665,-0.0156,-0.0455,0.1384,-0.158,-0.0472,-0.1532,-0.2114,-0.2149,-0.3009,-0.2282,-0.4071,-0.0976,-0.0931,-0.2933,-0.3041,-0.1273,-0.0445,-0.0009,-0.1335,-0.0265,0.2379,-0.2718
-0.1737,0.0689,-0.1308,0.0797,0.0393,-0.002,0.059,-0.168,0.0072,-0.0411,0.1403,-0.1288,-0.0089,-0.0954,-0.1282,-0.1339,-0.2207,-0.158,-0.322,-0.0383,-0.0484,-0.2155,-0.2339,-0.0994,-0.0099,0.0374,-0.1018,0.0006,0.2614,-0.2576
-0.0832,0.1951,-0.0005,0.1817,0.1015,0.0684,0.0886,-0.153,0.0294,-0.0287,0.1309,-0.0974,0.0261,-0.0357,-0.0692,-0.0488,-0.1409,-0.0981,-0.2267,0.0217,-0.0028,-0.1304,-0.1643,-0.0632,0.0198,0.0729,-0.0617,0.0224,0.2858,-0.2105
0.0279,0.3125,0.1399,0.2726,0.1593,0.142,0.1159,-0.1193,0.0476,-0.0072,0.1111,-0.0637,0.0634,0.0264,-0.0285,0.0401,-0.0626,-0.046,-0.1264,0.0825,0.0448,-0.0393,-0.0924,-0.0168,0.0462,0.1049,-0.0107,0.0391,0.3085,-0.1384
0.1553,0.4153,0.2857,0.3486,0.2132,0.2159,0.1432,-0.0688,0.0598,0.0231,0.0837,-0.0274,0.1085,0.0914,0.0036,0.1312,0.0136,0.0025,-0.0264,0.1435,0.0951,0.0554,-0.0148,0.0404,0.0714,0.133,0.0513,0.0522,0.3246,-0.0549
0.2891,0.4985,0.4309,0.4064,0.2623,0.2858,0.1713,-0.0077,0.0663,0.0598,0.0532,0.0117,0.1636,0.1581,0.0379,0.2213,0.087,0.0517,0.0677,0.2029,0.1469,0.1502,0.0706,0.1059,0.0967,0.1562,0.1207,0.0628,0.3283,0.0243
0.4156,0.5583,0.5664,0.4439,0.3046,0.346,0.1988,0.0544,0.0691,0.0985,0.024,0.0521,0.2265,0.2234,0.0828,0.3055,0.1561,0.1045,0.1509,0.2576,0.1968,0.2398,0.1628,0.174,0.1213,0.1722,0.1901,0.071,0.3142,0.0851
0.52,0.5931,0.6806,0.461,0.3378,0.3907,0.2227,0.108,0.0712,0.1334,-0.0008,0.0904,0.2896,0.282,0.1414,0.378,0.2187,0.1607,0.2193,0.3032,0.2398,0.318,0.2569,0.2366,0.1424,0.1777,0.2498,0.0746,0.2789,0.1186
0.5893,0.6037,0.7603,0.4596,0.3596,0.4158,0.2392,0.1457,0.0748,0.1585,-0.0199,0.1222,0.342,0.3273,0.2103,0.4332,0.2726,0.2171,0.2714,0.3357,0.2705,0.3788,0.3442,0.2849,0.1552,0.1689,0.2897,0.0704,0.2234,0.1235
0.6153,0.5934,0.7934,0.4438,0.3691,0.4197,0.245,0.1644,0.081,0.1689,-0.0338,0.1429,0.3724,0.353,0.28,0.4675,0.3157,0.2676,0.3084,0.3522,0.2845,0.4176,0.414,0.311,0.1547,0.1429,0.3016,0.0544,0.1525,0.1061
0.5959,0.5668,0.7719,0.4187,0.3661,0.4035,0.2378,0.1657,0.0895,0.1615,-0.0452,0.1485,0.3715,0.3545,0.338,0.4795,0.3469,0.3056,0.3334,0.3516,0.2793,0.4322,0.4563,0.3101,0.137,0.0981,0.2818,0.0234,0.0751,0.0785
0.5354,0.529,0.6953,0.3885,0.351,0.3703,0.2171,0.1541,0.0993,0.1357,-0.0577,0.1365,0.3347,0.3294,0.3728,0.4705,0.3655,0.3251,0.35,0.3346,0.2547,0.4234,0.4643,0.2813,0.101,0.0353,0.2314,-0.0233,0.0013,0.0538
0.4438,0.4836,0.5717,0.3551,0.3244,0.3239,0.1834,0.1351,0.109,0.0929,-0.0757,0.1069,0.263,0.2782,0.3783,0.4433,0.3711,0.3231,0.3604,0.3031,0.2123,0.3938,0.4362,0.2278,0.0495,-0.0419,0.1568,-0.0836,-0.0594,0.0427
0.3348,0.4322,0.4179,0.3175,0.286,0.2674,0.1385,0.1133,0.1169,0.0365,-0.1026,0.0623,0.1628,0.2041,0.3557,0.4016,0.3637,0.2999,0.3647,0.2593,0.1548,0.3478,0.3767,0.1555,-0.0111,-0.127,0.0674,-0.1519,-0.101,0.0501
0.2233,0.3747,0.2558,0.2726,0.2356,0.2035,0.0849,0.0909,0.121,-0.0289,-0.1401,0.0073,0.0447,0.1132,0.3134,0.3491,0.3435,0.26,0.3608,0.2058,0.0862,0.2906,0.2961,0.0717,-0.0716,-0.2106,-0.0258,-0.2198,-0.1215,0.0744
0.1232,0.3103,0.1081,0.2169,0.1737,0.134,0.0265,0.0683,0.119,-0.0977,-0.1874,-0.0515,-0.0779,0.0138,0.2639,0.2897,0.3117,0.2106,0.3467,0.1453,0.0113,0.2276,0.2087,-0.0158,-0.1225,-0.2818,-0.1121,-0.2777,-0.1239,0.1093
0.0453,0.2393,-0.0071,0.1495,0.1031,0.0618,-0.0319,0.0448,0.1089,-0.1635,-0.2403,-0.1075,-0.1912,-0.0839,0.2203,0.2274,0.2714,0.1606,0.3218,0.0813,-0.0639,0.165,0.1301,-0.0996,-0.1558,-0.3303,-0.1829,-0.3171,-0.1144,0.147
-0.0035,0.1643,-0.0792,0.0731,0.029,-0.0093,-0.085,0.0196,0.0896,-0.2201,-0.2923,-0.1548,-0.2825,-0.1693,0.1919,0.1672,0.2279,0.1188,0.2892,0.0188,-0.1321,0.109,0.0738,-0.1731,-0.1669,-0.3487,-0.2321,-0.3323,-0.1012,0.1813
-0.0209,0.0907,-0.1073,-0.0051,-0.0412,-0.0742,-0.1274,-0.0075,0.0622,-0.2617,-0.3358,-0.1893,-0.3424,-0.2325,0.1829,0.1151,0.1882,0.092,0.2555,-0.0363,-0.1857,0.0657,0.048,-0.2309,-0.1555,-0.3348,-0.2565,-0.3218,-0.0924,0.2091
-0.0096,0.0258,-0.0988,-0.0754,-0.0993,-0.1274,-0.155,-0.0359,0.0303,-0.2838,-0.3631,-0.2094,-0.3661,-0.2668,0.1929,0.0768,0.1594,0.0844,0.2283,-0.0777,-0.2179,0.0398,0.054,-0.2689,-0.1253,-0.2919,-0.2562,-0.2888,-0.0938,0.2299
0.0241,-0.0228,-0.066,-0.128,-0.1385,-0.1644,-0.1658,-0.0637,-0.0005,-0.2844,-0.3688,-0.2152,-0.3542,-0.2693,0.2189,0.0568,0.147,0.0966,0.2134,-0.1,-0.2241,0.033,0.0867,-0.2854,-0.0823,-0.2284,-0.2341,-0.2397,-0.1087,0.2435
0.0707,-0.0497,-0.0224,-0.1558,-0.1546,-0.1827,-0.1604,-0.0886,-0.0245,-0.264,-0.3512,-0.208,-0.3124,-0.2424,0.2576,0.0571,0.1531,0.1263,0.2131,-0.1003,-0.2032,0.0443,0.1367,-0.2809,-0.0338,-0.1554,-0.1953,-0.1832,-0.137,0.2487
0.1204,-0.0528,0.0213,-0.156,-0.1473,-0.182,-0.1422,-0.1077,-0.0374,-0.2258,-0.3124,-0.1895,-0.2505,-0.1926,0.3063,0.0768,0.1761,0.1692,0.2251,-0.0788,-0.1582,0.0693,0.1929,-0.2584,0.0129,-0.0847,-0.1462,-0.1275,-0.1762,0.2427
0.165,-0.0337,0.0596,-0.1304,-0.1199,-0.1644,-0.1163,-0.118,-0.0379,-0.1756,-0.2585,-0.1608,-0.18,-0.129,0.3623,0.1119,0.2115,0.2192,0.2447,-0.0387,-0.0953,0.1027,0.2456,-0.222,0.0519,-0.0258,-0.0929,-0.0791,-0.2221,0.2232
0.1997,0.0027,0.0917,-0.0841,-0.0778,-0.1331,-0.0883,-0.1173,-0.0281,-0.1201,-0.1979,-0.123,-0.1116,-0.0613,0.4213,0.1572,0.2537,0.2703,0.2678,0.0147,-0.0226,0.1396,0.2887,-0.1765,0.0792,0.0151,-0.0406,-0.0412,-0.27,0.1904
0.2236,0.0503,0.12,-0.0239,-0.0274,-0.0918,-0.0634,-0.1047,-0.0117,-0.066,-0.1395,-0.0762,-0.0539,0.0024,0.4777,0.2069,0.2977,0.3168,0.2921,0.0751,0.0513,0.1766,0.3199,-0.1259,0.0929,0.0352,0.0076,-0.0137,-0.3151,0.1481
0.2393,0.1027,0.1475,0.0431,0.0251,-0.0449,-0.0454,-0.0814,0.0068,-0.0195,-0.0906,-0.0212,-0.0121,0.0562,0.5246,0.256,0.3396,0.3549,0.3177,0.1362,0.1189,0.2123,0.34,-0.0735,0.0928,0.0356,0.05,0.0062,-0.3536,0.1041
0.2512,0.1546,0.1755,0.1106,0.0747,0.0034,-0.0364,-0.0508,0.0236,0.0151,-0.0557,0.0408,0.0114,0.0967,0.5563,0.3006,0.377,0.3822,0.3456,0.1925,0.1741,0.2459,0.3519,-0.0226,0.0809,0.0199,0.0862,0.0226,-0.3825,0.0674
0.2642,0.2023,0.203,0.1731,0.1178,0.0488,-0.0369,-0.0177,0.0362,0.0348,-0.0364,0.1075,0.0166,0.1223,0.5696,0.3385,0.4084,0.3981,0.376,0.2398,0.213,0.2762,0.3584,0.023,0.0603,-0.0065,0.1152,0.0398,-0.3996,0.0458
0.2824,0.2442,0.2278,0.2268,0.153,0.0876,-0.0462,0.0129,0.0428,0.0385,-0.0317,0.1756,0.0044,0.1328,0.5658,0.3688,0.4328,0.4035,0.4075,0.2755,0.2339,0.3014,0.3614,0.059,0.0353,-0.0371,0.1359,0.0604,-0.4026,0.0436
0.3078,0.28,0.2475,0.2697,0.1803,0.1174,-0.0623,0.0372,0.0423,0.0265,-0.039,0.2406,-0.0234,0.1288,0.5498,0.3922,0.4499,0.4001,0.4372,0.2992,0.2376,0.3189,0.3605,0.0808,0.0104,-0.0657,0.1464,0.0851,-0.3898,0.06
0.3395,0.3112,0.2607,0.3013,0.2008,0.1372,-0.0827,0.0531,0.0343,0.0009,-0.055,0.2978,-0.0642,0.1116,0.5296,0.4104,0.4597,0.3903,0.4609,0.3121,0.2268,0.3263,0.354,0.0847,-0.0097,-0.0869,0.1458,0.1122,-0.3607,0.0892
0.3737,0.3398,0.2671,0.3233,0.2165,0.1479,-0.1044,0.0606,0.0196,-0.0344,-0.0756,0.3428,-0.1143,0.0839,0.5138,0.4256,0.4628,0.377,0.4748,0.3171,0.2063,0.3225,0.3401,0.0696,-0.0216,-0.0965,0.1345,0.1385,-0.3166,0.122
0.4035,0.3679,0.2668,0.3385,0.2296,0.1518,-0.1241,0.0613,0.0005,-0.074,-0.0967,0.3726,-0.1682,0.0496,0.509,0.4398,0.4604,0.3634,0.4761,0.3179,0.182,0.3085,0.3185,0.0378,-0.0225,-0.0925,0.1154,0.1606,-0.262,0.1482
0.421,0.3967,0.2594,0.3505,0.2417,0.1516,-0.1383,0.0576,-0.0181,-0.1105,-0.1141,0.3865,-0.2189,0.0142,0.5181,0.4546,0.4544,0.3528,0.4641,0.3183,0.16,0.2875,0.2916,-0.0047,-0.011,-0.0743,0.0935,0.176,-0.2037,0.1594
0.4193,0.4258,0.2446,0.3619,0.2544,0.1504,-0.1437,0.0516,-0.0293,-0.1362,-0.1237,0.3867,-0.2583,-0.0163,0.5397,0.4703,0.4471,0.3482,0.4413,0.3214,0.1455,0.264,0.2644,-0.0494,0.0126,-0.043,0.0748,0.1844,-0.1507,0.1506
0.3952,0.4521,0.2231,0.3739,0.2682,0.15,-0.1382,0.045,-0.0256,-0.1444,-0.1222,0.3775,-0.2792,-0.036,0.57,0.4863,0.4415,0.3522,0.4126,0.3288,0.1419,0.2434,0.2432,-0.0877,0.0467,-0.001,0.0641,0.1873,-0.1124,0.1214
0.3516,0.4706,0.1983,0.3855,0.2831,0.1514,-0.1207,0.0383,-0.0009,-0.131,-0.1081,0.365,-0.2767,-0.0411,0.6055,0.5017,0.4402,0.3664,0.3843,0.3411,0.1501,0.2299,0.2337,-0.1135,0.0884,0.0489,0.0631,0.1879,-0.0973,0.0747
0.2984,0.4762,0.1768,0.3947,0.2988,0.1545,-0.0922,0.0317,0.0469,-0.0962,-0.0824,0.3547,-0.2504,-0.0304,0.646,0.5161,0.4455,0.3913,0.3623,0.3579,0.1689,0.2257,0.2396,-0.1249,0.134,0.1029,0.0696,0.1891,-0.1112,0.0158
0.2507,0.4667,0.1678,0.4003,0.3154,0.1584,-0.0555,0.0242,0.115,-0.0449,-0.0498,0.3503,-0.204,-0.0053,0.6962,0.5307,0.4593,0.4271,0.351,0.3794,0.1958,0.2309,0.2615,-0.1246,0.1795,0.1566,0.0774,0.1925,-0.1568,-0.0495
0.2251,0.4448,0.1808,0.4038,0.334,0.1631,-0.0151,0.0143,0.1958,0.0139,-0.0172,0.3525,-0.1453,0.0309,0.7635,0.5492,0.4832,0.4735,0.3526,0.4068,0.2289,0.2442,0.2976,-0.1192,0.2214,0.2053,0.0778,0.1974,-0.2328,-0.1158
0.2346,0.4194,0.2215,0.4107,0.3574,0.1692,0.0241,-0.0003,0.2785,0.0696,0.0072,0.3596,-0.0839,0.0741,0.8548,0.5771,0.5188,0.5299,0.3675,0.443,0.2668,0.2636,0.3448,-0.1162,0.2576,0.2448,0.0624,0.2008,-0.3337,-0.1777
0.2838,0.404,0.2891,0.4296,0.389,0.1787,0.0573,-0.0218,0.3526,0.1121,0.0168,0.3679,-0.029,0.1207,0.9709,0.6207,0.5667,0.5945,0.3951,0.4915,0.3098,0.2872,0.3998,-0.1221,0.287,0.2729,0.0255,0.1984,-0.4504,-0.2293
0.3662,0.4136,0.3749,0.4696,0.432,0.194,0.0814,-0.0514,0.4097,0.135,0.0089,0.3738,0.0128,0.1677,1.1034,0.6843,0.6267,0.6646,0.4345,0.5549,0.3583,0.314,0.4592,-0.1396,0.3098,0.2899,-0.0333,0.1871,-0.5713,-0.2638
0.4649,0.4595,0.4633,0.5372,0.4876,0.2177,0.0952,-0.0881,0.4447,0.1371,-0.0144,0.3752,0.0389,0.2135,1.2336,0.7681,0.6965,0.7351,0.4851,0.6326,0.4116,0.3435,0.5201,-0.1663,0.3272,0.2988,-0.108,0.166,-0.6836,-0.2737
0.5566,0.5465,0.5361,0.6328,0.5534,0.2511,0.0996,-0.1278,0.4556,0.1218,-0.047,0.3717,0.0506,0.257,1.3368,0.8673,0.7721,0.7995,0.5467,0.7201,0.4674,0.3758,0.579,-0.1954,0.341,0.3039,-0.187,0.1374,-0.7754,-0.2526
0.6183,0.6694,0.5782,0.7494,0.6233,0.2937,0.0967,-0.1637,0.4421,0.0954,-0.081,0.3643,0.0524,0.2971,1.3882,0.9719,0.8477,0.8505,0.6189,0.8086,0.5207,0.411,0.6315,-0.2168,0.3531,0.3087,-0.2556,0.106,-0.8376,-0.1969
0.6345,0.8147,0.5819,0.8735,0.6876,0.3423,0.0886,-0.1879,0.4044,0.0649,-0.1103,0.3536,0.0495,0.3324,1.3719,1.0692,0.9166,0.8817,0.6997,0.8869,0.5651,0.4486,0.6735,-0.22,0.3649,0.3141,-0.2992,0.0767,-0.8652,-0.1084
0.6029,0.9621,0.5506,0.9875,0.7355,0.3915,0.0765,-0.1933,0.343,0.0349,-0.1322,0.3385,0.0468,0.3612,1.2867,1.1467,0.9726,0.8897,0.7851,0.9437,0.594,0.4876,0.7019,-0.1968,0.3768,0.3172,-0.3068,0.0535,-0.8583,0.0041
0.5351,1.0899,0.4972,1.0737,0.7572,0.4346,0.0604,-0.1754,0.2595,0.0073,-0.1482,0.3166,0.0477,0.3819,1.1487,1.1951,1.0109,0.8757,0.8683,0.9709,0.6031,0.5268,0.7163,-0.1431,0.3878,0.3115,-0.2731,0.038,-0.8215,0.1257
0.454,1.1796,0.4404,1.1187,0.7468,0.4651,0.0394,-0.1338,0.1583,-0.0183,-0.1624,0.2848,0.0539,0.3941,0.9884,1.2105,1.03,0.8454,0.9411,0.9652,0.5917,0.565,0.7191,-0.0594,0.3957,0.2894,-0.1987,0.0295,-0.7627,0.2378
0.3865,1.2201,0.3986,1.1159,0.7034,0.478,0.0126,-0.0724,0.0467,-0.0436,-0.1792,0.2419,0.0658,0.3986,0.8422,1.1957,1.031,0.8075,0.9951,0.9301,0.563,0.6013,0.7146,0.0494,0.398,0.2451,-0.0897,0.0265,-0.6912,0.3222
0.3557,1.2101,0.3839,1.0671,0.6313,0.4709,-0.02,0.0018,-0.0651,-0.0701,-0.2014,0.1892,0.0829,0.3969,0.7419,1.1589,1.0178,0.7716,1.0236,0.8739,0.5235,0.6343,0.7072,0.1741,0.3921,0.1772,0.0437,0.027,-0.6157,0.3667
0.374,1.1578,0.3986,0.9819,0.5385,0.4443,-0.058,0.0798,-0.1656,-0.0986,-0.2289,0.1311,0.1033,0.3908,0.7059,1.1117,0.9954,0.7445,1.0238,0.809,0.4811,0.6617,0.699,0.3024,0.3761,0.0904,0.1887,0.0294,-0.543,0.3679
0.4393,1.0784,0.4353,0.8749,0.4348,0.4013,-0.1,0.1519,-0.2447,-0.1287,-0.2589,0.075,0.1236,0.3811,0.7334,1.0666,0.969,0.7283,0.9972,0.748,0.4426,0.6797,0.6889,0.42,0.3492,-0.0048,0.3308,0.0326,-0.4771,0.3326
0.5364,0.9903,0.48,0.7629,0.3296,0.3466,-0.1447,0.2095,-0.2949,-0.1596,-0.2861,0.0289,0.139,0.3668,0.8065,1.0341,0.9427,0.7204,0.9501,0.702,0.4127,0.6838,0.6731,0.5116,0.3122,-0.0932,0.4549,0.0359,-0.4195,0.2761
0.6418,0.9103,0.5176,0.6612,0.2309,0.2857,-0.191,0.246,-0.3124,-0.19,-0.3044,0.0008,0.1434,0.3453,0.896,1.0207,0.9193,0.7149,0.8922,0.6778,0.3926,0.6699,0.6468,0.5631,0.2682,-0.1578,0.547,0.0399,-0.3703,0.2177
0.7314,0.8509,0.5372,0.581,0.1442,0.2236,-0.2383,0.2569,-0.2971,-0.2189,-0.3079,-0.0038,0.1306,0.3137,0.9714,1.0288,0.9,0.705,0.8343,0.678,0.381,0.6358,0.6066,0.564,0.2222,-0.1838,0.5955,0.0456,-0.3293,0.1755
0.7873,0.8177,0.5347,0.5281,0.0727,0.1642,-0.2868,0.2404,-0.252,-0.2454,-0.2932,0.0166,0.096,0.2694,1.0099,1.0565,0.8853,0.686,0.7865,0.7005,0.3747,0.5826,0.5527,0.5103,0.1799,-0.1634,0.5936,0.054,-0.2971,0.1622
0.8019,0.8104,0.5134,0.5027,0.0174,0.1098,-0.3373,0.1974,-0.1837,-0.2694,-0.2604,0.0583,0.0377,0.2121,1.0021,1.0992,0.8757,0.657,0.7557,0.7401,0.3704,0.5151,0.4898,0.4056,0.146,-0.0989,0.5405,0.065,-0.2756,0.1824
0.779,0.824,0.4814,0.5003,-0.0222,0.0612,-0.3902,0.1309,-0.1009,-0.2912,-0.2141,0.1129,-0.0422,0.1441,0.9529,1.1513,0.8716,0.6211,0.7456,0.7899,0.3656,0.441,0.4259,0.2617,0.1224,-0.004,0.4416,0.0765,-0.2668,0.2325
0.7305,0.8509,0.4481,0.5136,-0.048,0.0184,-0.4457,0.0468,-0.0144,-0.3119,-0.1622,0.1687,-0.1377,0.071,0.8783,1.2066,0.8743,0.5844,0.756,0.8425,0.3593,0.3701,0.3706,0.0964,0.1073,0.0998,0.3083,0.0854,-0.2726,0.3022
0.6726,0.8839,0.4203,0.5353,-0.0614,-0.0187,-0.502,-0.0472,0.0644,-0.3321,-0.1141,0.2137,-0.2391,0.001,0.8001,1.2602,0.885,0.5546,0.7841,0.8918,0.3531,0.3125,0.3326,-0.0688,0.097,0.1885,0.1557,0.088,-0.2929,0.3778
0.6205,0.9182,0.4005,0.5604,-0.0627,-0.049,-0.5554,-0.1415,0.1255,-0.352,-0.0786,0.2386,-0.3341,-0.0558,0.7399,1.3085,0.9055,0.5393,0.8256,0.9344,0.3506,0.277,0.3185,-0.2132,0.0875,0.2429,0.0012,0.0827,-0.3255,0.4445
0.5858,0.953,0.3877,0.5882,-0.0499,-0.0695,-0.5993,-0.2257,0.1618,-0.3704,-0.0616,0.239,-0.4097,-0.0885,0.715,1.3504,0.9374,0.5452,0.8764,0.9704,0.3577,0.2704,0.3315,-0.3194,0.0766,0.2535,-0.1382,0.0702,-0.3652,0.4897
0.5757,0.9917,0.3795,0.6234,-0.0179,-0.0742,-0.6252,-0.2894,0.17,-0.3844,-0.0652,0.2168,-0.4535,-0.0872,0.7367,1.3882,0.983,0.577,0.9333,1.0042,0.3816,0.2967,0.3725,-0.3755,0.0654,0.2225,-0.2474,0.0544,-0.4053,0.504
0.5936,1.0417,0.3762,0.6747,0.0407,-0.0553,-0.6236,-0.3239,0.1517,-0.3894,-0.087,0.1791,-0.4562,-0.0443,0.8102,1.4268,1.044,0.6375,0.9938,1.0434,0.43,0.3564,0.4398,-0.3767,0.0581,0.1624,-0.3153,0.0413,-0.4385,0.482
0.6411,1.112,0.3828,0.753,0.1343,-0.0041,-0.586,-0.3229,0.1132,-0.3803,-0.1212,0.1367,-0.413,0.0437,0.9359,1.4733,1.1212,0.727,1.0559,1.0975,0.5089,0.4472,0.5304,-0.3249,0.06,0.0922,-0.3363,0.0377,-0.4587,0.4219
0.7185,1.21,0.4098,0.8672,0.2688,0.086,-0.5077,-0.2848,0.0645,-0.3529,-0.1596,0.1014,-0.3249,0.1751,1.109,1.5352,1.2136,0.8426,1.1173,1.1747,0.6214,0.5637,0.6399,-0.2289,0.0759,0.0323,-0.3108,0.0493,-0.4617,0.3261
0.8253,1.3391,0.4704,1.0212,0.4456,0.2177,-0.3901,-0.2124,0.0176,-0.3055,-0.1936,0.0825,-0.1997,0.342,1.3186,1.6174,1.3179,0.9777,1.1765,1.2797,0.7656,0.6984,0.763,-0.102,0.1083,-0.0003,-0.2451,0.0794,-0.446,0.2021
0.9593,1.4959,0.5766,1.2111,0.6585,0.387,-0.2416,-0.114,-0.016,-0.2408,-0.216,0.0855,-0.0513,0.5308,1.5468,1.721,1.4285,1.1216,1.2329,1.4113,0.9338,0.8423,0.8927,0.039,0.1566,0.0044,-0.1504,0.1271,-0.4129,0.0629
1.1154,1.6701,0.7337,1.4249,0.8941,0.5832,-0.0777,-0.0014,-0.029,-0.1659,-0.2229,0.1104,0.1019,0.7232,1.769,1.842,1.5376,1.2606,1.2876,1.5621,1.1134,0.9855,1.0212,0.1763,0.2163,0.0479,-0.0414,0.1876,-0.3662,-0.073
1.2842,1.8459,0.9369,1.6444,1.1328,0.7897,0.0817,0.1119,-0.0199,-0.0918,-0.2148,0.1518,0.2391,0.8987,1.9577,1.9711,1.6364,1.3796,1.3421,1.719,1.2878,1.1179,1.1405,0.2937,0.281,0.124,0.0658,0.2527,-0.3117,-0.1844
1.4528,2.005,1.17,1.8487,1.353,0.9869,0.2161,0.213,0.0059,-0.0314,-0.1978,0.1999,0.3414,1.0379,2.0875,2.0957,1.7165,1.4656,1.3973,1.8661,1.4397,1.2296,1.2432,0.3783,0.3428,0.2198,0.156,0.3122,-0.2566,-0.2521
1.605,2.1306,1.4083,2.0185,1.5345,1.1558,0.3081,0.2921,0.0372,0.0032,-0.1823,0.2425,0.3944,1.1255,2.1417,2.2017,1.7709,1.5098,1.4524,1.9872,1.5541,1.312,1.3239,0.4222,0.3943,0.3196,0.2163,0.3552,-0.208,-0.2636
1.7246,2.2104,1.6237,2.1396,1.6637,1.2817,0.3475,0.3445,0.0606,0.0036,-0.1807,0.2674,0.3916,1.1537,2.1161,2.2773,1.7961,1.5098,1.5053,2.07,1.6217,1.3593,1.3795,0.4235,0.4298,0.4071,0.238,0.373,-0.1719,-0.2169
1.7981,2.2402,1.7921,2.206,1.7349,1.3574,0.3333,0.3703,0.0641,-0.0327,-0.204,0.265,0.3356,1.1234,2.0206,2.3152,1.7928,1.4703,1.5529,2.1083,1.6408,1.3696,1.4099,0.3861,0.4454,0.4685,0.2178,0.3601,-0.1514,-0.1211
1.8188,2.2236,1.8987,2.2201,1.7519,1.3839,0.2735,0.375,0.0411,-0.1011,-0.2582,0.2312,0.2375,1.0443,1.8765,2.3144,1.7659,1.4018,1.5925,2.1039,1.6179,1.3463,1.4176,0.3192,0.4401,0.4948,0.158,0.3158,-0.1464,0.0052
1.7877,2.1713,1.9411,2.1912,1.7256,1.3698,0.1833,0.3667,-0.0085,-0.1911,-0.3417,0.1682,0.1141,0.9325,1.7118,2.2798,1.7237,1.3184,1.6227,2.0648,1.5657,1.2973,1.4077,0.2358,0.4153,0.4829,0.067,0.2448,-0.1538,0.1391
1.7143,2.0975,1.9289,2.1331,1.6713,1.3282,0.0808,0.3547,-0.0782,-0.2881,-0.4454,0.0843,-0.0154,0.8067,1.5556,2.2208,1.6755,1.2351,1.6428,2.0035,1.4998,1.2338,1.3872,0.1501,0.3747,0.4364,-0.0424,0.1561,-0.1691,0.2576
1.6137,2.0164,1.8792,2.0601,1.604,1.2732,-0.017,0.3468,-0.1569,-0.3771,-0.5545,-0.008,-0.1345,0.6841,1.4321,2.1479,1.6292,1.1647,1.6524,1.933,1.4347,1.168,1.3649,0.0751,0.3241,0.3639,-0.1547,0.0615,-0.1881,0.3427
1.5024,1.9384,1.8116,1.9839,1.5358,1.2163,-0.098,0.3481,-0.2319,-0.4456,-0.652,-0.095,-0.2322,0.5772,1.3561,2.0703,1.5897,1.116,1.6508,1.8634,1.3804,1.1098,1.3489,0.0201,0.2704,0.2776,-0.2549,-0.0276,-0.2083,0.3844
1.3941,1.8689,1.7421,1.9121,1.4739,1.1649,-0.1568,0.36,-0.2921,-0.4867,-0.7235,-0.1646,-0.3051,0.4918,1.3309,1.9933,1.558,1.0917,1.6375,1.8007,1.3404,1.0658,1.3453,-0.0111,0.2199,0.1899,-0.3311,-0.1022,-0.2294,0.382
1.2968,1.8078,1.6788,1.8476,1.42,1.1211,-0.1948,0.3815,-0.3293,-0.4997,-0.7597,-0.2093,-0.3568,0.4273,1.3472,1.9187,1.5319,1.0886,1.613,1.7458,1.3127,1.0381,1.3556,-0.0203,0.1771,0.1108,-0.3764,-0.158,-0.253,0.344
1.2118,1.751,1.6214,1.79,1.3726,1.0838,-0.2179,0.4098,-0.34,-0.4893,-0.7587,-0.2263,-0.3949,0.3789,1.3866,1.8452,1.5078,1.0988,1.5796,1.6967,1.2916,1.025,1.3759,-0.0138,0.1441,0.0467,-0.3902,-0.1958,-0.2815,0.2857
1.1353,1.6928,1.5621,1.7372,1.3289,1.0504,-0.2331,0.4422,-0.3244,-0.4638,-0.7256,-0.218,-0.4282,0.3404,1.4258,1.7708,1.4818,1.1116,1.5412,1.6504,1.2709,1.0221,1.3983,-0.0001,0.1205,0,-0.3771,-0.2201,-0.3172,0.2264
1.0621,1.6282,1.4911,1.6874,1.2873,1.0184,-0.2461,0.4765,-0.2857,-0.4318,-0.6703,-0.19,-0.462,0.3073,1.4435,1.6944,1.4513,1.1176,1.5021,1.6048,1.2462,1.0239,1.4143,0.0124,0.1049,-0.0298,-0.3449,-0.2374,-0.3614,0.1845
0.988,1.5543,1.4013,1.64,1.2482,0.9873,-0.2584,0.5118,-0.2281,-0.4,-0.6048,-0.1497,-0.4968,0.278,1.4261,1.6172,1.4156,1.1104,1.4656,1.5597,1.2162,1.0255,1.4176,0.0179,0.0956,-0.0447,-0.3025,-0.2536,-0.414,0.1724
0.9122,1.4709,1.2927,1.5952,1.214,0.9586,-0.2674,0.5483,-0.156,-0.3712,-0.5403,-0.1039,-0.5273,0.2545,1.3718,1.5424,1.3755,1.0888,1.4332,1.5166,1.1829,1.0234,1.4069,0.0145,0.0919,-0.0474,-0.2582,-0.2726,-0.4732,0.1937
0.8369,1.3803,1.1737,1.5537,1.1882,0.9355,-0.2671,0.587,-0.0731,-0.3441,-0.4853,-0.0581,-0.5441,0.2414,1.2898,1.4734,1.3332,1.0563,1.404,1.4773,1.15,1.0161,1.3845,0.0036,0.094,-0.0407,-0.2177,-0.295,-0.5355,0.2416
0.7655,1.2864,1.0588,1.5149,1.1734,0.9211,-0.2506,0.6291,0.0174,-0.3143,-0.4438,-0.0161,-0.5367,0.2435,1.1963,1.4123,1.2906,1.0187,1.3755,1.4425,1.121,1.0038,1.355,-0.0103,0.1017,-0.0275,-0.1843,-0.3193,-0.5954,0.3014
0.7015,1.1936,0.9643,1.4771,1.1698,0.9181,-0.2122,0.676,0.112,-0.2764,-0.416,0.0201,-0.4972,0.2638,1.1084,1.3581,1.2483,0.9811,1.3443,1.4103,1.0976,0.9874,1.3217,-0.0214,0.1143,-0.0115,-0.1586,-0.3418,-0.6459,0.3553
0.6464,1.1055,0.9028,1.4369,1.1748,0.9268,-0.15,0.7284,0.2062,-0.2266,-0.3983,0.0496,-0.4224,0.302,1.0375,1.3063,1.205,0.9462,1.3068,1.3765,1.0786,0.9677,1.2857,-0.0244,0.1298,0.0043,-0.1391,-0.3585,-0.6793,0.3879
0.6001,1.0241,0.8795,1.3901,1.1835,0.9452,-0.0664,0.7861,0.295,-0.1637,-0.385,0.0726,-0.3154,0.3539,0.9864,1.2495,1.157,0.9128,1.2596,1.3346,1.0597,0.9443,1.2455,-0.0153,0.1458,0.0178,-0.1228,-0.3661,-0.6881,0.3899
0.5606,0.9494,0.8904,1.3328,1.1893,0.969,0.0317,0.8478,0.3733,-0.0906,-0.3698,0.09,-0.1847,0.4123,0.9499,1.1796,1.0992,0.877,1.1991,1.2777,1.035,0.9157,1.1987,0.007,0.1607,0.0299,-0.1062,-0.3623,-0.6672,0.3605
0.5247,0.8798,0.9247,1.2625,1.186,0.9921,0.1348,0.9108,0.4365,-0.0127,-0.3474,0.1039,-0.0426,0.4687,0.9181,1.0894,1.0264,0.8343,1.1227,1.2002,0.9984,0.8795,1.1438,0.0415,0.1746,0.0438,-0.0857,-0.3464,-0.6158,0.3052
0.4892,0.8119,0.968,1.1779,1.1688,1.0085,0.2329,0.9717,0.4818,0.063,-0.3144,0.1168,0.0985,0.5152,0.8811,0.975,0.9352,0.7813,1.0285,1.0994,0.9451,0.8335,1.0814,0.0853,0.1895,0.0647,-0.0582,-0.319,-0.5376,0.2336
0.4513,0.7416,1.0066,1.0799,1.1352,1.0132,0.3179,1.027,0.5077,0.1308,-0.27,0.1322,0.2285,0.5472,0.8322,0.8369,0.8252,0.718,0.9173,0.9759,0.8738,0.7769,1.0152,0.1359,0.2092,0.0973,-0.0212,-0.2814,-0.4413,0.1568
0.4091,0.6651,1.0294,0.9702,1.0853,1.003,0.3852,1.073,0.5147,0.1869,-0.2154,0.1537,0.342,0.5643,0.7689,0.6793,0.7002,0.647,0.7926,0.8342,0.7866,0.7112,0.9503,0.1916,0.2374,0.1438,0.0272,-0.2357,-0.3395,0.085
0.3612,0.5789,1.0293,0.8513,1.021,0.9767,0.4342,1.1066,0.5046,0.2312,-0.1533,0.1844,0.4385,0.5695,0.692,0.5098,0.5667,0.5732,0.6612,0.6808,0.6889,0.6405,0.8922,0.2522,0.2766,0.2028,0.0883,-0.1843,-0.2465,0.0276
0.3062,0.4805,1.002,0.7254,0.9447,0.9347,0.4675,1.1255,0.4813,0.2657,-0.0869,0.2268,0.5208,0.5681,0.6036,0.3366,0.4328,0.5016,0.5313,0.5231,0.587,0.5699,0.845,0.318,0.3269,0.269,0.1612,-0.1298,-0.1761,-0.0081
0.2421,0.3684,0.9456,0.5936,0.8586,0.8779,0.4895,1.1281,0.4498,0.2946,-0.0194,0.2816,0.5922,0.5646,0.5052,0.1669,0.3058,0.436,0.4109,0.3668,0.4866,0.5041,0.8097,0.3877,0.3858,0.3352,0.2419,-0.0751,-0.139,-0.0167
0.1663,0.242,0.8593,0.456,0.7635,0.8067,0.5038,1.1135,0.4156,0.3216,0.0461,0.3479,0.6543,0.5603,0.3981,0.0047,0.1898,0.3773,0.3047,0.215,0.3901,0.4452,0.7845,0.4567,0.4486,0.3937,0.3229,-0.0226,-0.141,0.0037
0.0761,0.1015,0.7434,0.3115,0.6584,0.7207,0.5118,1.082,0.3837,0.3491,0.1068,0.4222,0.7045,0.5516,0.2837,-0.1501,0.0847,0.3239,0.2126,0.0667,0.2954,0.3915,0.764,0.5166,0.509,0.4387,0.3932,0.0257,-0.1815,0.05
-0.0306,-0.0524,0.5996,0.1581,0.5408,0.6182,0.5118,1.0342,0.3567,0.3768,0.1598,0.4995,0.7361,0.5299,0.1645,-0.3013,-0.0141,0.2715,0.1289,-0.0823,0.1964,0.3374,0.7403,0.5556,0.5606,0.4668,0.4403,0.0678,-0.2538,0.1147
-0.1541,-0.2179,0.4308,-0.0058,0.407,0.4971,0.4992,0.9714,0.335,0.4017,0.202,0.5729,0.7387,0.4837,0.044,-0.455,-0.1142,0.214,0.044,-0.2385,0.0838,0.2746,0.704,0.5615,0.5976,0.4775,0.4529,0.102,-0.3472,0.1864
-0.2918,-0.3922,0.2423,-0.1808,0.2544,0.356,0.4682,0.8956,0.3168,0.419,0.2309,0.6354,0.7018,0.4009,-0.0738,-0.6171,-0.2241,0.1453,-0.0531,-0.4079,-0.0516,0.194,0.6454,0.5247,0.6162,0.4728,0.424,0.1266,-0.4492,0.2529
-0.4388,-0.5713,0.0408,-0.3652,0.0818,0.1955,0.4139,0.8098,0.2995,0.424,0.2451,0.6814,0.6176,0.273,-0.1852,-0.7908,-0.3505,0.0604,-0.1716,-0.5943,-0.2167,0.0888,0.5575,0.4411,0.6146,0.4566,0.3527,0.1404,-0.5488,0.304
-0.5879,-0.7498,-0.1661,-0.5544,-0.1086,0.0194,0.3343,0.7186,0.2816,0.4134,0.2457,0.7075,0.484,0.0974,-0.287,-0.9754,-0.4961,-0.0422,-0.3167,-0.7971,-0.413,-0.0437,0.4382,0.3142,0.5941,0.4349,0.2458,0.1437,-0.6386,0.3337
-0.7312,-0.9222,-0.3707,-0.7424,-0.3114,-0.1662,0.2316,0.6282,0.2635,0.3868,0.2356,0.714,0.3062,-0.1205,-0.3771,-1.1656,-0.6593,-0.1606,-0.488,-1.0112,-0.6363,-0.2009,0.2912,0.1545,0.5586,0.4143,0.1163,0.1381,-0.7153,0.3412
-0.8606,-1.0842,-0.5656,-0.9231,-0.5189,-0.3528,0.1126,0.5455,0.2477,0.3471,0.2196,0.7043,0.097,-0.3682,-0.4544,-1.3533,-0.8335,-0.2889,-0.6792,-1.228,-0.8767,-0.3752,0.1263,-0.0212,0.514,0.4012,-0.0183,0.1269,-0.7794,0.3302
-0.9699,-1.2339,-0.7435,-1.0919,-0.7225,-0.5317,-0.013,0.4774,0.2376,0.2999,0.2026,0.6839,-0.1257,-0.6276,-0.5181,-1.5292,-1.0091,-0.4187,-0.8791,-1.4372,-1.1205,-0.5548,-0.043,-0.1936,0.4675,0.4003,-0.1396,0.1141,-0.8327,0.3067
-1.0555,-1.3719,-0.8972,-1.2473,-0.914,-0.6951,-0.1343,0.4283,0.2362,0.2517,0.1884,0.659,-0.3412,-0.8784,-0.5683,-1.6857,-1.1749,-0.5405,-1.0731,-1.6288,-1.3527,-0.7264,-0.2021,-0.3435,0.4256,0.4135,-0.2314,0.1034,-0.8764,0.2767
-1.1167,-1.5008,-1.0194,-1.39,-1.0872,-0.8375,-0.2413,0.3992,0.2451,0.2089,0.1789,0.635,-0.5298,-1.1008,-0.6051,-1.8175,-1.3198,-0.6455,-1.246,-1.795,-1.5591,-0.8769,-0.338,-0.4554,0.3932,0.4391,-0.2826,0.0976,-0.9089,0.2441
-1.1556,-1.6228,-1.1042,-1.5221,-1.2377,-0.9556,-0.3271,0.3869,0.2634,0.1756,0.1741,0.6155,-0.6753,-1.2784,-0.629,-1.9227,-1.4353,-0.727,-1.3844,-1.9306,-1.7283,-0.9961,-0.4416,-0.5192,0.372,0.4722,-0.289,0.0978,-0.9262,0.2092
-1.1765,-1.738,-1.148,-1.6444,-1.3628,-1.0483,-0.3883,0.3847,0.2883,0.1537,0.1729,0.602,-0.7677,-1.4004,-0.6413,-2.0016,-1.516,-0.7818,-1.4796,-2.0332,-1.8528,-1.0779,-0.5086,-0.5314,0.361,0.5061,-0.2529,0.1035,-0.9225,0.17
-1.1849,-1.8434,-1.1527,-1.7549,-1.4608,-1.1156,-0.4247,0.3849,0.3156,0.1426,0.1742,0.5942,-0.8035,-1.4623,-0.6453,-2.0561,-1.5612,-0.81,-1.5292,-2.1026,-1.9292,-1.1209,-0.5408,-0.4953,0.3568,0.534,-0.1821,0.113,-0.8931,0.1239
-1.1872,-1.9328,-1.1265,-1.8483,-1.5303,-1.1583,-0.4385,0.3806,0.3411,0.1404,0.1771,0.5906,-0.7852,-1.4659,-0.6464,-2.0883,-1.5742,-0.816,-1.5371,-2.1402,-1.9579,-1.1289,-0.545,-0.4197,0.3552,0.5509,-0.0882,0.1237,-0.8354,0.0695
-1.1897,-1.9979,-1.085,-1.9164,-1.5698,-1.177,-0.4329,0.3687,0.361,0.1449,0.1818,0.5891,-0.7207,-1.4181,-0.652,-2.1005,-1.5614,-0.8067,-1.5123,-2.1488,-1.9431,-1.1089,-0.5322,-0.3172,0.3523,0.5543,0.0164,0.1325,-0.7506,0.0085
-1.1984,-2.0301,-1.0476,-1.9501,-1.5781,-1.1723,-0.4106,0.3507,0.3733,0.1553,0.1894,0.5881,-0.621,-1.3297,-0.6695,-2.0946,-1.5306,-0.7897,-1.4666,-2.1317,-1.8913,-1.0704,-0.5151,-0.2022,0.3454,0.5449,0.1197,0.137,-0.6435,-0.0548
-1.217,-2.0235,-1.0333,-1.9423,-1.5548,-1.1443,-0.3734,0.3328,0.3778,0.172,0.2014,0.5869,-0.498,-1.2129,-0.7043,-2.0723,-1.4898,-0.7722,-1.4117,-2.0924,-1.81,-1.0229,-0.5048,-0.0885,0.3337,0.526,0.2124,0.1355,-0.5215,-0.1148
-1.2458,-1.976,-1.0543,-1.89,-1.5006,-1.0936,-0.3219,0.3237,0.3765,0.197,0.2192,0.5864,-0.3632,-1.0793,-0.7579,-2.0356,-1.4452,-0.7588,-1.3573,-2.0347,-1.7072,-0.9741,-0.5079,0.0132,0.3182,0.5023,0.2885,0.128,-0.3938,-0.1658
-1.2809,-1.8915,-1.1113,-1.7962,-1.4181,-1.0215,-0.2562,0.3327,0.3725,0.2326,0.2435,0.5887,-0.2257,-0.9385,-0.8262,-1.9864,-1.4014,-0.751,-1.3098,-1.9617,-1.5898,-0.9289,-0.5254,0.0957,0.3017,0.4791,0.3452,0.1159,-0.2701,-0.2044
-1.315,-1.7791,-1.1925,-1.67,-1.3122,-0.9304,-0.177,0.3659,0.3682,0.2803,0.2737,0.5966,-0.0921,-0.7973,-0.9011,-1.9267,-1.3606,-0.7479,-1.2719,-1.8761,-1.4631,-0.8887,-0.5529,0.1565,0.2882,0.4619,0.3823,0.1023,-0.159,-0.23
-1.3395,-1.6516,-1.2763,-1.5251,-1.1903,-0.8248,-0.0866,0.4246,0.365,0.3395,0.3075,0.6122,0.0335,-0.6593,-0.9712,-1.8584,-1.323,-0.7463,-1.2426,-1.7798,-1.3308,-0.8519,-0.5828,0.1966,0.2819,0.4551,0.4012,0.091,-0.068,-0.2447
-1.3475,-1.5233,-1.3379,-1.377,-1.0611,-0.711,0.0108,0.5032,0.362,0.4071,0.3408,0.6358,0.1487,-0.5266,-1.0254,-1.783,-1.2869,-0.7424,-1.2184,-1.674,-1.1953,-0.8152,-0.6068,0.2195,0.2862,0.4618,0.404,0.0853,-0.0021,-0.2529
-1.3356,-1.4062,-1.3564,-1.2395,-0.9333,-0.596,0.1089,0.5907,0.3571,0.4776,0.3684,0.665,0.2524,-0.3999,-1.0553,-1.7012,-1.2495,-0.733,-1.1939,-1.5599,-1.058,-0.7746,-0.6188,0.2294,0.302,0.4829,0.393,0.0872,0.0361,-0.2593
-1.3055,-1.3077,-1.3208,-1.1219,-0.8143,-0.487,0.2005,0.6726,0.3474,0.5444,0.3857,0.6946,0.3434,-0.2805,-1.0579,-1.6133,-1.2073,-0.7158,-1.1628,-1.4383,-0.9202,-0.7271,-0.6164,0.2306,0.3274,0.5164,0.3712,0.0968,0.0467,-0.2667
-1.2626,-1.2298,-1.2328,-1.0272,-0.7088,-0.3896,0.2789,0.7347,0.3312,0.6012,0.3897,0.7176,0.4205,-0.1699,-1.0362,-1.5189,-1.1567,-0.6904,-1.1194,-1.3102,-0.7832,-0.6708,-0.6012,0.2269,0.3576,0.5564,0.3419,0.1116,0.0322,-0.2755
-1.2146,-1.1686,-1.1064,-0.9521,-0.6182,-0.3066,0.3395,0.7669,0.3091,0.6438,0.3809,0.7268,0.4827,-0.0705,-0.9984,-1.418,-1.095,-0.6581,-1.0591,-1.1771,-0.6485,-0.6058,-0.578,0.2214,0.3861,0.5938,0.3095,0.128,-0.003,-0.2829
-1.1692,-1.1173,-0.964,-0.8892,-0.5408,-0.2384,0.3808,0.7662,0.284,0.6708,0.3638,0.7169,0.5296,0.0152,-0.9553,-1.3109,-1.0211,-0.6209,-0.9803,-1.0413,-0.5186,-0.5342,-0.552,0.2175,0.4061,0.6176,0.2794,0.1424,-0.0529,-0.2844
-1.1326,-1.0678,-0.8303,-0.8298,-0.4737,-0.183,0.4045,0.737,0.2613,0.6841,0.3466,0.6869,0.5619,0.0849,-0.9162,-1.1997,-0.9356,-0.5806,-0.8844,-0.9057,-0.3961,-0.459,-0.5267,0.2182,0.4122,0.6188,0.2574,0.1531,-0.1109,-0.2762
-1.1081,-1.0139,-0.7267,-0.7668,-0.4135,-0.1377,0.4147,0.6898,0.2475,0.6878,0.3392,0.6408,0.5808,0.1373,-0.8851,-1.0875,-0.8413,-0.5371,-0.7771,-0.7744,-0.2846,-0.3845,-0.5013,0.2266,0.4015,0.5924,0.2487,0.1609,-0.1711,-0.2574
-1.096,-0.9532,-0.6659,-0.6976,-0.3588,-0.1005,0.4167,0.6373,0.2482,0.6869,0.3503,0.5869,0.5882,0.1719,-0.8594,-0.9798,-0.7429,-0.489,-0.6673,-0.6523,-0.1882,-0.3151,-0.471,0.2443,0.3749,0.5408,0.2567,0.169,-0.2286,-0.2311
-1.0941,-0.888,-0.6504,-0.6256,-0.3111,-0.0718,0.4144,0.5903,0.2666,0.685,0.3845,0.5363,0.5856,0.1885,-0.8323,-0.8827,-0.6469,-0.4346,-0.5657,-0.545,-0.1111,-0.2549,-0.4289,0.2713,0.3369,0.4739,0.2819,0.1819,-0.2806,-0.2029
-1.0988,-0.8249,-0.6734,-0.5587,-0.2745,-0.0542,0.4096,0.5546,0.3016,0.6834,0.4403,0.5001,0.5731,0.1873,-0.7967,-0.8029,-0.5604,-0.3734,-0.4824,-0.4577,-0.0572,-0.2068,-0.3687,0.3044,0.2951,0.4075,0.3214,0.2036,-0.3259,-0.1783
-1.1067,-0.7727,-0.7218,-0.5074,-0.2542,-0.0517,0.4014,0.5293,0.3473,0.6802,0.5099,0.4863,0.5497,0.1691,-0.75,-0.7453,-0.4898,-0.3075,-0.4235,-0.3943,-0.029,-0.1718,-0.2889,0.3384,0.2593,0.3604,0.369,0.2363,-0.3649,-0.1593
-1.1145,-0.7392,-0.7809,-0.4805,-0.2545,-0.0677,0.3868,0.5086,0.3946,0.6714,0.5807,0.4989,0.5142,0.1353,-0.696,-0.7117,-0.4395,-0.2419,-0.3903,-0.3562,-0.0267,-0.1486,-0.1933,0.3668,0.2394,0.3494,0.4173,0.2795,-0.3985,-0.1432
-1.1198,-0.7293,-0.837,-0.4826,-0.2765,-0.103,0.3626,0.4843,0.4331,0.6525,0.6387,0.5366,0.466,0.0886,-0.6441,-0.7,-0.4105,-0.1832,-0.3783,-0.3413,-0.0474,-0.1341,-0.0912,0.3842,0.2432,0.3859,0.4588,0.3299,-0.4276,-0.1234
-1.1212,-0.742,-0.8794,-0.5113,-0.3169,-0.1545,0.3272,0.4497,0.4541,0.62,0.6704,0.5937,0.4063,0.0338,-0.6049,-0.7043,-0.4004,-0.138,-0.3791,-0.3442,-0.085,-0.1235,0.0052,0.3872,0.2747,0.4721,0.4879,0.3826,-0.4523,-0.093
-1.1174,-0.7708,-0.9011,-0.5577,-0.3681,-0.2148,0.2814,0.4024,0.4525,0.5731,0.6658,0.6606,0.3389,-0.023,-0.5861,-0.7158,-0.4037,-0.1101,-0.3831,-0.3571,-0.131,-0.1118,0.0841,0.3763,0.3317,0.5996,0.5018,0.4312,-0.4716,-0.0488
-1.1075,-0.8042,-0.8983,-0.6077,-0.4193,-0.2733,0.2289,0.3449,0.4285,0.5144,0.62,0.7262,0.2701,-0.0742,-0.5888,-0.725,-0.4126,-0.0999,-0.3814,-0.3708,-0.1754,-0.0944,0.1373,0.355,0.4059,0.7501,0.5013,0.4686,-0.4827,0.0066
-1.0899,-0.8286,-0.8692,-0.6457,-0.4589,-0.3182,0.1761,0.2839,0.3866,0.449,0.534,0.7791,0.2071,-0.1128,-0.607,-0.7236,-0.4194,-0.104,-0.3685,-0.3774,-0.2089,-0.0687,0.1616,0.3298,0.4838,0.8981,0.4894,0.4884,-0.4821,0.0647
-1.0618,-0.8307,-0.8125,-0.6579,-0.4764,-0.3389,0.1301,0.2285,0.335,0.3838,0.4147,0.8103,0.157,-0.1331,-0.6292,-0.7063,-0.4178,-0.1168,-0.3428,-0.3709,-0.2246,-0.0347,0.1589,0.3075,0.5494,1.0158,0.4708,0.4854,-0.4661,0.1133
-1.0192,-0.8011,-0.7275,-0.6358,-0.4652,-0.3282,0.0978,0.1877,0.2828,0.3265,0.2744,0.814,0.1253,-0.1319,-0.6426,-0.6715,-0.4046,-0.1322,-0.3068,-0.3492,-0.2189,0.0051,0.1347,0.2936,0.5874,1.0783,0.4498,0.4569,-0.4318,0.1413
-0.9576,-0.7352,-0.6141,-0.5774,-0.4232,-0.2831,0.0842,0.1689,0.2385,0.2839,0.1281,0.7891,0.1144,-0.1095,-0.6364,-0.6216,-0.3799,-0.1458,-0.2657,-0.3135,-0.1927,0.0457,0.0958,0.2904,0.5866,1.0695,0.4293,0.4034,-0.3781,0.1417
-0.8734,-0.6344,-0.4743,-0.4874,-0.3532,-0.2058,0.0919,0.1771,0.2083,0.2612,-0.0086,0.7381,0.124,-0.0692,-0.6046,-0.5609,-0.3469,-0.1551,-0.2261,-0.2677,-0.15,0.0814,0.0491,0.2964,0.542,0.9854,0.4099,0.329,-0.3061,0.1142
-0.765,-0.5044,-0.3132,-0.3745,-0.262,-0.1031,0.12,0.2134,0.1956,0.2611,-0.1223,0.6669,0.1507,-0.0165,-0.5459,-0.4946,-0.3103,-0.1596,-0.1945,-0.2168,-0.0972,0.1065,0.0005,0.3068,0.4567,0.8358,0.3899,0.241,-0.2191,0.0643
-0.6345,-0.3549,-0.1397,-0.2497,-0.1588,0.015,0.1649,0.2753,0.2014,0.2828,-0.2035,0.5825,0.1893,0.0418,-0.4627,-0.4267,-0.2746,-0.1591,-0.1758,-0.1655,-0.0414,0.1179,-0.0445,0.315,0.3412,0.642,0.3667,0.149,-0.122,0.0008
-0.4879,-0.1967,0.0343,-0.1237,-0.0537,0.1364,0.2201,0.3558,0.2249,0.3223,-0.2479,0.4925,0.2337,0.099,-0.36,-0.3598,-0.2428,-0.1534,-0.1717,-0.1172,0.0112,0.115,-0.0814,0.3142,0.2118,0.4335,0.3376,0.063,-0.0209,-0.066
-0.3346,-0.0413,0.1955,-0.0059,0.0436,0.249,0.2775,0.4447,0.2635,0.3724,-0.2563,0.4034,0.277,0.1487,-0.2445,-0.2948,-0.2157,-0.1419,-0.1803,-0.0735,0.0559,0.1007,-0.107,0.2992,0.0872,0.2411,0.3006,-0.0081,0.078,-0.1264
-0.1856,0.1013,0.3314,0.0969,0.1252,0.3417,0.3279,0.5294,0.3132,0.4238,-0.2342,0.3208,0.3126,0.1858,-0.1251,-0.2314,-0.192,-0.1246,-0.1958,-0.035,0.0897,0.0804,-0.1203,0.2671,-0.0156,0.0922,0.2553,-0.0584,0.1692,-0.1722
-0.052,0.2231,0.433,0.1797,0.1855,0.4066,0.3632,0.597,0.3687,0.4672,-0.1906,0.2488,0.3342,0.206,-0.0118,-0.1693,-0.1687,-0.1021,-0.2092,-0.0012,0.111,0.0606,-0.1227,0.2176,-0.0843,0.0049,0.2024,-0.0858,0.2484,-0.1964
0.0571,0.3193,0.497,0.2398,0.2215,0.4397,0.377,0.6369,0.4237,0.4946,-0.1358,0.1902,0.3367,0.2065,0.0848,-0.1084,-0.1426,-0.0764,-0.2108,0.0286,0.1192,0.048,-0.1179,0.1532,-0.1141,-0.0143,0.1439,-0.0924,0.3129,-0.1944
0.1362,0.3882,0.5264,0.2766,0.2331,0.4415,0.366,0.6425,0.4715,0.5011,-0.0805,0.1464,0.3167,0.1862,0.1567,-0.0497,-0.1109,-0.0499,-0.1921,0.0546,0.1145,0.0474,-0.1093,0.0787,-0.1077,0.0281,0.083,-0.0834,0.3613,-0.1649
0.1838,0.4315,0.5297,0.2916,0.223,0.4163,0.3311,0.6127,0.506,0.4854,-0.0331,0.1167,0.2735,0.146,0.2005,0.0053,-0.0725,-0.0244,-0.1497,0.0763,0.0977,0.0612,-0.0988,0.0012,-0.0734,0.1145,0.023,-0.0663,0.3935,-0.111
0.2031,0.4537,0.5187,0.2886,0.1961,0.3716,0.2765,0.5526,0.5224,0.4497,0.0007,0.0991,0.2096,0.0893,0.2199,0.0545,-0.0287,-0.0005,-0.0864,0.0931,0.0702,0.0888,-0.0848,-0.0716,-0.0225,0.2211,-0.0323,-0.0485,0.409,-0.0406
0.2007,0.4612,0.5058,0.273,0.1592,0.3165,0.2096,0.4715,0.5181,0.3984,0.0187,0.0907,0.1307,0.0214,0.225,0.0961,0.0174,0.0235,-0.0111,0.1038,0.0343,0.1264,-0.0625,-0.1317,0.0345,0.3231,-0.0792,-0.036,0.4073,0.0343
0.1855,0.4608,0.501,0.2511,0.1192,0.2598,0.1388,0.3819,0.4933,0.3372,0.0216,0.0883,0.0448,-0.0508,0.2302,0.1287,0.0615,0.0505,0.0633,0.1079,-0.0073,0.1683,-0.026,-0.1731,0.0895,0.4005,-0.1141,-0.0318,0.3872,0.1011
0.1663,0.4583,0.5095,0.229,0.0822,0.2084,0.0724,0.2957,0.4511,0.2715,0.0121,0.0894,-0.0389,-0.1198,0.2487,0.1519,0.0999,0.0831,0.1247,0.1054,-0.0513,0.2083,0.0288,-0.1924,0.138,0.4416,-0.1334,-0.0361,0.3475,0.1497
0.1499,0.4572,0.5306,0.2112,0.0519,0.1666,0.0163,0.2222,0.3972,0.2055,-0.0061,0.0927,-0.1115,-0.179,0.2884,0.1658,0.13,0.1227,0.1647,0.097,-0.094,0.2409,0.1015,-0.1896,0.1787,0.4438,-0.1341,-0.0465,0.2882,0.1754
0.1394,0.4581,0.5578,0.1996,0.0292,0.1352,-0.0264,0.1659,0.3389,0.1423,-0.0297,0.0979,-0.1665,-0.2238,0.3481,0.1712,0.1509,0.1678,0.1814,0.0841,-0.1324,0.2623,0.1864,-0.1681,0.2117,0.4124,-0.1144,-0.0593,0.2115,0.1798
0.1341,0.4585,0.5813,0.1936,0.0124,0.1123,-0.0561,0.1269,0.2835,0.0839,-0.0563,0.1057,-0.2,-0.2517,0.4174,0.1687,0.1634,0.2142,0.1788,0.0679,-0.1644,0.2711,0.2735,-0.1337,0.2378,0.358,-0.0743,-0.0703,0.1227,0.1702
0.1305,0.4536,0.5902,0.1895,-0.0022,0.094,-0.0756,0.1013,0.237,0.0325,-0.084,0.1176,-0.2115,-0.2632,0.4799,0.1582,0.1686,0.2556,0.1647,0.0488,-0.1895,0.268,0.3516,-0.0938,0.2572,0.2934,-0.0164,-0.0765,0.0298,0.1565
0.1235,0.4373,0.5768,0.1819,-0.0189,0.076,-0.0887,0.0839,0.2035,-0.0095,-0.1113,0.1349,-0.2037,-0.2611,0.517,0.1391,0.167,0.2852,0.1474,0.0263,-0.2085,0.2548,0.4107,-0.0559,0.2696,0.2308,0.0544,-0.0759,-0.0577,0.1485
0.1086,0.4042,0.5384,0.1648,-0.041,0.0548,-0.0992,0.0694,0.1853,-0.0392,-0.1364,0.1587,-0.1816,-0.2495,0.5135,0.1103,0.1584,0.2969,0.1332,-0.001,-0.2231,0.2342,0.4448,-0.0262,0.2744,0.1796,0.1311,-0.068,-0.1305,0.1535
0.0828,0.3514,0.4777,0.1334,-0.0705,0.0286,-0.1098,0.0544,0.183,-0.0535,-0.157,0.1893,-0.1509,-0.2334,0.4608,0.071,0.1419,0.2873,0.1255,-0.0345,-0.2356,0.209,0.4525,-0.0088,0.2709,0.1451,0.2059,-0.0538,-0.1814,0.1746
0.0443,0.2801,0.401,0.0866,-0.1062,-0.0018,-0.1213,0.0376,0.196,-0.0505,-0.1704,0.2256,-0.1175,-0.2169,0.3593,0.0216,0.1172,0.2563,0.1246,-0.075,-0.2475,0.182,0.4364,-0.005,0.2588,0.1282,0.2713,-0.0352,-0.2061,0.2102
-0.0074,0.1961,0.3151,0.0279,-0.1441,-0.0333,-0.1325,0.0205,0.2224,-0.0298,-0.1741,0.2661,-0.0855,-0.2019,0.2184,-0.0356,0.0855,0.2074,0.129,-0.121,-0.2588,0.1557,0.4014,-0.0129,0.2385,0.126,0.3222,-0.015,-0.2042,0.2544
-0.0716,0.1098,0.2261,-0.0343,-0.1775,-0.0605,-0.1403,0.0069,0.2593,0.0071,-0.1666,0.309,-0.0566,-0.1883,0.0556,-0.0964,0.0498,0.1479,0.1362,-0.1689,-0.2678,0.1325,0.3538,-0.0283,0.2119,0.1336,0.3563,0.005,-0.1792,0.2979
-0.1462,0.0335,0.1392,-0.0883,-0.1985,-0.0769,-0.14,0.0025,0.3024,0.0572,-0.1474,0.3535,-0.0301,-0.173,-0.1065,-0.155,0.0149,0.0872,0.1439,-0.2134,-0.2713,0.1147,0.2997,-0.0452,0.1819,0.146,0.3753,0.0237,-0.1379,0.3301
-0.2271,-0.0215,0.0598,-0.1232,-0.1998,-0.0763,-0.1271,0.0132,0.347,0.1165,-0.1177,0.3999,-0.0035,-0.1521,-0.244,-0.2054,-0.0141,0.0351,0.1497,-0.2486,-0.2654,0.1036,0.2445,-0.0574,0.1527,0.1596,0.3833,0.0416,-0.089,0.3409
-0.3076,-0.0481,-0.0056,-0.1318,-0.1772,-0.0551,-0.0983,0.0435,0.3891,0.1801,-0.0796,0.4496,0.0258,-0.1221,-0.3369,-0.2429,-0.0336,-0.0007,0.1515,-0.27,-0.2475,0.0995,0.1916,-0.0604,0.1286,0.1728,0.3862,0.0605,-0.0416,0.3232
-0.3787,-0.0463,-0.0496,-0.1135,-0.1315,-0.0136,-0.0536,0.0947,0.4262,0.2433,-0.0351,0.5045,0.0592,-0.0817,-0.372,-0.2656,-0.0425,-0.0166,0.147,-0.2758,-0.2173,0.1008,0.1431,-0.0523,0.1127,0.1856,0.3893,0.0824,-0.0033,0.2746
-0.4308,-0.0227,-0.065,-0.0747,-0.0689,0.0432,0.0036,0.1635,0.4585,0.3013,0.0141,0.5659,0.0955,-0.0338,-0.3461,-0.2745,-0.0431,-0.0133,0.1331,-0.268,-0.1777,0.1039,0.0991,-0.0349,0.1071,0.1995,0.3962,0.1088,0.0209,0.1977
-0.455,0.0106,-0.0476,-0.0274,0.0001,0.106,0.0661,0.2421,0.4883,0.3503,0.0669,0.6336,0.1306,0.0155,-0.2646,-0.2739,-0.0404,0.0047,0.1067,-0.2521,-0.1346,0.1038,0.0596,-0.0131,0.1116,0.216,0.4076,0.14,0.03,0.0986
-0.4459,0.04,0.0024,0.0145,0.0629,0.163,0.1247,0.3197,0.5186,0.3873,0.1221,0.7047,0.1587,0.0574,-0.1403,-0.2696,-0.0407,0.0308,0.0651,-0.235,-0.0957,0.0955,0.0247,0.0063,0.1245,0.2364,0.4213,0.1749,0.0264,-0.0136
-0.4032,0.0539,0.0776,0.0392,0.1075,0.2027,0.17,0.3843,0.5508,0.4104,0.1769,0.7738,0.1728,0.0825,0.0101,-0.2671,-0.0489,0.0587,0.0078,-0.2235,-0.0688,0.0755,-0.0046,0.0163,0.1434,0.2609,0.4333,0.2107,0.015,-0.1289
-0.3329,0.046,0.164,0.0406,0.126,0.2165,0.1941,0.4258,0.5836,0.4188,0.2265,0.8329,0.167,0.0836,0.1693,-0.2701,-0.0668,0.0839,-0.0621,-0.2221,-0.0595,0.043,-0.0264,0.0111,0.1653,0.2891,0.4386,0.2441,0.0011,-0.2374
-0.2463,0.0167,0.2427,0.0193,0.1156,0.2001,0.192,0.4371,0.6125,0.4124,0.2653,0.8736,0.1381,0.0576,0.3211,-0.2792,-0.0917,0.1049,-0.1367,-0.2313,-0.0701,0.0013,-0.0392,-0.0122,0.1875,0.3203,0.4325,0.2718,-0.0109,-0.3298
-0.1583,-0.0271,0.2942,-0.0173,0.0799,0.1551,0.163,0.4161,0.6309,0.3917,0.2877,0.8887,0.0869,0.0068,0.4527,-0.2913,-0.1163,0.1231,-0.2041,-0.2473,-0.0982,-0.0425,-0.0415,-0.0527,0.2084,0.3541,0.4127,0.2916,-0.0191,-0.3983
-0.0826,-0.074,0.3039,-0.0579,0.0276,0.0882,0.1099,0.3649,0.6324,0.3577,0.2906,0.8744,0.0185,-0.0613,0.555,-0.2999,-0.131,0.1419,-0.2496,-0.2623,-0.137,-0.0787,-0.0319,-0.1056,0.2268,0.3907,0.3798,0.3027,-0.024,-0.437
-0.0288,-0.1113,0.2668,-0.09,-0.0297,0.0101,0.039,0.2895,0.6124,0.3122,0.2738,0.8314,-0.0587,-0.1351,0.6228,-0.2974,-0.1257,0.1649,-0.2598,-0.2673,-0.177,-0.0968,-0.0099,-0.1625,0.2425,0.4298,0.3378,0.3063,-0.0281,-0.442
-0.0008,-0.1285,0.1892,-0.104,-0.0801,-0.067,-0.0419,0.1981,0.5694,0.2578,0.2399,0.7645,-0.1347,-0.2023,0.6543,-0.2773,-0.0937,0.1944,-0.2254,-0.254,-0.2083,-0.0884,0.024,-0.2137,0.2558,0.4704,0.2928,0.3042,-0.0351,-0.4127
0.0032,-0.1201,0.0864,-0.0952,-0.1148,-0.1323,-0.1249,0.0997,0.5056,0.197,0.1925,0.6815,-0.2007,-0.2525,0.6509,-0.2367,-0.0341,0.2299,-0.1453,-0.2185,-0.2239,-0.0503,0.0673,-0.2501,0.267,0.5095,0.2518,0.2986,-0.0491,-0.352
-0.0113,-0.0865,-0.0214,-0.0647,-0.1298,-0.1787,-0.2036,0.0022,0.4262,0.1324,0.1357,0.5913,-0.2511,-0.2801,0.617,-0.1777,0.0475,0.2681,-0.0274,-0.1628,-0.2216,0.0145,0.1154,-0.2657,0.2765,0.5426,0.2202,0.2911,-0.0732,-0.2665
-0.0374,-0.0336,-0.1143,-0.0188,-0.1266,-0.2041,-0.2737,-0.0882,0.3387,0.0659,0.0729,0.5023,-0.2846,-0.2851,0.5611,-0.1074,0.1398,0.3042,0.1114,-0.0942,-0.2046,0.0966,0.1631,-0.2593,0.285,0.5648,0.2011,0.2822,-0.11,-0.1669
-0.0679,0.029,-0.1766,0.0335,-0.1107,-0.2111,-0.3332,-0.1674,0.2517,-0.0007,0.0071,0.4212,-0.3031,-0.2721,0.4961,-0.0357,0.2288,0.3341,0.2492,-0.0239,-0.1799,0.1826,0.2062,-0.2334,0.2938,0.5725,0.195,0.2718,-0.16,-0.0668
-0.096,0.0912,-0.1988,0.083,-0.0893,-0.2051,-0.3812,-0.2329,0.174,-0.066,-0.0582,0.3528,-0.3106,-0.248,0.438,0.0277,0.3016,0.3559,0.3639,0.0372,-0.1558,0.2591,0.2434,-0.1939,0.3047,0.5645,0.2002,0.2593,-0.2218,0.0196
-0.1152,0.1447,-0.1774,0.1231,-0.068,-0.1913,-0.4164,-0.2824,0.1129,-0.1277,-0.1193,0.3004,-0.3101,-0.219,0.4035,0.0764,0.3501,0.3715,0.4396,0.0817,-0.1383,0.3167,0.277,-0.1469,0.3194,0.5421,0.2139,0.2447,-0.2909,0.0801
-0.1196,0.1857,-0.1145,0.1519,-0.0495,-0.1731,-0.4364,-0.3132,0.0729,-0.1823,-0.1715,0.2657,-0.3024,-0.1878,0.4061,0.1098,0.3739,0.3859,0.4706,0.1083,-0.1284,0.3528,0.3125,-0.0973,0.3392,0.5087,0.2332,0.2283,-0.3607,0.1071
-0.1051,0.2151,-0.0166,0.1725,-0.0319,-0.1501,-0.4373,-0.3213,0.055,-0.2254,-0.2109,0.2491,-0.2849,-0.1531,0.4532,0.1324,0.3796,0.4058,0.4631,0.1224,-0.1218,0.372,0.3568,-0.0477,0.3632,0.4687,0.2558,0.2114,-0.4226,0.0996
-0.07,0.2387,0.1049,0.1922,-0.0098,-0.1189,-0.4144,-0.3032,0.0565,-0.252,-0.2348,0.2498,-0.2532,-0.1101,0.5444,0.1533,0.3795,0.4381,0.4324,0.1342,-0.1096,0.3841,0.4156,0.0022,0.3885,0.4257,0.2795,0.1957,-0.4684,0.0625
-0.0164,0.2646,0.236,0.2205,0.0236,-0.0747,-0.3641,-0.257,0.0722,-0.258,-0.243,0.2656,-0.2023,-0.0528,0.6716,0.1824,0.3875,0.4874,0.3989,0.1556,-0.0812,0.4011,0.491,0.0537,0.4101,0.3825,0.3027,0.1828,-0.4921,0.0051
0.0499,0.3014,0.361,0.266,0.0741,-0.0137,-0.2858,-0.1848,0.0956,-0.2412,-0.238,0.2931,-0.1297,0.0232,0.8204,0.2285,0.4159,0.5548,0.3824,0.1971,-0.0284,0.4332,0.5798,0.1085,0.4227,0.3408,0.324,0.1741,-0.4919,-0.0608
0.1212,0.3555,0.4661,0.3341,0.1446,0.0647,-0.1833,-0.0936,0.1215,-0.2023,-0.2243,0.328,-0.0368,0.1183,0.9724,0.2966,0.472,0.6369,0.3982,0.2646,0.0527,0.4862,0.6742,0.1671,0.4222,0.3025,0.3424,0.1701,-0.4707,-0.1228
0.1896,0.4295,0.5416,0.4249,0.2337,0.1576,-0.0649,0.0051,0.1464,-0.1454,-0.2072,0.3662,0.0702,0.2283,1.1089,0.3874,0.557,0.727,0.4534,0.3584,0.1595,0.5602,0.7636,0.2281,0.408,0.2698,0.3576,0.1709,-0.436,-0.1691
0.2486,0.5212,0.5837,0.5331,0.3358,0.2579,0.0572,0.0975,0.1701,-0.0771,-0.1905,0.4044,0.1808,0.3445,1.2136,0.4975,0.6658,0.8165,0.5471,0.4734,0.2839,0.6497,0.8383,0.2883,0.3834,0.246,0.3697,0.1768,-0.3979,-0.1902
0.2943,0.6243,0.5955,0.6492,0.4423,0.3567,0.1699,0.1707,0.1942,-0.0056,-0.1751,0.441,0.2829,0.4555,1.276,0.6205,0.7885,0.897,0.6703,0.6004,0.4137,0.7451,0.8925,0.3434,0.3551,0.2346,0.3795,0.1884,-0.3669,-0.18
0.3253,0.7296,0.5854,0.7612,0.5433,0.4444,0.2613,0.2157,0.2215,0.0614,-0.1593,0.4765,0.3647,0.5497,1.2938,0.748,0.9126,0.9626,0.8085,0.7283,0.5352,0.835,0.9264,0.3889,0.3313,0.2386,0.3883,0.2064,-0.3514,-0.1381
0.3415,0.8268,0.565,0.8573,0.6292,0.5133,0.3232,0.2301,0.2541,0.1184,-0.1389,0.5121,0.4179,0.6175,1.2728,0.8711,1.0259,1.0105,0.9446,0.846,0.636,0.9087,0.9455,0.4216,0.3192,0.2584,0.3976,0.2316,-0.3557,-0.07
0.3435,0.9071,0.5463,0.9279,0.6924,0.5585,0.3525,0.2177,0.2923,0.1626,-0.1105,0.5492,0.4387,0.6531,1.2261,0.9813,1.1183,1.0417,1.0623,0.944,0.707,0.9583,0.9574,0.4406,0.3233,0.2914,0.4093,0.2637,-0.3796,0.0128
0.3322,0.9642,0.5387,0.9669,0.7278,0.5786,0.3503,0.1872,0.3339,0.1939,-0.0725,0.588,0.4288,0.6549,1.1704,1.0715,1.1835,1.0589,1.1487,1.0158,0.7434,0.9794,0.9685,0.447,0.3437,0.3324,0.4246,0.3014,-0.4181,0.095
0.3083,0.9958,0.5466,0.9729,0.7334,0.5749,0.3216,0.1493,0.3737,0.2134,-0.0273,0.6269,0.3939,0.6255,1.1218,1.1368,1.2187,1.0656,1.1961,1.0581,0.7451,0.9713,0.981,0.4427,0.3773,0.3747,0.4435,0.342,-0.4631,0.1611
0.2736,1.0031,0.5687,0.9485,0.71,0.5505,0.2726,0.1139,0.4049,0.2226,0.0188,0.662,0.3417,0.5703,1.0923,1.1746,1.225,1.0643,1.2028,1.0711,0.7157,0.9363,0.9917,0.4295,0.418,0.4117,0.4639,0.382,-0.5051,0.1989
0.2311,0.99,0.5983,0.8998,0.6609,0.5096,0.2096,0.0874,0.4203,0.222,0.0568,0.6882,0.28,0.496,1.0871,1.1854,1.2064,1.0558,1.173,1.0577,0.6616,0.8787,0.9936,0.4084,0.4585,0.4385,0.4822,0.4172,-0.5355,0.2028
0.1852,0.9626,0.6258,0.8356,0.5916,0.4565,0.1376,0.0719,0.4137,0.2109,0.0769,0.6997,0.2148,0.4097,1.1041,1.1725,1.1691,1.04,1.1158,1.0238,0.5908,0.8044,0.9784,0.3791,0.4921,0.4522,0.4933,0.4424,-0.5484,0.1754
0.1415,0.9272,0.6402,0.7655,0.509,0.3952,0.0599,0.0655,0.3812,0.1873,0.0712,0.6923,0.1496,0.318,1.1363,1.1417,1.1205,1.0163,1.0431,0.9768,0.5117,0.7205,0.9403,0.3403,0.5139,0.4528,0.492,0.4531,-0.5418,0.1261
0.1061,0.89,0.6326,0.6989,0.4207,0.3291,-0.0217,0.0634,0.3219,0.149,0.036,0.6641,0.085,0.2259,1.1744,1.1001,1.0681,0.985,0.9668,0.9247,0.4321,0.6336,0.878,0.2909,0.5217,0.4418,0.474,0.4453,-0.5184,0.0685
0.0838,0.8554,0.5981,0.643,0.3337,0.2607,-0.1066,0.0598,0.2391,0.0945,-0.0267,0.6171,0.0197,0.137,1.2105,1.0547,1.0174,0.9473,0.8959,0.8748,0.3579,0.5497,0.7958,0.2307,0.5156,0.422,0.4371,0.4176,-0.4846,0.0154
0.0773,0.8259,0.5375,0.6017,0.2535,0.1918,-0.1947,0.0488,0.1403,0.0232,-0.1091,0.5568,-0.0492,0.0536,1.2395,1.011,0.9718,0.9058,0.8346,0.832,0.2928,0.4728,0.703,0.1606,0.4969,0.3959,0.3814,0.3714,-0.449,-0.0243
0.0863,0.802,0.4577,0.5754,0.1839,0.1239,-0.2854,0.0259,0.0365,-0.0636,-0.1992,0.4909,-0.124,-0.0236,1.2594,0.9721,0.9319,0.8632,0.7832,0.7988,0.2378,0.4057,0.6106,0.0838,0.4673,0.3652,0.3096,0.3106,-0.4195,-0.0479
0.107,0.7824,0.371,0.5613,0.1262,0.0586,-0.3771,-0.0115,-0.0597,-0.1621,-0.284,0.4274,-0.2061,-0.0942,1.2701,0.9385,0.8964,0.8218,0.7392,0.7745,0.1922,0.3499,0.5292,0.0045,0.4281,0.3303,0.2261,0.2411,-0.4014,-0.0582
0.1334,0.7648,0.2928,0.5539,0.0801,-0.0021,-0.4669,-0.0629,-0.1376,-0.2665,-0.3525,0.3722,-0.2949,-0.1582,1.2718,0.9084,0.8628,0.7823,0.6995,0.7563,0.1542,0.3062,0.4657,-0.0722,0.3804,0.2911,0.1366,0.169,-0.396,-0.0616
0.158,0.747,0.2381,0.5472,0.0442,-0.0553,-0.5501,-0.1241,-0.1908,-0.3693,-0.3984,0.3277,-0.3881,-0.2153,1.2637,0.8788,0.828,0.744,0.6617,0.7399,0.1216,0.2748,0.4224,-0.1414,0.3256,0.2472,0.0462,0.0996,-0.4009,-0.0649
0.1737,0.7275,0.2173,0.5362,0.0165,-0.0977,-0.6211,-0.1874,-0.2193,-0.4625,-0.4212,0.2924,-0.4815,-0.2651,1.2445,0.8463,0.7897,0.7051,0.6242,0.7207,0.0923,0.2555,0.3977,-0.2001,0.2662,0.1992,-0.0409,0.0363,-0.4108,-0.0736
0.1744,0.7062,0.2338,0.518,-0.0042,-0.1263,-0.6746,-0.2428,-0.2289,-0.5393,-0.4255,0.262,-0.5698,-0.3067,1.2132,0.8083,0.7463,0.6644,0.5869,0.6948,0.0654,0.2472,0.388,-0.2469,0.206,0.1488,-0.1224,-0.0193,-0.4198,-0.0907
0.1569,0.6842,0.2827,0.4932,-0.0179,-0.1387,-0.7063,-0.2809,-0.2284,-0.5947,-0.4192,0.231,-0.6474,-0.3387,1.1703,0.7644,0.6984,0.6216,0.5506,0.6605,0.0411,0.249,0.3897,-0.2823,0.15,0.0988,-0.197,-0.0676,-0.4228,-0.1162
0.1215,0.663,0.3523,0.4651,-0.0233,-0.1344,-0.7143,-0.2954,-0.226,-0.6265,-0.4108,0.1949,-0.7088,-0.3596,1.1184,0.716,0.6485,0.5793,0.5171,0.6184,0.0212,0.2599,0.401,-0.3077,0.1037,0.0528,-0.2645,-0.1089,-0.4171,-0.1481
0.0719,0.644,0.4275,0.4388,-0.0177,-0.1141,-0.6993,-0.2844,-0.2262,-0.635,-0.4068,0.1526,-0.7488,-0.3671,1.0619,0.6668,0.6009,0.5413,0.4895,0.5722,0.0088,0.2795,0.4217,-0.3246,0.0721,0.0154,-0.324,-0.1433,-0.4027,-0.1822
0.0152,0.6272,0.4937,0.42,0.0019,-0.08,-0.6639,-0.2506,-0.2286,-0.6226,-0.4099,0.1065,-0.7632,-0.3589,1.005,0.6216,0.5612,0.5123,0.4717,0.5273,0.0076,0.3081,0.4526,-0.3336,0.0589,-0.0094,-0.3737,-0.1695,-0.3814,-0.2128
-0.0404,0.6119,0.5396,0.4137,0.0385,-0.0345,-0.6125,-0.1996,-0.2289,-0.5926,-0.4178,0.0627,-0.7496,-0.3329,0.9507,0.585,0.5345,0.496,0.4684,0.4902,0.0215,0.3462,0.4937,-0.3344,0.0651,-0.0186,-0.4108,-0.1853,-0.3565,-0.2338
-0.0874,0.5966,0.56,0.4225,0.0933,0.02,-0.5498,-0.1381,-0.2208,-0.5494,-0.4247,0.0291,-0.708,-0.2886,0.8996,0.5605,0.5245,0.4938,0.4832,0.4669,0.0525,0.3938,0.5432,-0.3257,0.0892,-0.0113,-0.4318,-0.1886,-0.3311,-0.2398
-0.1208,0.58,0.556,0.4469,0.1651,0.081,-0.4812,-0.0724,-0.199,-0.4983,-0.4233,0.0126,-0.6413,-0.2272,0.8513,0.5491,0.5319,0.5044,0.5172,0.4605,0.1006,0.4492,0.5976,-0.3064,0.1263,0.0102,-0.4337,-0.1785,-0.3078,-0.2291
-0.14,0.562,0.5339,0.4847,0.2495,0.1457,-0.412,-0.0076,-0.1609,-0.4452,-0.4073,0.0168,-0.5566,-0.1532,0.806,0.5491,0.5543,0.5246,0.5673,0.4713,0.162,0.5087,0.6521,-0.276,0.1692,0.0407,-0.4152,-0.156,-0.2883,-0.2052
-0.1479,0.5436,0.5033,0.5318,0.3394,0.2107,-0.3478,0.0522,-0.1079,-0.3966,-0.374,0.0411,-0.4637,-0.0734,0.7667,0.5564,0.5862,0.5505,0.6259,0.4958,0.2306,0.5665,0.7025,-0.2357,0.2092,0.0733,-0.3779,-0.1243,-0.2736,-0.1774
-0.1503,0.527,0.4739,0.5829,0.4262,0.272,-0.2934,0.1051,-0.0458,-0.3585,-0.3259,0.08,-0.3746,0.0034,0.7392,0.5654,0.6207,0.5786,0.6821,0.5282,0.2983,0.6157,0.7461,-0.1885,0.2382,0.1005,-0.326,-0.0883,-0.2641,-0.1588
-0.1533,0.5151,0.4542,0.6335,0.5018,0.3263,-0.2523,0.1507,0.0166,-0.3351,-0.27,0.1251,-0.3011,0.0689,0.7305,0.5715,0.6512,0.6067,0.7256,0.5624,0.3578,0.6506,0.7824,-0.1383,0.2503,0.1167,-0.2652,-0.053,-0.2601,-0.1625
-0.1614,0.5107,0.4496,0.6805,0.5607,0.3719,-0.226,0.1912,0.0691,-0.3274,-0.2164,0.1674,-0.2523,0.1174,0.7462,0.572,0.6739,0.6339,0.7495,0.5938,0.4041,0.6683,0.813,-0.0889,0.2433,0.119,-0.2011,-0.0232,-0.2614,-0.1967
-0.1756,0.5159,0.4618,0.7233,0.6012,0.409,-0.2133,0.2301,0.1024,-0.3325,-0.1755,0.1996,-0.2327,0.1465,0.7875,0.5673,0.6885,0.6608,0.7536,0.621,0.4361,0.6706,0.8406,-0.0429,0.2198,0.1086,-0.1378,-0.0022,-0.2675,-0.2612
-0.1933,0.5312,0.4896,0.763,0.6253,0.4399,-0.2108,0.2707,0.1113,-0.3448,-0.1545,0.2186,-0.2416,0.1585,0.8505,0.5605,0.6981,0.6884,0.7443,0.6455,0.4566,0.6632,0.8674,-0.0011,0.1865,0.0902,-0.077,0.0089,-0.2776,-0.3467
-0.2095,0.5547,0.5292,0.8008,0.6372,0.4669,-0.2147,0.3145,0.0956,-0.3572,-0.1562,0.2256,-0.2735,0.1584,0.9261,0.5562,0.708,0.7174,0.7321,0.6707,0.4707,0.6543,0.8947,0.0366,0.1532,0.0706,-0.0193,0.0116,-0.2902,-0.4367
-0.2194,0.5819,0.5752,0.8368,0.6417,0.491,-0.2218,0.3596,0.0615,-0.3641,-0.1781,0.2259,-0.3196,0.1523,1.0033,0.558,0.7225,0.7473,0.7276,0.6999,0.4839,0.6512,0.9215,0.0701,0.13,0.057,0.0347,0.0097,-0.3036,-0.5125
-0.2206,0.6069,0.6212,0.8687,0.6426,0.5116,-0.2306,0.4013,0.019,-0.3633,-0.2126,0.2274,-0.3702,0.1452,1.0715,0.5679,0.7435,0.7766,0.7371,0.7346,0.4998,0.6585,0.9453,0.098,0.1249,0.0549,0.0832,0.0081,-0.3163,-0.5582
-0.2147,0.6235,0.6601,0.8927,0.642,0.5258,-0.2419,0.4337,-0.0193,-0.3565,-0.2485,0.2388,-0.4168,0.1397,1.1234,0.5847,0.7691,0.8026,0.7601,0.7736,0.5193,0.6758,0.9621,0.1172,0.1415,0.0662,0.1227,0.0118,-0.327,-0.5651
-0.208,0.6273,0.6843,0.9049,0.6407,0.5302,-0.2579,0.4518,-0.0419,-0.3485,-0.2731,0.2681,-0.4529,0.1361,1.1564,0.605,0.7943,0.8222,0.7894,0.8137,0.5405,0.6985,0.9672,0.1235,0.1787,0.09,0.1488,0.0246,-0.3354,-0.5333
-0.2096,0.6161,0.6866,0.9021,0.6391,0.5221,-0.281,0.453,-0.0406,-0.3461,-0.2746,0.3212,-0.4752,0.1321,1.1729,0.6237,0.8127,0.8331,0.8134,0.8503,0.5597,0.7192,0.9567,0.113,0.2313,0.1224,0.1575,0.0482,-0.3416,-0.4716
-0.2288,0.5901,0.6619,0.8838,0.637,0.5002,-0.3134,0.4377,-0.0122,-0.3551,-0.2452,0.4006,-0.4833,0.1253,1.1785,0.6364,0.8184,0.8338,0.8208,0.8794,0.5731,0.7305,0.9279,0.0832,0.2921,0.159,0.1469,0.0823,-0.3465,-0.3928
-0.271,0.5518,0.6093,0.8514,0.6345,0.4653,-0.3555,0.409,0.0415,-0.3786,-0.1832,0.5048,-0.4794,0.1136,1.1796,0.64,0.8087,0.8249,0.8046,0.8987,0.5782,0.7278,0.8808,0.0348,0.3545,0.1958,0.1179,0.1251,-0.351,-0.31
-0.3352,0.5049,0.5336,0.8088,0.6318,0.4204,-0.4059,0.3712,0.1144,-0.4157,-0.0937,0.6284,-0.4674,0.0967,1.1812,0.6347,0.7847,0.8086,0.7648,0.9089,0.5754,0.7107,0.8188,-0.0283,0.4142,0.2304,0.0745,0.1739,-0.3558,-0.2319
-0.4137,0.4539,0.4453,0.7609,0.6288,0.37,-0.4614,0.3287,0.1981,-0.462,0.0121,0.7628,-0.4515,0.0762,1.1858,0.6232,0.7517,0.7882,0.7093,0.9135,0.5673,0.6837,0.7483,-0.0993,0.47,0.2621,0.0238,0.2259,-0.3611,-0.1612
