FP1,F3,F7,FC3,C3,C5,P3,P7,PO7,PO3,O1,Oz,Pz,CPz,FP2,Fz,F4,F8,FC4,FCz,Cz,C4,C6,P4,P8,PO8,PO4,O2,(corr) HEOG,(corr) VEOG
-0.332,-0.5938,-0.2356,-0.6313,-0.1155,-0.4407,0.9626,0.6585,0.7869,0.9925,0.8816,0.4605,0.7888,0.6647,-0.7643,-0.4383,-0.3513,-0.6401,-0.3513,-0.3449,0.2147,-0.0472,-0.5329,0.5101,0.1226,0.1306,0.3645,0.379,0.5731,0.4073
-0.4006,-0.6649,-0.3344,-0.6109,-0.0584,-0.4223,0.862,0.5416,0.6975,0.9182,0.8365,0.4477,0.7862,0.6644,-0.6007,-0.4787,-0.4074,-0.6934,-0.3557,-0.3418,0.2137,-0.0057,-0.4917,0.4947,0.1084,0.0931,0.3245,0.3611,0.4572,0.1953
-0.4495,-0.7118,-0.41,-0.5721,0.0018,-0.3881,0.758,0.4238,0.6014,0.8327,0.7797,0.4286,0.7725,0.6542,-0.447,-0.5072,-0.4535,-0.7306,-0.3563,-0.3363,0.2095,0.0304,-0.4457,0.4751,0.0957,0.0604,0.2834,0.3403,0.3524,0.0051
-0.4633,-0.7151,-0.4422,-0.5007,0.0664,-0.3265,0.6475,0.3054,0.4939,0.7272,0.7016,0.3972,0.738,0.6251,-0.313,-0.5149,-0.4817,-0.738,-0.3516,-0.3267,0.1981,0.055,-0.3927,0.4466,0.0841,0.0349,0.2395,0.3131,0.2687,-0.1431
-0.4352,-0.6638,-0.4183,-0.3894,0.1353,-0.2316,0.5304,0.189,0.3736,0.5986,0.5977,0.3502,0.677,0.5722,-0.2037,-0.4968,-0.4886,-0.7086,-0.3415,-0.3107,0.178,0.0646,-0.3321,0.4067,0.0729,0.0178,0.1917,0.2774,0.2127,-0.2382
-0.3683,-0.5573,-0.3351,-0.2395,0.2067,-0.1054,0.4094,0.0787,0.2433,0.4494,0.4699,0.2879,0.5894,0.4953,-0.1191,-0.4526,-0.4751,-0.642,-0.327,-0.2863,0.15,0.0582,-0.2655,0.3551,0.061,0.0083,0.1397,0.2328,0.1867,-0.2784
-0.274,-0.4048,-0.199,-0.061,0.2761,0.0429,0.2889,-0.0198,0.109,0.2874,0.3249,0.2133,0.4792,0.3981,-0.0556,-0.3866,-0.4455,-0.5444,-0.31,-0.2523,0.1164,0.0369,-0.1967,0.2931,0.047,0.004,0.0843,0.181,0.1886,-0.2706
-0.1682,-0.2242,-0.0248,0.1288,0.3361,0.1974,0.1734,-0.1014,-0.0215,0.1226,0.1721,0.1312,0.3532,0.2863,-0.0082,-0.3063,-0.4057,-0.4261,-0.2929,-0.2094,0.0794,0.0027,-0.1314,0.2233,0.0291,0.0019,0.0267,0.1247,0.2122,-0.2265
-0.0674,-0.0383,0.1671,0.3082,0.3775,0.3388,0.0658,-0.1623,-0.1409,-0.0349,0.0215,0.0466,0.2189,0.1661,0.0271,-0.2215,-0.3619,-0.2996,-0.278,-0.161,0.0398,-0.0425,-0.0765,0.1479,0.005,-0.0019,-0.0314,0.0668,0.2495,-0.1588
0.0148,0.129,0.3539,0.4549,0.3905,0.4478,-0.0329,-0.201,-0.2431,-0.177,-0.1185,-0.0367,0.0829,0.0428,0.0514,-0.1428,-0.3188,-0.1777,-0.2673,-0.1133,-0.0037,-0.0982,-0.0389,0.0685,-0.0275,-0.0112,-0.089,0.0091,0.2915,-0.0787
0.0692,0.2567,0.5145,0.55,0.3666,0.5093,-0.1235,-0.2186,-0.3242,-0.2987,-0.2421,-0.1159,-0.0503,-0.0799,0.0636,-0.0794,-0.2795,-0.0716,-0.2623,-0.0744,-0.0539,-0.1644,-0.0239,-0.0143,-0.0703,-0.0289,-0.1456,-0.0474,0.3309,0.0059
0.0924,0.3303,0.6321,0.5813,0.3009,0.5149,-0.2074,-0.2175,-0.3828,-0.3977,-0.3459,-0.1896,-0.1774,-0.1994,0.061,-0.0387,-0.2458,0.0101,-0.2638,-0.0528,-0.114,-0.2417,-0.0341,-0.1007,-0.1243,-0.0569,-0.2014,-0.103,0.3625,0.0903
0.085,0.3432,0.6967,0.5442,0.1933,0.4642,-0.2852,-0.2013,-0.4188,-0.4736,-0.4279,-0.2569,-0.2964,-0.3134,0.0418,-0.0253,-0.2189,0.062,-0.2716,-0.0555,-0.1857,-0.3288,-0.0682,-0.1904,-0.1883,-0.095,-0.2569,-0.1581,0.3839,0.1714
0.0507,0.2968,0.7054,0.4425,0.0488,0.3645,-0.3563,-0.1742,-0.4337,-0.5271,-0.4874,-0.3166,-0.4055,-0.4194,0.0058,-0.0407,-0.2004,0.0824,-0.285,-0.0866,-0.2679,-0.4225,-0.1211,-0.2824,-0.2591,-0.1404,-0.312,-0.2123,0.3945,0.2469
-0.0051,0.1986,0.6613,0.2862,-0.123,0.2287,-0.4186,-0.1402,-0.4296,-0.5594,-0.5237,-0.367,-0.5025,-0.5144,-0.0447,-0.0844,-0.1927,0.073,-0.3032,-0.1469,-0.3569,-0.5162,-0.1843,-0.3737,-0.3311,-0.1884,-0.3655,-0.2634,0.3951,0.3142
-0.077,0.0597,0.5722,0.0898,-0.3092,0.0727,-0.4689,-0.103,-0.4092,-0.5717,-0.5365,-0.4057,-0.5847,-0.5947,-0.1057,-0.154,-0.1985,0.0385,-0.3254,-0.2331,-0.4464,-0.6009,-0.2477,-0.4596,-0.3969,-0.2325,-0.4148,-0.3079,0.3868,0.371
-0.1596,-0.1069,0.4483,-0.1302,-0.4949,-0.0875,-0.504,-0.066,-0.3749,-0.5649,-0.5258,-0.4304,-0.649,-0.6568,-0.1723,-0.2461,-0.2199,-0.0136,-0.3513,-0.3394,-0.529,-0.6657,-0.3005,-0.5338,-0.4489,-0.2658,-0.4561,-0.3407,0.3701,0.4156
-0.2486,-0.2881,0.3008,-0.3569,-0.665,-0.2373,-0.5212,-0.0316,-0.3293,-0.5402,-0.4927,-0.4393,-0.6922,-0.6974,-0.2394,-0.356,-0.2576,-0.0736,-0.3806,-0.4572,-0.5972,-0.7005,-0.3338,-0.5895,-0.4798,-0.2822,-0.4846,-0.3571,0.3454,0.4467
-0.3397,-0.4707,0.1412,-0.5737,-0.8055,-0.3651,-0.5193,-0.0015,-0.2743,-0.4993,-0.4395,-0.4322,-0.7119,-0.7143,-0.3022,-0.4776,-0.3099,-0.1312,-0.4121,-0.5767,-0.6453,-0.6972,-0.341,-0.6203,-0.4845,-0.2776,-0.4962,-0.3529,0.3122,0.4637
-0.4284,-0.6417,-0.0198,-0.7654,-0.9044,-0.463,-0.4988,0.0236,-0.212,-0.4444,-0.3704,-0.4105,-0.7067,-0.7068,-0.356,-0.6021,-0.3718,-0.1763,-0.4431,-0.6869,-0.6692,-0.652,-0.3193,-0.6213,-0.4603,-0.2505,-0.4871,-0.3263,0.2704,0.4667
-0.5083,-0.7884,-0.1718,-0.9178,-0.9524,-0.5261,-0.4616,0.043,-0.1447,-0.3782,-0.2911,-0.3777,-0.6761,-0.675,-0.3962,-0.7184,-0.4356,-0.2005,-0.4685,-0.7764,-0.667,-0.5662,-0.269,-0.5902,-0.4076,-0.2022,-0.4555,-0.2779,0.2198,0.4555
-0.5711,-0.8988,-0.3052,-1.019,-0.9444,-0.5524,-0.4107,0.0566,-0.0752,-0.3037,-0.2081,-0.3384,-0.6208,-0.6205,-0.4189,-0.8126,-0.491,-0.1983,-0.4815,-0.8339,-0.6387,-0.4465,-0.1942,-0.5273,-0.3295,-0.1366,-0.4008,-0.2112,0.1611,0.4304
-0.6075,-0.9627,-0.4112,-1.0595,-0.8791,-0.5421,-0.3489,0.0645,-0.0066,-0.2239,-0.128,-0.2973,-0.5422,-0.5456,-0.4207,-0.8702,-0.5264,-0.1681,-0.475,-0.8496,-0.5853,-0.3041,-0.1015,-0.4359,-0.2318,-0.0592,-0.3242,-0.1319,0.0957,0.3915
-0.6087,-0.9733,-0.483,-1.0344,-0.7598,-0.4971,-0.2793,0.0677,0.0578,-0.1411,-0.056,-0.2577,-0.4427,-0.4534,-0.3994,-0.8779,-0.5311,-0.1125,-0.4429,-0.8165,-0.5094,-0.1535,0.0001,-0.322,-0.1218,0.0233,-0.2286,-0.0474,0.0258,0.3391
-0.5694,-0.9285,-0.5169,-0.9443,-0.5949,-0.4216,-0.2044,0.0676,0.1152,-0.0573,0.0043,-0.2211,-0.3256,-0.3478,-0.3546,-0.8269,-0.4971,-0.0383,-0.382,-0.7323,-0.4145,-0.0097,0.1005,-0.1939,-0.0077,0.1044,-0.1186,0.0348,-0.0458,0.2739
-0.4892,-0.8318,-0.5126,-0.7962,-0.3973,-0.322,-0.1269,0.0663,0.1631,0.0255,0.0519,-0.1866,-0.1958,-0.2339,-0.2876,-0.7151,-0.4211,0.0449,-0.2928,-0.6006,-0.3059,0.1139,0.1894,-0.0615,0.102,0.1781,-0.0004,0.1076,-0.1161,0.1969
-0.3735,-0.6925,-0.4747,-0.6042,-0.1844,-0.2073,-0.0507,0.066,0.1996,0.1048,0.0874,-0.1513,-0.0598,-0.1182,-0.2016,-0.5486,-0.3056,0.1265,-0.179,-0.4309,-0.1901,0.2083,0.2586,0.0645,0.1996,0.2398,0.1183,0.1658,-0.1826,0.1101
-0.2327,-0.5243,-0.412,-0.3877,0.0235,-0.0894,0.0185,0.068,0.2229,0.1765,0.1128,-0.1119,0.074,-0.0083,-0.1019,-0.3412,-0.1586,0.1973,-0.0474,-0.238,-0.075,0.2702,0.3027,0.1745,0.2791,0.2864,0.2294,0.2067,-0.2436,0.0165
-0.0801,-0.3435,-0.3365,-0.1692,0.2053,0.0181,0.0734,0.0718,0.2314,0.2352,0.1302,-0.0656,0.1958,0.0879,0.005,-0.1123,0.0078,0.252,0.0938,-0.0394,0.0309,0.3018,0.3204,0.2603,0.3367,0.3173,0.3252,0.2306,-0.2985,-0.0792
0.0701,-0.1657,-0.2609,0.0294,0.3425,0.1016,0.1061,0.0752,0.2232,0.2746,0.1411,-0.0114,0.2955,0.1624,0.1122,0.1165,0.1799,0.2898,0.2357,0.1477,0.1201,0.3099,0.3148,0.3171,0.3716,0.3336,0.3998,0.2401,-0.3477,-0.1716
0.2051,-0.0034,-0.1966,0.1904,0.4213,0.1499,0.1093,0.0743,0.1971,0.2883,0.1459,0.0492,0.3641,0.2091,0.2132,0.3253,0.3445,0.3148,0.3695,0.3094,0.1862,0.303,0.292,0.343,0.3853,0.3379,0.4496,0.2392,-0.3924,-0.2548
0.3153,0.1362,-0.1507,0.3037,0.4359,0.1565,0.0788,0.0647,0.1532,0.2719,0.1439,0.112,0.3946,0.2237,0.3029,0.4994,0.4911,0.3339,0.4869,0.4369,0.226,0.2892,0.2601,0.3395,0.3811,0.3332,0.4737,0.2315,-0.4338,-0.3232
0.3954,0.2518,-0.1256,0.3679,0.3894,0.1211,0.0152,0.0433,0.0939,0.2244,0.1339,0.171,0.3835,0.2049,0.3776,0.6309,0.6128,0.3547,0.5809,0.5275,0.2387,0.2734,0.2267,0.3102,0.3629,0.3218,0.4731,0.2197,-0.4727,-0.3724
0.4446,0.3477,-0.1181,0.3901,0.2927,0.05,-0.0755,0.0092,0.0239,0.1489,0.1147,0.2192,0.3313,0.1548,0.435,0.7195,0.7069,0.3827,0.6461,0.5844,0.2268,0.2568,0.1979,0.2599,0.3338,0.3041,0.45,0.2039,-0.5087,-0.3994
0.4667,0.4309,-0.1212,0.3833,0.1632,-0.0446,-0.1825,-0.0355,-0.0497,0.053,0.0859,0.2498,0.2426,0.0786,0.4732,0.7707,0.7736,0.4197,0.6792,0.6143,0.1953,0.2371,0.1764,0.1934,0.2954,0.2783,0.4066,0.1823,-0.5401,-0.4024
0.4686,0.5086,-0.1261,0.3629,0.0211,-0.1469,-0.2913,-0.0858,-0.1184,-0.0528,0.0479,0.2576,0.1263,-0.0149,0.4909,0.7932,0.8155,0.4628,0.6798,0.626,0.1515,0.2106,0.1627,0.1156,0.2483,0.2415,0.3449,0.1513,-0.5639,-0.3814
0.4587,0.5856,-0.1242,0.3424,-0.1135,-0.2401,-0.3864,-0.1347,-0.1743,-0.1562,0.0025,0.2399,-0.0054,-0.1143,0.4874,0.7966,0.8356,0.5053,0.6504,0.6276,0.104,0.1749,0.1547,0.0313,0.1922,0.1903,0.2666,0.1074,-0.576,-0.3379
0.445,0.6619,-0.1095,0.3314,-0.2231,-0.3089,-0.4535,-0.1747,-0.2108,-0.2452,-0.0475,0.1973,-0.1377,-0.2057,0.4629,0.7886,0.8363,0.5382,0.5973,0.625,0.0624,0.1312,0.1499,-0.0543,0.1277,0.1229,0.1744,0.0488,-0.5723,-0.2754
0.4339,0.7329,-0.0798,0.3335,-0.2954,-0.3417,-0.4816,-0.1997,-0.2245,-0.3101,-0.0985,0.134,-0.2553,-0.2748,0.4191,0.7738,0.8189,0.5523,0.5291,0.6211,0.0358,0.0854,0.1461,-0.1347,0.0571,0.0405,0.0723,-0.0236,-0.5496,-0.1994
0.429,0.7908,-0.0367,0.3471,-0.3232,-0.3325,-0.4645,-0.206,-0.2154,-0.3445,-0.1463,0.0581,-0.3438,-0.3084,0.3595,0.7536,0.7834,0.5402,0.4565,0.6154,0.0314,0.0473,0.1423,-0.2021,-0.015,-0.0523,-0.033,-0.1051,-0.5061,-0.1174
0.4307,0.8271,0.0149,0.3669,-0.3042,-0.2806,-0.4017,-0.1937,-0.187,-0.3459,-0.1868,-0.0197,-0.392,-0.2972,0.2891,0.7268,0.7289,0.4979,0.3897,0.6057,0.0537,0.0282,0.1392,-0.2484,-0.0815,-0.1471,-0.1322,-0.1877,-0.4422,-0.038
0.437,0.8356,0.0688,0.3868,-0.2404,-0.19,-0.298,-0.1662,-0.1451,-0.3157,-0.216,-0.0871,-0.3939,-0.2378,0.2147,0.6907,0.655,0.4265,0.3369,0.5886,0.1026,0.0373,0.138,-0.2663,-0.1344,-0.2329,-0.2144,-0.2608,-0.3606,0.0297
0.444,0.8148,0.1194,0.4025,-0.1364,-0.0682,-0.1624,-0.1296,-0.0972,-0.2584,-0.2307,-0.1325,-0.3493,-0.1342,0.1443,0.6434,0.5631,0.3326,0.3027,0.5616,0.1737,0.0781,0.1405,-0.2511,-0.1657,-0.2981,-0.2685,-0.3134,-0.2659,0.0777
0.4476,0.7694,0.164,0.4133,0.0012,0.0758,-0.0073,-0.0907,-0.0503,-0.1809,-0.2281,-0.1468,-0.2641,0.0028,0.0862,0.5852,0.4572,0.2282,0.2872,0.5244,0.2583,0.1471,0.1481,-0.202,-0.1691,-0.3322,-0.2853,-0.3354,-0.1649,0.1
0.4449,0.7102,0.2032,0.4227,0.1649,0.2332,0.1537,-0.056,-0.0097,-0.0911,-0.2067,-0.1246,-0.149,0.1572,0.0483,0.5193,0.3454,0.1286,0.2874,0.4799,0.3459,0.2337,0.1618,-0.1223,-0.1415,-0.328,-0.259,-0.32,-0.0659,0.0935
0.4354,0.6517,0.241,0.4382,0.3465,0.3956,0.3079,-0.0299,0.0217,0.0036,-0.1655,-0.0658,-0.0167,0.311,0.036,0.4523,0.239,0.0499,0.298,0.4341,0.426,0.3232,0.182,-0.0193,-0.0836,-0.283,-0.1889,-0.2649,0.0226,0.0589
0.4213,0.6088,0.2826,0.4683,0.5369,0.5555,0.4447,-0.0141,0.0439,0.0967,-0.1047,0.0249,0.1201,0.4479,0.0516,0.393,0.1505,0.0051,0.3138,0.3953,0.4907,0.4003,0.2087,0.0974,0.0002,-0.2005,-0.0797,-0.173,0.0933,0.0003
0.4075,0.5935,0.3328,0.5202,0.7265,0.7058,0.5571,-0.0077,0.0593,0.1841,-0.0256,0.1389,0.2511,0.5561,0.0931,0.3503,0.0914,0.0016,0.3307,0.3717,0.5361,0.4528,0.2409,0.2171,0.102,-0.0893,0.0583,-0.0526,0.1408,-0.0755
0.4,0.6116,0.3937,0.5969,0.9051,0.8392,0.6422,-0.0075,0.0719,0.2637,0.0692,0.265,0.3698,0.6304,0.1547,0.3312,0.0687,0.0395,0.3458,0.3703,0.5628,0.4744,0.2766,0.3296,0.2111,0.0373,0.2109,0.0838,0.1634,-0.1594
0.4046,0.6621,0.4639,0.6964,1.0629,0.9488,0.7009,-0.0093,0.0858,0.3353,0.175,0.3914,0.4733,0.6718,0.2276,0.3393,0.0834,0.1116,0.358,0.3945,0.5753,0.4656,0.3125,0.4265,0.316,0.1634,0.3612,0.2211,0.163,-0.2422
0.4254,0.7377,0.5389,0.8118,1.1919,1.0289,0.7366,-0.0092,0.1043,0.3992,0.2851,0.5062,0.5615,0.6867,0.3029,0.3745,0.13,0.2056,0.3673,0.444,0.5804,0.4331,0.3448,0.5014,0.405,0.2727,0.4924,0.3438,0.1445,-0.3157
0.4636,0.8274,0.6123,0.9336,1.2871,1.0764,0.7542,-0.0042,0.1281,0.455,0.3908,0.5994,0.6355,0.6848,0.3729,0.4336,0.1981,0.3066,0.3745,0.5153,0.5856,0.3874,0.3694,0.5505,0.4686,0.3515,0.5899,0.4382,0.1151,-0.3747
0.5174,0.9199,0.6781,1.0523,1.3477,1.0927,0.7582,0.0067,0.1557,0.5007,0.4816,0.6631,0.6963,0.676,0.434,0.5114,0.2754,0.4009,0.3818,0.6028,0.5976,0.3411,0.3834,0.5725,0.5004,0.3904,0.6437,0.494,0.0828,-0.4174
0.5831,1.0056,0.7322,1.1604,1.3774,1.0837,0.7517,0.0234,0.1828,0.5321,0.5472,0.6919,0.7436,0.6691,0.4867,0.6026,0.3502,0.4786,0.3925,0.7007,0.6212,0.3059,0.3856,0.5687,0.4985,0.3858,0.6496,0.5062,0.0548,-0.4455
0.656,1.0792,0.7738,1.2542,1.3833,1.0598,0.7365,0.0445,0.2039,0.5441,0.579,0.684,0.7763,0.6698,0.5348,0.7027,0.4153,0.5354,0.4109,0.8042,0.6588,0.291,0.3777,0.5424,0.4653,0.3409,0.6099,0.4753,0.0366,-0.4628
0.7319,1.1397,0.805,1.3335,1.3747,1.0339,0.7137,0.0681,0.2136,0.5322,0.5724,0.6409,0.7927,0.6814,0.5835,0.8088,0.4697,0.5725,0.4419,0.9104,0.711,0.3018,0.3637,0.4994,0.4074,0.2639,0.5325,0.4074,0.0308,-0.4741
0.8082,1.1903,0.8305,1.4015,1.3609,1.0189,0.6845,0.0927,0.2083,0.4947,0.5281,0.5685,0.7925,0.7049,0.6379,0.9201,0.519,0.5959,0.4905,1.0189,0.7772,0.3402,0.3496,0.4468,0.3349,0.1669,0.4299,0.313,0.0368,-0.4835
0.8837,1.2378,0.8558,1.4631,1.3507,1.0256,0.6522,0.1173,0.1875,0.4349,0.4531,0.476,0.7777,0.7406,0.7011,1.0382,0.5753,0.6141,0.5613,1.1315,0.8568,0.4056,0.3429,0.3937,0.2592,0.0632,0.3172,0.2056,0.05,-0.4944
0.9596,1.292,0.8864,1.5249,1.3514,1.0608,0.623,0.1409,0.1546,0.3612,0.3601,0.376,0.7542,0.7895,0.7741,1.1673,0.6549,0.6367,0.6588,1.2527,0.9503,0.4965,0.3517,0.3502,0.1925,-0.035,0.2101,0.0993,0.0632,-0.5094
1.0402,1.3655,0.9278,1.5947,1.3705,1.1271,0.6059,0.163,0.1162,0.2873,0.2659,0.2825,0.7311,0.8548,0.8566,1.3155,0.776,0.6733,0.7881,1.3897,1.0611,0.6129,0.3843,0.3269,0.1461,-0.1182,0.1232,0.0075,0.0676,-0.531
1.1335,1.4734,0.9854,1.6827,1.4164,1.2239,0.6116,0.182,0.0806,0.2288,0.1887,0.2096,0.7207,0.9418,0.9489,1.4947,0.9562,0.7335,0.9557,1.553,1.1957,0.7571,0.4491,0.334,0.1296,-0.1801,0.068,-0.0586,0.0549,-0.5622
1.2507,1.6331,1.0654,1.8017,1.4999,1.3489,0.6506,0.1957,0.0558,0.2007,0.1446,0.1687,0.7359,1.0576,1.0543,1.7212,1.2098,0.8272,1.1697,1.7561,1.3636,0.9346,0.5537,0.3794,0.1503,-0.2179,0.0524,-0.0915,0.019,-0.6076
1.4044,1.8615,1.1736,1.9665,1.6338,1.5002,0.7304,0.2012,0.0476,0.2134,0.1443,0.1663,0.7877,1.2088,1.18,2.013,1.546,0.9649,1.4386,2.0132,1.5748,1.1514,0.7041,0.4673,0.2117,-0.232,0.0785,-0.0883,-0.0425,-0.6734
1.6049,2.1705,1.3147,2.191,1.8299,1.6763,0.8529,0.1954,0.0575,0.2696,0.1903,0.2029,0.8818,1.3984,1.3369,2.3846,1.9658,1.1557,1.7688,2.3354,1.8363,1.4117,0.9033,0.5959,0.3136,-0.2249,0.1431,-0.0506,-0.1287,-0.7667
1.8557,2.5617,1.489,2.4833,2.0945,1.8759,1.0121,0.1761,0.0825,0.3635,0.2764,0.2723,1.0163,1.6228,1.5356,2.8406,2.4594,1.4045,2.1603,2.7247,2.1466,1.7138,1.1493,0.757,0.4504,-0.2008,0.2372,0.0153,-0.2349,-0.8934
2.1489,3.0207,1.6908,2.8399,2.4233,2.0954,1.1942,0.1432,0.1157,0.4806,0.3886,0.3638,1.1802,1.8692,1.7814,3.3686,3.0042,1.7078,2.6031,3.168,2.4926,2.0466,1.4335,0.9356,0.6117,-0.165,0.3478,0.1002,-0.3546,-1.0555
2.4637,3.5149,1.9066,3.2421,2.7979,2.3268,1.3789,0.0989,0.148,0.6015,0.508,0.4645,1.3554,2.1162,2.0693,3.9351,3.5639,2.0513,3.0736,3.6349,2.8478,2.3893,1.74,1.113,0.7834,-0.1222,0.4601,0.1936,-0.48,-1.2483
2.7674,3.9963,2.1158,3.6546,3.1862,2.5566,1.5433,0.0481,0.1706,0.7058,0.6152,0.5625,1.5194,2.3369,2.3808,4.4876,4.0912,2.4086,3.5353,4.0791,3.1755,2.7127,2.0467,1.2693,0.9495,-0.076,0.5607,0.2861,-0.6036,-1.459
3.0208,4.408,2.2933,4.0311,3.5461,2.7662,1.6664,-0.0022,0.1772,0.777,0.6946,0.6487,1.6509,2.5039,2.6854,4.9618,4.534,2.745,3.9427,4.4461,3.4355,2.9841,2.3283,1.3884,1.0954,-0.0277,0.6403,0.3709,-0.7189,-1.6678
3.1857,4.6959,2.4142,4.3217,3.8341,2.9346,1.7342,-0.0446,0.1659,0.8064,0.7371,0.7179,1.7341,2.596,2.9458,5.2942,4.8441,3.0234,4.2492,4.6836,3.5927,3.1739,2.5605,1.4605,1.2104,0.0236,0.6948,0.4445,-0.821,-1.8508
3.2341,4.8203,2.4587,4.4847,4.014,3.0428,1.742,-0.0724,0.1388,0.7947,0.7419,0.7688,1.763,2.604,3.126,5.4362,4.9882,3.2133,4.4174,4.7549,3.6265,3.2625,2.7256,1.4849,1.29,0.0803,0.7266,0.5064,-0.9073,-1.9851
3.1558,4.7658,2.4175,4.4967,4.0659,3.0785,1.6962,-0.0811,0.1019,0.7512,0.7156,0.8029,1.7421,2.533,3.2007,5.3668,4.9568,3.2978,4.4298,4.6482,3.5368,3.2464,2.8163,1.4694,1.3361,0.1449,0.7424,0.558,-0.977,-2.0539
2.9622,4.5465,2.2947,4.3602,3.9915,3.0397,1.6117,-0.0697,0.0626,0.691,0.6697,0.8237,1.6856,2.4033,3.1623,5.1001,4.7692,3.2792,4.2952,4.3832,3.3463,3.1396,2.8386,1.4283,1.3565,0.2183,0.7512,0.6013,-1.0311,-2.0514
2.6862,4.2052,2.1082,4.1054,3.8146,2.9364,1.5093,-0.0409,0.0281,0.6309,0.6178,0.8357,1.614,2.2458,3.0243,4.685,4.4721,3.1785,4.0501,4.0087,3.097,2.9725,2.8102,1.3788,1.3621,0.2986,0.7615,0.6375,-1.0716,-1.985
2.377,3.8059,1.8877,3.7865,3.5779,2.7907,1.4108,-0.0007,0.004,0.5861,0.5728,0.8437,1.5496,2.0973,2.8197,4.1976,4.1316,3.0307,3.7529,3.5957,2.8427,2.7857,2.7569,1.3379,1.365,0.3811,0.78,0.6674,-1.1009,-1.8745
2.0912,3.4222,1.6693,3.4718,3.3349,2.6326,1.3356,0.0426,-0.0071,0.5673,0.5449,0.853,1.513,1.9929,2.5948,3.727,3.8212,2.8773,3.4724,3.2236,2.6396,2.6227,2.7066,1.319,1.3763,0.4595,0.8101,0.6911,-1.121,-1.749
1.8815,3.1242,1.4892,3.2309,3.1398,2.4951,1.298,0.08,-0.005,0.5801,0.5415,0.8689,1.5202,1.961,2.3995,3.359,3.6071,2.7559,3.2742,2.9662,2.5354,2.5221,2.6828,1.3318,1.4044,0.5282,0.8538,0.7104,-1.1327,-1.6415
1.7872,2.965,1.3773,3.1202,3.0377,2.4075,1.3058,0.1038,0.0083,0.6255,0.5667,0.8978,1.581,2.019,2.2774,3.16,3.5358,2.6929,3.2072,2.878,2.5623,2.5109,2.6999,1.3815,1.4551,0.5846,0.9124,0.7289,-1.1363,-1.5819
1.826,2.9723,1.3513,3.1722,3.0554,2.3893,1.36,0.109,0.0303,0.7012,0.6223,0.9456,1.6985,2.1711,2.2569,3.1653,3.6256,2.6976,3.295,2.9849,2.7314,2.6011,2.761,1.4699,1.5311,0.6299,0.9874,0.7528,-1.1316,-1.592
1.9919,3.1441,1.4143,3.3884,3.1973,2.4457,1.4557,0.0944,0.0585,0.8021,0.7076,1.0176,1.8692,2.4089,2.3461,3.3742,3.8639,2.7615,3.5324,3.2809,3.0325,2.7888,2.8577,1.5957,1.6323,0.6693,1.0813,0.7896,-1.1182,-1.6808
2.2568,3.4513,1.5546,3.7401,3.4444,2.5665,1.583,0.0631,0.0915,0.9219,0.8194,1.1163,2.0838,2.7135,2.5326,3.7523,4.2111,2.8617,3.8884,3.7309,3.4371,3.0561,2.9736,1.7551,1.7555,0.7101,1.1958,0.846,-1.0965,-1.8437
2.577,3.8447,1.7484,4.1753,3.7598,2.7287,1.729,0.022,0.1286,1.0526,0.9513,1.2406,2.328,3.0586,2.7872,4.2398,4.6096,2.9672,4.3137,4.2787,3.904,3.3754,3.0881,1.9419,1.8948,0.7592,1.3309,0.9258,-1.0671,-2.0629
2.9022,4.2655,1.9649,4.6299,4.0968,2.9019,1.8795,-0.0195,0.1702,1.1856,1.0942,1.3849,2.5841,3.4151,3.0707,4.7646,4.9962,3.0476,4.7515,4.8583,4.3874,3.7147,3.1815,2.1474,2.042,0.8214,1.4835,1.0279,-1.0313,-2.312
3.1861,4.6564,2.1719,5.0414,4.4094,3.0556,2.0215,-0.0512,0.2169,1.3121,1.2364,1.5395,2.8333,3.7547,3.3416,5.2559,5.3146,3.0796,5.1488,5.4056,4.8438,4.0423,3.2394,2.3607,2.1875,0.8974,1.6467,1.1465,-0.9902,-2.5601
3.3944,4.9713,2.3415,5.3614,4.6621,3.1662,2.1455,-0.0632,0.2691,1.4242,1.3658,1.6914,3.0579,4.0537,3.564,5.6561,5.5264,3.0523,5.4648,5.8688,5.238,4.3313,3.2549,2.5698,2.3217,0.9835,1.8105,1.2712,-0.9454,-2.7778
3.5096,5.1814,2.4544,5.5632,4.8358,3.2224,2.246,-0.0483,0.3268,1.5159,1.4711,1.8268,3.2438,4.295,3.7128,5.9291,5.6157,2.9681,5.6766,6.2144,5.5464,4.562,3.2298,2.7619,2.4361,1.0728,1.9628,1.3898,-0.8978,-2.9414
3.5321,5.2769,2.5027,5.6443,4.9301,3.2268,2.3227,-0.0024,0.3894,1.5839,1.544,1.9323,3.3814,4.4686,3.7766,6.0621,5.5891,2.8412,5.7788,6.429,5.7578,4.7225,3.1729,2.9248,2.5237,1.1558,2.091,1.4899,-0.8482,-3.0364
3.4765,5.2653,2.4891,5.6224,4.9593,3.194,2.3792,0.0745,0.4554,1.6278,1.5799,1.9974,3.4659,4.5713,3.7569,6.063,5.4694,2.6925,5.7802,6.5161,5.8706,4.8079,3.097,3.0479,2.5804,1.2235,2.1843,1.5613,-0.7971,-3.0584
3.3653,5.1652,2.425,5.5273,4.9461,3.145,2.4209,0.1782,0.523,1.6497,1.5789,2.016,3.4972,4.6043,3.6653,5.953,5.286,2.5444,5.6972,6.4904,5.8895,4.8182,3.0158,3.123,2.6041,1.2684,2.2346,1.598,-0.7452,-3.0112
3.2223,5.0004,2.3269,5.3909,4.913,3.1009,2.4528,0.3007,0.5894,1.6531,1.5445,1.9868,3.4774,4.571,3.5188,5.7584,5.0662,2.4154,5.5476,6.3704,5.8217,4.7568,2.9404,3.1446,2.595,1.2863,2.2374,1.5979,-0.693,-2.905
3.067,4.7927,2.2121,5.2387,4.8758,3.077,2.4771,0.431,0.6515,1.6414,1.4832,1.9141,3.4101,4.4754,3.3348,5.5031,4.8283,2.3162,5.346,6.1723,5.6737,4.6285,2.8775,3.1106,2.5545,1.2768,2.1922,1.5631,-0.6419,-2.7521
2.9109,4.5578,2.0953,5.0842,4.8393,3.0786,2.4919,0.5567,0.7056,1.6171,1.4026,1.8059,3.2982,4.3206,3.1273,5.2034,4.5787,2.2479,5.1012,5.9069,5.4508,4.4395,2.8281,3.0217,2.485,1.2424,2.1016,1.4985,-0.5937,-2.5648
2.7566,4.3035,1.987,4.9282,4.7971,3.1012,2.4918,0.6653,0.7478,1.5807,1.3106,1.673,3.1443,4.1093,2.9053,4.8664,4.3137,2.2034,4.8174,5.5789,5.157,4.1966,2.7884,2.8813,2.3887,1.1872,1.9708,1.4098,-0.5502,-2.3537
2.599,4.0304,1.8918,4.7613,4.7347,3.1315,2.4691,0.7468,0.7747,1.5316,1.2137,1.5263,2.9505,3.8448,2.6727,4.4917,4.0235,2.1696,4.4957,5.1889,4.7973,3.9084,2.7506,2.6958,2.2679,1.1164,1.8069,1.3028,-0.5123,-2.1269
2.4292,3.7345,1.8094,4.5685,4.6341,3.1521,2.4165,0.7953,0.7842,1.4687,1.1174,1.3754,2.7206,3.5325,2.4303,4.0755,3.6972,2.1312,4.1368,4.7375,4.3795,3.5845,2.705,2.4737,2.1249,1.0343,1.6181,1.1824,-0.4799,-1.8903
2.2381,3.4109,1.7353,4.3349,4.479,3.1454,2.3297,0.8102,0.7765,1.3921,1.0259,1.228,2.4609,3.1813,2.1775,3.6148,3.3278,2.0747,3.7433,4.2289,3.9158,3.2362,2.6422,2.2262,1.9624,0.9447,1.4138,1.0526,-0.4508,-1.6489
2.0203,3.0566,1.6627,4.0501,4.2585,3.0974,2.2096,0.7967,0.7542,1.3043,0.9423,1.0893,2.1817,2.8044,1.9138,3.1116,2.9152,1.991,3.3205,3.6738,3.4232,2.875,2.5546,1.9663,1.7842,0.8503,1.204,0.917,-0.4211,-1.4064
1.7761,2.6731,1.5848,3.711,3.9698,2.9998,2.0624,0.7648,0.7227,1.2101,0.8695,0.9631,1.8972,2.4187,1.6402,2.5755,2.4673,1.8764,2.8768,3.0899,2.9217,2.5122,2.4378,1.7083,1.595,0.7531,0.9993,0.7796,-0.3862,-1.1656
1.5119,2.2664,1.4956,3.3217,3.618,2.8504,1.8987,0.7279,0.6891,1.1168,0.8097,0.8526,1.6238,2.0425,1.3584,2.0229,1.9989,1.7326,2.4227,2.4999,2.4323,2.1576,2.2905,1.466,1.401,0.6556,0.8098,0.6455,-0.3414,-0.9284
1.2381,1.8464,1.3921,2.8927,3.2142,2.6527,1.7315,0.6995,0.6612,1.0324,0.7645,0.7609,1.3781,1.6932,1.0711,1.4749,1.5285,1.5646,1.9691,1.928,1.9734,1.8187,2.1145,1.2516,1.2088,0.5605,0.6443,0.5204,-0.2832,-0.6957
0.9663,1.4247,1.2733,2.4374,2.7732,2.4135,1.5733,0.691,0.6455,0.9636,0.7343,0.6906,1.1736,1.384,0.7814,0.9527,1.074,1.3784,1.5258,1.395,1.5575,1.4998,1.9132,1.0731,1.0246,0.4706,0.5093,0.4102,-0.2097,-0.4684
0.7062,1.0123,1.1401,1.9694,2.3099,2.1414,1.4325,0.7091,0.6458,0.9139,0.7178,0.6436,1.0179,1.121,0.493,0.4736,0.6485,1.1788,1.1005,0.9151,1.1894,1.2022,1.6897,0.9331,0.8523,0.3888,0.4072,0.3198,-0.1209,-0.2476
0.4637,0.6171,0.9942,1.4999,1.8364,1.8444,1.3119,0.7543,0.6623,0.8823,0.7114,0.6202,0.9108,0.9022,0.2099,0.0475,0.2581,0.968,0.6973,0.4929,0.8658,0.9238,1.4464,0.8281,0.6934,0.3164,0.3366,0.2519,-0.0185,-0.0357
0.2399,0.2431,0.8366,1.0359,1.3609,1.5285,1.2074,0.8206,0.6911,0.8626,0.71,0.6184,0.844,0.7179,-0.0639,-0.3242,-0.0982,0.7455,0.3173,0.1242,0.5765,0.6599,1.1837,0.749,0.5459,0.2534,0.2916,0.2065,0.0942,0.1636
0.0319,-0.11,0.6671,0.5798,0.8867,1.1968,1.1086,0.8964,0.7244,0.8445,0.7069,0.6339,0.8022,0.5527,-0.3248,-0.6477,-0.4264,0.5092,-0.0412,-0.202,0.3074,0.4043,0.9014,0.683,0.4053,0.1978,0.2634,0.1809,0.2124,0.3463
-0.166,-0.4458,0.4843,0.1305,0.4138,0.8498,1.0013,0.9664,0.752,0.8152,0.6948,0.6604,0.766,0.3894,-0.5703,-0.9347,-0.7344,0.257,-0.3813,-0.5,0.0442,0.1507,0.5993,0.6161,0.2663,0.1473,0.2419,0.1701,0.3298,0.5094
-0.3601,-0.7699,0.2864,-0.3147,-0.0586,0.4857,0.8702,1.0137,0.7628,0.7615,0.6665,0.6903,0.7153,0.2121,-0.7993,-1.1983,-1.0287,-0.0106,-0.7073,-0.7836,-0.2243,-0.1058,0.2793,0.5362,0.1246,0.0996,0.2177,0.1687,0.4392,0.6513
-0.556,-1.0873,0.072,-0.7577,-0.5293,0.1029,0.7028,1.0226,0.7462,0.6729,0.6164,0.7161,0.6335,0.0106,-1.0112,-1.45,-1.3127,-0.2898,-1.0222,-1.0622,-0.5034,-0.3669,-0.053,0.4356,-0.021,0.0543,0.1842,0.1714,0.5329,0.7725
-0.7564,-1.4002,-0.1591,-1.1961,-0.9921,-0.298,0.4927,0.9819,0.6947,0.5438,0.5414,0.7315,0.5105,-0.2179,-1.2059,-1.6964,-1.5856,-0.5728,-1.327,-1.3391,-0.7914,-0.6299,-0.3876,0.3129,-0.1673,0.0132,0.1391,0.1748,0.6035,0.8747
-0.9609,-1.706,-0.4041,-1.6218,-1.4336,-0.7117,0.2428,0.8866,0.6059,0.3763,0.442,0.7327,0.3451,-0.4671,-1.3826,-1.9379,-1.8425,-0.8487,-1.6195,-1.6107,-1.0792,-0.8877,-0.7108,0.1738,-0.3067,-0.0193,0.0849,0.1776,0.6453,0.9601
-1.1663,-1.9969,-0.6573,-2.0199,-1.8333,-1.1265,-0.0337,0.7405,0.4837,0.1807,0.3238,0.7194,0.1458,-0.7231,-1.5396,-2.1694,-2.0755,-1.1059,-1.8936,-1.8683,-1.3526,-1.1291,-1.0068,0.0298,-0.4282,-0.0371,0.0286,0.181,0.6556,1.0302
-1.3674,-2.2606,-0.9102,-2.3703,-2.1656,-1.5237,-0.3144,0.5558,0.339,-0.0251,0.1967,0.6948,-0.0706,-0.9659,-1.6752,-2.3821,-2.2757,-1.3342,-2.1401,-2.1002,-1.5949,-1.3415,-1.2606,-0.1037,-0.5195,-0.0337,-0.0197,0.1879,0.6355,1.0852
-1.5574,-2.4834,-1.1518,-2.6508,-2.4043,-1.8795,-0.5702,0.3525,0.1888,-0.2174,0.0747,0.6648,-0.2817,-1.1739,-1.7886,-2.5665,-2.4347,-1.5272,-2.3481,-2.2959,-1.7907,-1.5133,-1.4612,-0.2103,-0.5699,-0.0043,-0.0489,0.2022,0.5906,1.1247
-1.7291,-2.6531,-1.3695,-2.8415,-2.5274,-2.1675,-0.77,0.1552,0.0538,-0.3709,-0.0263,0.6374,-0.4632,-1.327,-1.8808,-2.7151,-2.5463,-1.6838,-2.5074,-2.4482,-1.9286,-1.6363,-1.6038,-0.2757,-0.5731,0.0529,-0.0493,0.2274,0.5305,1.1485
-1.8742,-2.7618,-1.5506,-2.9287,-2.5213,-2.3625,-0.8858,-0.0102,-0.0447,-0.4619,-0.0905,0.6213,-0.5925,-1.4097,-1.955,-2.8238,-2.6079,-1.807,-2.6105,-2.5541,-2.0028,-1.7076,-1.6906,-0.2901,-0.5284,0.1353,-0.0142,0.2656,0.4679,1.1572
-1.9844,-2.8066,-1.683,-2.9072,-2.3844,-2.445,-0.8974,-0.1208,-0.0886,-0.4723,-0.1045,0.6247,-0.652,-1.4134,-2.0159,-2.8916,-2.6204,-1.9028,-2.6544,-2.6145,-2.0127,-1.7294,-1.7298,-0.2498,-0.4418,0.236,0.058,0.3174,0.4166,1.153
-2.0516,-2.7897,-1.757,-2.7816,-2.1275,-2.4046,-0.7962,-0.1598,-0.0657,-0.393,-0.0595,0.6545,-0.6312,-1.3368,-2.0673,-2.9199,-2.5885,-1.9767,-2.6417,-2.6321,-1.962,-1.7076,-1.7331,-0.1572,-0.3245,0.3447,0.1638,0.3815,0.3887,1.1388
-2.069,-2.7166,-1.7665,-2.5649,-1.7727,-2.2423,-0.5867,-0.1201,0.0274,-0.2252,0.047,0.7145,-0.5282,-1.1852,-2.1103,-2.9108,-2.5199,-2.0319,-2.5797,-2.6095,-1.8563,-1.6496,-1.7124,-0.0206,-0.1907,0.4498,0.2951,0.4552,0.3926,1.1171
-2.033,-2.5952,-1.7101,-2.2767,-1.3512,-1.9716,-0.2863,-0.0048,0.1844,0.0193,0.2096,0.805,-0.3491,-0.9695,-2.1421,-2.8659,-2.4242,-2.0675,-2.4787,-2.5479,-1.702,-1.562,-1.6762,0.1481,-0.0541,0.5411,0.4407,0.5351,0.4305,1.0896
-1.9441,-2.434,-1.5917,-1.9412,-0.8994,-1.6171,0.077,0.1727,0.3895,0.3187,0.4158,0.9221,-0.1071,-0.7046,-2.1561,-2.786,-2.3108,-2.0784,-2.3499,-2.4469,-1.5057,-1.4487,-1.6279,0.3353,0.0742,0.6116,0.5886,0.618,0.4979,1.0559
-1.8084,-2.2427,-1.4209,-1.5845,-0.4556,-1.2127,0.4679,0.3903,0.6201,0.6451,0.6467,1.0583,0.1788,-0.408,-2.1432,-2.672,-2.1876,-2.0576,-2.2028,-2.3061,-1.2748,-1.3114,-1.5656,0.5278,0.1878,0.6595,0.7279,0.7009,0.5841,1.0142
-1.6376,-2.0321,-1.2123,-1.2337,-0.0564,-0.7974,0.8493,0.6209,0.8497,0.9671,0.8801,1.2028,0.4865,-0.0986,-2.0947,-2.526,-2.06,-1.9988,-2.0441,-2.1278,-1.0187,-1.1503,-1.484,0.714,0.285,0.6871,0.8501,0.7816,0.6739,0.9614
-1.4487,-1.8152,-0.9845,-0.9149,0.2663,-0.4115,1.1864,0.8362,1.0525,1.2555,1.093,1.3435,0.7925,0.204,-2.0052,-2.3535,-1.931,-1.8994,-1.8779,-1.9186,-0.7506,-0.9675,-1.3778,0.8844,0.3669,0.6995,0.9498,0.8574,0.7508,0.8946
-1.2614,-1.606,-0.7579,-0.6523,0.4875,-0.0918,1.4513,1.0113,1.2072,1.4863,1.2662,1.468,1.0744,0.4803,-1.875,-2.1636,-1.8016,-1.7624,-1.7063,-1.6911,-0.4874,-0.7685,-1.245,1.0315,0.4354,0.7023,1.0238,0.9254,0.8003,0.8124
-1.095,-1.419,-0.5524,-0.4654,0.5916,0.1328,1.6256,1.1276,1.3004,1.6439,1.3858,1.5658,1.3123,0.712,-1.7111,-1.9688,-1.672,-1.5969,-1.531,-1.4623,-0.2487,-0.5641,-1.0898,1.1489,0.4917,0.6996,1.0709,0.9815,0.8128,0.7159
-0.9646,-1.2671,-0.3848,-0.3667,0.5735,0.2444,1.7021,1.1761,1.3276,1.7222,1.4453,1.6297,1.491,0.8836,-1.5267,-1.7826,-1.5419,-1.4167,-1.355,-1.2513,-0.0542,-0.369,-0.9228,1.2314,0.5346,0.6933,1.0913,1.0211,0.7857,0.6103
-0.8782,-1.1592,-0.2674,-0.36,0.4402,0.2381,1.6838,1.157,1.2932,1.7239,1.4453,1.6559,1.6003,0.9843,-1.3398,-1.6171,-1.4112,-1.2382,-1.1826,-1.0747,0.0799,-0.2,-0.7598,1.2753,0.5614,0.6826,1.0859,1.0395,0.7234,0.5042
-0.8355,-1.0987,-0.2059,-0.4385,0.2098,0.1226,1.5832,1.0799,1.2087,1.6588,1.3926,1.6451,1.6367,1.0097,-1.1695,-1.48,-1.2807,-1.0778,-1.0196,-0.943,0.1452,-0.0725,-0.6185,1.2787,0.5687,0.6656,1.0567,1.0333,0.636,0.4084
-0.8287,-1.0831,-0.1997,-0.5854,-0.0884,-0.0815,1.4199,0.9613,1.0905,1.542,1.2982,1.6018,1.6034,0.9636,-1.0321,-1.3737,-1.1523,-0.9495,-0.8726,-0.8576,0.1435,0.0035,-0.5148,1.2428,0.5543,0.6408,1.0073,1.0016,0.5373,0.3332
-0.8455,-1.1042,-0.2426,-0.776,-0.4174,-0.3438,1.2183,0.8221,0.9572,1.3911,1.1764,1.5341,1.5107,0.8583,-0.9377,-1.2947,-1.0298,-0.8635,-0.7476,-0.8105,0.0879,0.0258,-0.4594,1.1729,0.5189,0.6078,0.9428,0.9469,0.4415,0.2852
-0.8721,-1.1494,-0.3236,-0.98,-0.735,-0.6283,1.0056,0.6844,0.8278,1.2256,1.0428,1.4531,1.3754,0.7146,-0.8878,-1.2352,-0.9186,-0.8245,-0.6489,-0.7858,0.0011,0.001,-0.4551,1.0779,0.4669,0.5688,0.8702,0.8755,0.3614,0.2649
-0.8963,-1.2037,-0.4286,-1.1661,-0.9993,-0.8971,0.8094,0.5687,0.719,1.0647,0.9133,1.3713,1.2194,0.5585,-0.8752,-1.1848,-0.8243,-0.8311,-0.578,-0.7634,-0.0884,-0.0567,-0.4965,0.9704,0.4061,0.5279,0.7977,0.7966,0.3063,0.2669
-0.9083,-1.2515,-0.5415,-1.3055,-1.1734,-1.1151,0.6545,0.4907,0.6439,0.9258,0.8021,1.3008,1.0661,0.4174,-0.8868,-1.1327,-0.751,-0.8766,-0.5325,-0.7235,-0.1524,-0.128,-0.5715,0.8639,0.346,0.4901,0.7331,0.7209,0.2817,0.2809
-0.9011,-1.2783,-0.6465,-1.3756,-1.2306,-1.254,0.5602,0.459,0.61,0.8233,0.7202,1.2516,0.9368,0.315,-0.9071,-1.0696,-0.6996,-0.9497,-0.5065,-0.6516,-0.1687,-0.1936,-0.6633,0.771,0.2962,0.4601,0.6829,0.6579,0.2888,0.2951
-0.8711,-1.2728,-0.7293,-1.3629,-1.1587,-1.2962,0.5377,0.4747,0.6187,0.7662,0.674,1.229,0.8469,0.267,-0.9224,-0.9897,-0.667,-1.037,-0.4919,-0.5414,-0.1265,-0.2375,-0.7546,0.7006,0.2637,0.4404,0.6502,0.6142,0.3254,0.2997
-0.8172,-1.2275,-0.7797,-1.2643,-0.9608,-1.2363,0.5884,0.5308,0.6651,0.7575,0.6649,1.2333,0.8032,0.278,-0.9241,-0.8915,-0.6463,-1.125,-0.4795,-0.3973,-0.0284,-0.2506,-0.8307,0.6564,0.2519,0.4312,0.6347,0.5918,0.3862,0.2892
-0.7417,-1.1407,-0.7925,-1.0871,-0.6549,-1.0819,0.7046,0.6148,0.7398,0.7942,0.6891,1.26,0.8037,0.3415,-0.9099,-0.7784,-0.6287,-1.2018,-0.4618,-0.2324,0.1109,-0.2313,-0.8815,0.6372,0.2603,0.4305,0.6333,0.5889,0.4637,0.2634
-0.6499,-1.0165,-0.7682,-0.8474,-0.2701,-0.8514,0.871,0.7113,0.8304,0.8687,0.7396,1.3013,0.8394,0.4431,-0.8837,-0.6583,-0.6059,-1.259,-0.4345,-0.0661,0.2687,-0.1851,-0.9029,0.6385,0.2853,0.4351,0.6411,0.6004,0.5489,0.2271
-0.5496,-0.8648,-0.7129,-0.5677,0.1578,-0.571,1.0686,0.8051,0.9246,0.9706,0.8079,1.3479,0.898,0.5646,-0.853,-0.5426,-0.573,-1.2922,-0.3973,0.0803,0.4204,-0.1213,-0.8958,0.6541,0.3219,0.4416,0.6532,0.6198,0.6329,0.1876
-0.4512,-0.7007,-0.6363,-0.2741,0.5918,-0.2705,1.2775,0.8845,1.0121,1.089,0.8863,1.3919,0.9671,0.6888,-0.8266,-0.4441,-0.5304,-1.3022,-0.3543,0.1886,0.5455,-0.0509,-0.8657,0.6786,0.3644,0.4476,0.666,0.6413,0.7077,0.1526
-0.3651,-0.5423,-0.5503,0.007,0.9972,0.0208,1.4798,0.943,1.0861,1.2138,0.9685,1.4278,1.0373,0.8031,-0.812,-0.3748,-0.4842,-1.2942,-0.3129,0.247,0.6318,0.0166,-0.8204,0.7083,0.4079,0.4519,0.6775,0.6606,0.7675,0.1281
-0.3007,-0.4078,-0.4664,0.2516,1.3448,0.2769,1.6607,0.9792,1.1431,1.3361,1.05,1.4532,1.103,0.9009,-0.8137,-0.3439,-0.4455,-1.2772,-0.2816,0.2522,0.6769,0.0746,-0.7686,0.7411,0.4488,0.4547,0.6873,0.6755,0.8099,0.1169
-0.2636,-0.3119,-0.3941,0.4406,1.6124,0.4781,1.8096,0.9958,1.1826,1.4486,1.128,1.4688,1.1628,0.9811,-0.8326,-0.3554,-0.4268,-1.2615,-0.2681,0.2097,0.687,0.1204,-0.7183,0.7761,0.4842,0.4567,0.6961,0.6858,0.8355,0.1192
-0.2548,-0.2634,-0.339,0.5621,1.7859,0.6114,1.9194,0.9982,1.2053,1.5454,1.2005,1.4778,1.2177,1.0467,-0.8658,-0.4066,-0.4383,-1.2559,-0.2762,0.1323,0.6747,0.1546,-0.675,0.8132,0.5125,0.4591,0.7045,0.6925,0.8472,0.1325
-0.2696,-0.2631,-0.3027,0.6118,1.8597,0.6718,1.9861,0.9917,1.2126,1.6214,1.2652,1.4842,1.2696,1.1021,-0.9081,-0.4884,-0.4842,-1.2646,-0.3049,0.0375,0.6546,0.1809,-0.6408,0.8518,0.5333,0.4626,0.7134,0.6976,0.8493,0.1535
-0.2994,-0.3037,-0.2831,0.5938,1.8362,0.6613,2.0089,0.9806,1.2056,1.6728,1.3196,1.4921,1.3196,1.1508,-0.952,-0.586,-0.5604,-1.2862,-0.3482,-0.0553,0.6399,0.204,-0.6147,0.8914,0.5472,0.4681,0.7231,0.7031,0.8457,0.1783
-0.3335,-0.3716,-0.2753,0.5183,1.7248,0.588,1.9893,0.9674,1.1848,1.6972,1.3607,1.5048,1.3671,1.1941,-0.9898,-0.6819,-0.6548,-1.3136,-0.3963,-0.1292,0.6391,0.2278,-0.5933,0.9311,0.5557,0.4762,0.7344,0.7109,0.8386,0.2038
-0.3623,-0.4494,-0.2735,0.4004,1.54,0.4646,1.931,0.9518,1.1506,1.6939,1.3859,1.5234,1.409,1.2293,-1.0144,-0.7586,-0.7496,-1.3361,-0.4387,-0.1723,0.6546,0.2537,-0.5725,0.969,0.5606,0.4871,0.7471,0.7221,0.8278,0.2271
-0.3792,-0.5201,-0.2725,0.2561,1.2984,0.3063,1.8387,0.9321,1.1032,1.6629,1.3928,1.5467,1.4395,1.2504,-1.0201,-0.803,-0.8258,-1.3427,-0.4668,-0.1798,0.6812,0.2793,-0.5492,1.0023,0.563,0.5006,0.7604,0.7367,0.811,0.2458
-0.3823,-0.5702,-0.269,0.1002,1.0167,0.1287,1.7173,0.9055,1.0428,1.605,1.3794,1.5706,1.4505,1.2481,-1.0036,-0.8081,-0.8674,-1.3248,-0.4761,-0.155,0.708,0.2985,-0.5228,1.0261,0.5626,0.5155,0.772,0.7527,0.7852,0.2588
-0.3734,-0.5925,-0.2617,-0.0564,0.7099,-0.0539,1.5714,0.8691,0.9698,1.5206,1.3437,1.5884,1.433,1.2126,-0.9647,-0.7745,-0.8655,-1.2785,-0.4671,-0.1076,0.721,0.3029,-0.4959,1.0341,0.5569,0.5294,0.7777,0.766,0.7477,0.2658
-0.3571,-0.587,-0.251,-0.207,0.3913,-0.2294,1.4048,0.821,0.8849,1.4095,1.284,1.5915,1.3788,1.135,-0.9063,-0.7098,-0.8203,-1.2046,-0.4448,-0.0512,0.7062,0.284,-0.4731,1.0193,0.5418,0.5389,0.7718,0.771,0.6983,0.2687
-0.3382,-0.5598,-0.238,-0.3485,0.0731,-0.3883,1.2208,0.7605,0.7888,1.2715,1.1988,1.5712,1.282,1.0108,-0.8342,-0.6264,-0.7401,-1.108,-0.417,-0.0002,0.6534,0.2361,-0.4598,0.9752,0.5125,0.5398,0.7483,0.7612,0.64,0.2706
-0.3201,-0.5213,-0.2233,-0.4792,-0.2316,-0.5231,1.0233,0.6885,0.6824,1.1069,1.0878,1.5202,1.1413,0.8409,-0.7557,-0.539,-0.6397,-0.9957,-0.3922,0.0339,0.559,0.1577,-0.46,0.8977,0.4647,0.5282,0.7023,0.7308,0.5789,0.276
-0.3036,-0.4823,-0.2068,-0.5971,-0.5079,-0.6277,0.8169,0.6074,0.5668,0.9177,0.9521,1.4349,0.9607,0.6328,-0.6783,-0.4609,-0.5362,-0.875,-0.3773,0.0445,0.4266,0.0522,-0.4743,0.7866,0.3966,0.5013,0.6317,0.6764,0.5235,0.2889
-0.2871,-0.4523,-0.1868,-0.6979,-0.7388,-0.6961,0.6079,0.5206,0.4433,0.7078,0.7952,1.3164,0.7494,0.3996,-0.6085,-0.4027,-0.4454,-0.7526,-0.3761,0.0306,0.2664,-0.0728,-0.4999,0.6463,0.3095,0.4583,0.5379,0.5979,0.4822,0.3119
-0.2673,-0.437,-0.1608,-0.7756,-0.9075,-0.7231,0.4034,0.4324,0.3141,0.4836,0.6233,1.1708,0.5202,0.158,-0.5517,-0.3708,-0.3788,-0.6344,-0.389,-0.0045,0.0931,-0.2073,-0.5304,0.4849,0.2075,0.4004,0.4263,0.499,0.4622,0.3455
-0.2417,-0.4389,-0.1265,-0.8234,-0.9998,-0.7045,0.2108,0.3476,0.1822,0.2535,0.4445,1.0078,0.2875,-0.0751,-0.5117,-0.3682,-0.343,-0.5264,-0.4148,-0.0554,-0.0785,-0.3413,-0.5583,0.3134,0.0971,0.33,0.3042,0.3859,0.4677,0.3883
-0.2105,-0.4581,-0.0826,-0.8362,-1.0081,-0.6387,0.0369,0.2709,0.0521,0.0274,0.2683,0.839,0.0649,-0.2855,-0.4913,-0.3961,-0.3401,-0.4343,-0.4518,-0.118,-0.236,-0.4663,-0.5768,0.1428,-0.0153,0.2503,0.1798,0.2661,0.4988,0.4377
-0.1777,-0.4933,-0.0301,-0.8133,-0.9335,-0.5285,-0.1129,0.2069,-0.0706,-0.1844,0.1042,0.6756,-0.1377,-0.4644,-0.4923,-0.455,-0.37,-0.364,-0.5002,-0.1909,-0.3724,-0.5767,-0.5819,-0.0176,-0.1241,0.1642,0.0596,0.1465,0.5517,0.4906
-0.151,-0.5432,0.0277,-0.7591,-0.7873,-0.3821,-0.2353,0.1592,-0.179,-0.3718,-0.0397,0.5268,-0.3143,-0.6091,-0.5158,-0.5455,-0.4327,-0.3203,-0.5622,-0.2767,-0.4869,-0.6701,-0.5736,-0.1618,-0.2263,0.0738,-0.0525,0.0323,0.6194,0.5445
-0.14,-0.6068,0.0849,-0.6835,-0.5898,-0.2133,-0.3294,0.1302,-0.266,-0.526,-0.1574,0.3988,-0.4634,-0.7224,-0.5619,-0.6677,-0.5282,-0.3059,-0.6418,-0.3798,-0.5835,-0.746,-0.5552,-0.2877,-0.3207,-0.0196,-0.1555,-0.0734,0.6929,0.5984
-0.153,-0.6832,0.1345,-0.6004,-0.3673,-0.04,-0.3957,0.1204,-0.3258,-0.6402,-0.2459,0.2943,-0.5868,-0.8107,-0.6298,-0.8202,-0.6565,-0.3205,-0.7425,-0.5049,-0.6692,-0.8055,-0.5324,-0.3963,-0.408,-0.1144,-0.2512,-0.1697,0.7625,0.6529
-0.195,-0.7709,0.1695,-0.5251,-0.1485,0.1183,-0.4362,0.1284,-0.3544,-0.7104,-0.3051,0.2133,-0.6875,-0.8814,-0.7169,-0.9987,-0.8144,-0.3603,-0.8645,-0.6536,-0.7508,-0.8497,-0.5117,-0.4902,-0.489,-0.2089,-0.3423,-0.2568,0.8196,0.7095
-0.2659,-0.8674,0.1844,-0.471,0.0402,0.243,-0.4537,0.1507,-0.3516,-0.7362,-0.3374,0.1529,-0.7682,-0.9403,-0.8185,-1.1944,-0.9939,-0.4172,-1.003,-0.8224,-0.8323,-0.8791,-0.498,-0.5726,-0.5638,-0.3,-0.4312,-0.3353,0.8572,0.7697
-0.36,-0.968,0.177,-0.4474,0.178,0.32,-0.4511,0.1824,-0.3206,-0.7206,-0.3469,0.109,-0.8295,-0.9896,-0.9267,-1.3937,-1.1796,-0.48,-1.1467,-1.0007,-0.9128,-0.893,-0.4935,-0.6448,-0.6309,-0.3839,-0.5184,-0.4054,0.8706,0.8333
-0.4668,-1.0647,0.1491,-0.4566,0.2529,0.3411,-0.4314,0.2177,-0.2678,-0.6702,-0.3388,0.0774,-0.8694,-1.0266,-1.0309,-1.5785,-1.3504,-0.5352,-1.2782,-1.1717,-0.9856,-0.8887,-0.4959,-0.7055,-0.6866,-0.4556,-0.6019,-0.4662,0.8576,0.8972
-0.5726,-1.1466,0.106,-0.4942,0.2624,0.3058,-0.3971,0.2513,-0.2017,-0.5932,-0.3179,0.0548,-0.8829,-1.0444,-1.118,-1.7279,-1.4818,-0.569,-1.3765,-1.3142,-1.0391,-0.8623,-0.4991,-0.7502,-0.7257,-0.51,-0.6765,-0.5157,0.8177,0.9555
-0.6631,-1.201,0.0557,-0.5498,0.2128,0.22,-0.3506,0.2789,-0.131,-0.4989,-0.2878,0.0406,-0.8638,-1.0329,-1.1742,-1.8214,-1.5511,-0.5695,-1.4208,-1.4057,-1.0587,-0.8092,-0.4942,-0.7718,-0.7418,-0.5425,-0.7347,-0.5505,0.7526,0.9995
-0.7255,-1.2164,0.0065,-0.6105,0.1171,0.0946,-0.2941,0.2983,-0.0632,-0.3956,-0.2507,0.0374,-0.8056,-0.982,-1.1875,-1.8429,-1.5432,-0.5294,-1.3947,-1.4272,-1.0301,-0.7252,-0.4717,-0.7624,-0.7291,-0.5497,-0.7679,-0.5662,0.6653,1.0192
-0.7509,-1.1851,-0.0357,-0.6642,-0.0084,-0.0567,-0.2305,0.3092,-0.0033,-0.2897,-0.2073,0.0506,-0.7046,-0.8842,-1.1502,-1.784,-1.4536,-0.4477,-1.2906,-1.3673,-0.9433,-0.6081,-0.4243,-0.7153,-0.684,-0.5299,-0.7683,-0.5585,0.5602,1.006
-0.736,-1.1067,-0.0685,-0.7024,-0.1477,-0.2204,-0.1633,0.313,0.0463,-0.1859,-0.1569,0.0871,-0.5611,-0.738,-1.061,-1.6463,-1.2901,-0.3301,-1.1112,-1.225,-0.7955,-0.459,-0.3487,-0.6273,-0.6058,-0.4839,-0.7308,-0.5242,0.4426,0.954
-0.6827,-0.9886,-0.0941,-0.7225,-0.2869,-0.3846,-0.097,0.3121,0.0856,-0.0865,-0.0986,0.1537,-0.381,-0.5491,-0.9257,-1.4419,-1.0703,-0.1881,-0.8702,-1.0106,-0.5931,-0.2828,-0.2467,-0.5007,-0.498,-0.4148,-0.6545,-0.4623,0.3182,0.8628
-0.5979,-0.8451,-0.118,-0.7273,-0.4168,-0.54,-0.0372,0.3088,0.1161,0.0066,-0.0319,0.2542,-0.1758,-0.3312,-0.7573,-1.1914,-0.8173,-0.0367,-0.5887,-0.7442,-0.3514,-0.0884,-0.1247,-0.3431,-0.3677,-0.328,-0.5438,-0.3753,0.1925,0.7374
-0.4913,-0.6947,-0.1467,-0.7232,-0.5317,-0.6798,0.0105,0.3046,0.1397,0.092,0.042,0.388,0.0379,-0.1037,-0.5732,-0.9199,-0.5548,0.1094,-0.2918,-0.452,-0.0929,0.1128,0.0073,-0.1677,-0.2253,-0.2309,-0.4082,-0.2691,0.0705,0.5886
-0.3738,-0.556,-0.1855,-0.7178,-0.629,-0.7989,0.0413,0.2997,0.158,0.1675,0.1201,0.5487,0.2411,0.1106,-0.3921,-0.6534,-0.3019,0.2382,-0.0043,-0.1624,0.1563,0.3077,0.138,0.0094,-0.0829,-0.1322,-0.2613,-0.1525,-0.0436,0.4305
-0.2562,-0.4435,-0.236,-0.7163,-0.7062,-0.8923,0.0525,0.2929,0.1716,0.2299,0.1974,0.7245,0.4146,0.2899,-0.2309,-0.414,-0.0712,0.3429,0.2537,0.0992,0.3712,0.4837,0.2565,0.1709,0.0472,-0.041,-0.119,-0.0368,-0.1457,0.2781
-0.1478,-0.3649,-0.2947,-0.719,-0.7596,-0.954,0.0447,0.2827,0.1807,0.2759,0.2681,0.8996,0.5423,0.417,-0.1012,-0.2173,0.1316,0.4217,0.468,0.3135,0.5315,0.63,0.3546,0.3013,0.1543,0.0345,0.0032,0.0672,-0.2322,0.1449
-0.0552,-0.3195,-0.3532,-0.7207,-0.7825,-0.9765,0.0225,0.268,0.1853,0.3028,0.3259,1.0567,0.6137,0.4824,-0.0086,-0.0712,0.3048,0.4773,0.6307,0.4696,0.6254,0.7388,0.427,0.3896,0.231,0.0883,0.0922,0.15,-0.2987,0.0407
0.0185,-0.2985,-0.3996,-0.711,-0.766,-0.9514,-0.0061,0.2486,0.1859,0.309,0.366,1.1797,0.6254,0.4856,0.0479,0.0243,0.4477,0.5148,0.7399,0.5656,0.6506,0.806,0.4722,0.4306,0.2741,0.1179,0.1402,0.2053,-0.3406,-0.0291
0.0739,-0.2877,-0.4207,-0.6772,-0.7005,-0.8717,-0.0316,0.2259,0.1831,0.2947,0.3848,1.2557,0.5812,0.4345,0.0737,0.0753,0.5572,0.5392,0.7973,0.6074,0.6145,0.8316,0.4918,0.4255,0.285,0.1241,0.1447,0.2306,-0.3528,-0.0636
0.1151,-0.271,-0.4054,-0.6073,-0.5794,-0.7336,-0.0447,0.2019,0.1777,0.2618,0.3806,1.2773,0.4907,0.343,0.0773,0.0921,0.627,0.554,0.807,0.6064,0.5317,0.8193,0.4897,0.3812,0.2683,0.111,0.1092,0.2265,-0.3312,-0.0654
0.1485,-0.2339,-0.347,-0.4935,-0.4007,-0.5392,-0.0396,0.1792,0.1704,0.2137,0.3536,1.2433,0.367,0.2286,0.0676,0.0865,0.649,0.5608,0.7753,0.5774,0.4216,0.7759,0.4714,0.3083,0.231,0.0837,0.0419,0.1957,-0.2741,-0.0404
0.1814,-0.1668,-0.2456,-0.3339,-0.1698,-0.2967,-0.0144,0.1595,0.1614,0.1545,0.3058,1.1591,0.2246,0.1086,0.0529,0.0705,0.6178,0.559,0.7101,0.5359,0.3048,0.7101,0.4429,0.2196,0.1811,0.048,-0.0461,0.1427,-0.1834,0.0038
0.2206,-0.0659,-0.1074,-0.1328,0.1016,-0.0201,0.0283,0.1443,0.1507,0.089,0.2413,1.0362,0.0777,-0.0016,0.0397,0.0553,0.5352,0.5477,0.6218,0.4964,0.2004,0.6319,0.41,0.1276,0.1259,0.0086,-0.1421,0.0734,-0.0653,0.0582
0.2706,0.0662,0.056,0.0999,0.3963,0.2727,0.0827,0.1338,0.1385,0.0225,0.1662,0.891,-0.0615,-0.0906,0.032,0.05,0.4127,0.5263,0.5231,0.4704,0.1235,0.5509,0.3775,0.0432,0.072,-0.0311,-0.2338,-0.0057,0.0701,0.114
0.3331,0.2223,0.2305,0.3503,0.6936,0.5621,0.1408,0.1277,0.1249,-0.0399,0.0879,0.742,-0.1836,-0.1521,0.0308,0.0609,0.2709,0.4955,0.4273,0.4649,0.0826,0.4745,0.3483,-0.0263,0.0239,-0.0691,-0.3109,-0.0872,0.2107,0.1635
0.4066,0.3913,0.4019,0.6012,0.9704,0.8285,0.1945,0.1249,0.1099,-0.0937,0.0146,0.6071,-0.2826,-0.1852,0.0342,0.0899,0.1349,0.4573,0.3465,0.4805,0.0785,0.407,0.3226,-0.0775,-0.0163,-0.1044,-0.3662,-0.1636,0.3445,0.2024
0.4859,0.5603,0.5579,0.8333,1.2033,1.054,0.2362,0.1237,0.0933,-0.1359,-0.0463,0.5009,-0.356,-0.1943,0.0375,0.1337,0.0281,0.4146,0.2882,0.5113,0.1036,0.3482,0.2978,-0.111,-0.049,-0.1373,-0.3967,-0.2282,0.4614,0.2302
0.5635,0.7155,0.6898,1.0262,1.3699,1.2227,0.2599,0.1219,0.0742,-0.1653,-0.0892,0.433,-0.4045,-0.1875,0.0346,0.1841,-0.0345,0.3707,0.2536,0.5455,0.1438,0.2941,0.2693,-0.1306,-0.0766,-0.1679,-0.4036,-0.2755,0.5547,0.2498
0.6299,0.8441,0.792,1.1605,1.4513,1.3223,0.262,0.1171,0.0518,-0.1815,-0.1105,0.4071,-0.4311,-0.175,0.02,0.2288,-0.0497,0.3286,0.2377,0.5683,0.1814,0.2383,0.2322,-0.1415,-0.1024,-0.1961,-0.3912,-0.3015,0.6207,0.2665
0.6758,0.9351,0.862,1.2203,1.4356,1.3455,0.2421,0.1073,0.0257,-0.1851,-0.1088,0.4221,-0.4392,-0.1659,-0.0092,0.2552,-0.0268,0.2905,0.2303,0.5656,0.2001,0.1746,0.1829,-0.1489,-0.1291,-0.2207,-0.3657,-0.3046,0.6588,0.2851
0.6938,0.9809,0.8998,1.1971,1.3206,1.2914,0.2044,0.0917,-0.0029,-0.1757,-0.0844,0.4729,-0.4312,-0.1657,-0.0518,0.2526,0.016,0.258,0.22,0.5283,0.189,0.0992,0.1212,-0.1558,-0.1578,-0.2398,-0.3332,-0.2848,0.6697,0.3079
0.6812,0.979,0.9066,1.0922,1.1167,1.1669,0.1569,0.071,-0.0312,-0.152,-0.0385,0.5521,-0.4071,-0.1745,-0.1027,0.2163,0.0576,0.2318,0.1973,0.4555,0.1461,0.0129,0.0506,-0.1627,-0.1867,-0.2506,-0.2985,-0.2443,0.6558,0.334
0.6408,0.9327,0.8853,0.9181,0.8465,0.987,0.1112,0.0475,-0.0547,-0.1118,0.027,0.6509,-0.3644,-0.1867,-0.1538,0.1489,0.0804,0.2122,0.158,0.3556,0.0793,-0.0795,-0.022,-0.1674,-0.2121,-0.2505,-0.2641,-0.1869,0.62,0.3587
0.5812,0.8517,0.8402,0.6979,0.5433,0.7734,0.0805,0.0252,-0.0676,-0.0522,0.1093,0.7608,-0.299,-0.1925,-0.196,0.0607,0.0757,0.1994,0.1042,0.2453,0.0043,-0.1698,-0.0879,-0.1661,-0.2291,-0.2383,-0.2307,-0.118,0.5664,0.3756
0.5154,0.751,0.7773,0.4625,0.2459,0.5524,0.0769,0.0087,-0.0646,0.0286,0.2053,0.8735,-0.2068,-0.1806,-0.2208,-0.0323,0.0452,0.194,0.0434,0.1456,-0.0586,-0.2485,-0.1393,-0.1548,-0.2332,-0.2141,-0.1972,-0.0437,0.4995,0.3774
0.4582,0.6492,0.7042,0.2457,-0.0067,0.3514,0.1092,0.0023,-0.0415,0.1308,0.311,0.9816,-0.0853,-0.1411,-0.2225,-0.1113,0.0005,0.1966,-0.0126,0.0779,-0.09,-0.3074,-0.1708,-0.1302,-0.2212,-0.1803,-0.1617,0.0302,0.4248,0.3587
0.424,0.566,0.6302,0.0798,-0.1813,0.1951,0.1807,0.0095,0.0037,0.2519,0.4218,1.079,0.0646,-0.0678,-0.1985,-0.1581,-0.041,0.2082,-0.051,0.0589,-0.075,-0.3405,-0.1805,-0.0907,-0.1924,-0.1406,-0.1223,0.0982,0.3484,0.3166
0.4241,0.5195,0.5661,-0.0091,-0.2549,0.1026,0.2886,0.0316,0.0696,0.3864,0.5327,1.1609,0.2385,0.0404,-0.1495,-0.1581,-0.0602,0.2303,-0.0602,0.0987,-0.0065,-0.3448,-0.1698,-0.0364,-0.1484,-0.0994,-0.0774,0.1567,0.2765,0.2518
0.4658,0.524,0.5232,-0.0047,-0.2177,0.0854,0.4244,0.068,0.152,0.5261,0.6379,1.223,0.4281,0.1794,-0.0783,-0.1016,-0.0408,0.265,-0.0307,0.1996,0.1147,-0.3194,-0.142,0.0312,-0.0925,-0.061,-0.0264,0.2033,0.2155,0.1679
0.5516,0.5881,0.5128,0.0981,-0.0726,0.1464,0.5753,0.1155,0.2431,0.6607,0.7313,1.2622,0.6224,0.3411,0.0116,0.0154,0.0281,0.3149,0.0434,0.3576,0.2809,-0.2643,-0.1007,0.1097,-0.0293,-0.0291,0.0302,0.2367,0.1709,0.0709
0.6788,0.7141,0.544,0.2935,0.1657,0.2807,0.7268,0.1689,0.3327,0.7786,0.8064,1.2757,0.8087,0.5153,0.1174,0.192,0.1509,0.3831,0.1645,0.5642,0.48,-0.1797,-0.0483,0.1959,0.0365,-0.0066,0.0903,0.2561,0.1468,-0.033
0.8404,0.898,0.6222,0.566,0.4753,0.4766,0.8647,0.2216,0.4096,0.868,0.8568,1.2612,0.9746,0.6911,0.2379,0.4228,0.3259,0.4719,0.3317,0.8092,0.6989,-0.0653,0.0148,0.2866,0.1006,0.0046,0.1507,0.2612,0.1452,-0.1386
1.0253,1.1303,0.7478,0.8938,0.8301,0.718,0.9778,0.2661,0.4626,0.9189,0.8766,1.2178,1.1091,0.8588,0.3736,0.6988,0.5459,0.5832,0.5403,1.0819,0.925,0.079,0.0905,0.3787,0.1601,0.0041,0.2071,0.2519,0.1649,-0.2423
1.2202,1.3977,0.9151,1.2525,1.2048,0.9868,1.0587,0.2959,0.4829,0.9248,0.8622,1.1462,1.204,1.0106,0.5257,1.008,0.7996,0.7171,0.7825,1.3721,1.1482,0.2524,0.1823,0.4692,0.2137,-0.007,0.2553,0.2288,0.2012,-0.3427
1.4109,1.6853,1.1127,1.6184,1.5779,1.2645,1.1052,0.3062,0.4659,0.8838,0.8126,1.0501,1.2551,1.1415,0.6943,1.3364,1.0736,0.872,1.0473,1.6704,1.3612,0.452,0.2945,0.5558,0.2626,-0.0258,0.2919,0.1941,0.2462,-0.4398
1.5848,1.9783,1.3251,1.9717,1.9332,1.5352,1.1201,0.2955,0.4123,0.7998,0.7312,0.9361,1.2631,1.2492,0.8774,1.6687,1.3541,1.0445,1.3221,1.9672,1.5593,0.6718,0.4307,0.6372,0.3098,-0.0476,0.3151,0.1514,0.2893,-0.5337
1.7326,2.2632,1.5345,2.2978,2.2603,1.786,1.1106,0.2659,0.329,0.6827,0.6261,0.8145,1.2332,1.3342,1.0693,1.9902,1.628,1.2293,1.5936,2.2535,1.7403,0.9035,0.5929,0.7128,0.3598,-0.0664,0.3257,0.1064,0.3187,-0.6239
1.8493,2.5281,1.7232,2.5874,2.5533,2.0081,1.0869,0.223,0.2283,0.5476,0.5091,0.6978,1.1751,1.3995,1.2615,2.287,1.8849,1.4198,1.8498,2.5196,1.9035,1.1368,0.7804,0.783,0.4172,-0.0762,0.3271,0.0664,0.3239,-0.7091
1.9343,2.7624,1.8763,2.8346,2.8083,2.1959,1.0608,0.1749,0.1261,0.4126,0.3947,0.5996,1.1018,1.4497,1.4432,2.5478,2.1166,1.6084,2.0814,2.7565,2.0489,1.3614,0.9898,0.849,0.4861,-0.0716,0.3245,0.0391,0.2964,-0.7873
1.9904,2.9565,1.9829,3.0357,3.0215,2.3461,1.043,0.1306,0.0389,0.2962,0.2975,0.5323,1.0275,1.4905,1.6035,2.7639,2.3177,1.787,2.2825,2.9561,2.1778,1.5688,1.2142,0.9128,0.5684,-0.0492,0.3246,0.0319,0.2323,-0.8566
2.0225,3.1021,2.038,3.187,3.1875,2.4563,1.0409,0.0974,-0.0201,0.2138,0.2296,0.5046,0.9664,1.528,1.7339,2.9304,2.4851,1.9487,2.4509,3.1125,2.2914,1.7534,1.4449,0.9767,0.664,-0.0081,0.334,0.05,0.1322,-0.9157
2.0361,3.1932,2.0421,3.2848,3.2998,2.5247,1.0573,0.0796,-0.0432,0.1754,0.1986,0.5198,0.9299,1.568,1.8297,3.0458,2.6183,2.0884,2.5875,3.223,2.3916,1.9133,1.6715,1.0433,0.7702,0.0501,0.3583,0.0957,0.0016,-0.9646
2.037,3.2279,2.0016,3.326,3.3514,2.55,1.0898,0.077,-0.0308,0.1837,0.2063,0.5755,0.9263,1.6152,1.8913,3.113,2.7184,2.2039,2.6954,3.2885,2.4806,2.0498,1.8838,1.1148,0.8822,0.1214,0.4011,0.167,-0.1501,-1.0048
2.0303,3.2093,1.9273,3.31,3.3379,2.5322,1.1318,0.0853,0.0096,0.2346,0.2492,0.6644,0.9592,1.6729,1.9239,3.1382,2.7887,2.2965,2.7785,3.3137,2.5603,2.1656,2.0722,1.1924,0.9939,0.2001,0.4634,0.2587,-0.3104,-1.0389
2.0207,3.1463,1.8328,3.24,3.2596,2.474,1.1747,0.0974,0.0653,0.3181,0.3194,0.7758,1.0275,1.7421,1.9358,3.1308,2.834,2.3695,2.8402,3.3058,2.632,2.2634,2.229,1.2759,1.0985,0.2793,0.5429,0.3619,-0.4662,-1.0701
2.0122,3.0529,1.7322,3.1243,3.1234,2.3816,1.2099,0.1052,0.1215,0.4208,0.4067,0.8982,1.1262,1.8215,1.9363,3.1014,2.8606,2.4277,2.8826,3.2738,2.6957,2.3444,2.3488,1.3632,1.1894,0.352,0.6345,0.4664,-0.6051,-1.1008
2.0084,2.9457,1.6379,2.9763,2.9438,2.2648,1.231,0.1015,0.1644,0.5288,0.5007,1.0208,1.2465,1.9071,1.9332,3.0612,2.8755,2.4753,2.9064,3.2264,2.7502,2.4073,2.429,1.4503,1.2611,0.4116,0.7311,0.5621,-0.7175,-1.1325
2.0123,2.8418,1.5592,2.8141,2.7425,2.1368,1.2359,0.0822,0.185,0.6298,0.5927,1.1349,1.3781,1.9931,1.9322,3.0204,2.8861,2.5151,2.9126,3.1721,2.7931,2.4489,2.4695,1.5316,1.31,0.4536,0.8247,0.6406,-0.7975,-1.1658
2.0259,2.7564,1.5021,2.6584,2.5459,2.013,1.2267,0.0472,0.1803,0.7156,0.6773,1.2346,1.5106,2.0732,1.9374,2.988,2.8994,2.5478,2.9032,3.1186,2.823,2.466,2.4729,1.6013,1.3351,0.4755,0.9078,0.6974,-0.843,-1.2019
2.0499,2.7009,1.4692,2.5308,2.3826,1.9097,1.2103,0.0011,0.1545,0.7834,0.7535,1.3168,1.635,2.1423,1.9519,2.9715,2.921,2.5719,2.8828,3.0741,2.8402,2.4572,2.4441,1.6544,1.338,0.4776,0.9746,0.7318,-0.8556,-1.243
2.084,2.6822,1.4608,2.451,2.2792,1.8425,1.1965,-0.0477,0.1174,0.8356,0.8237,1.3809,1.7456,2.1979,1.9795,2.9767,2.9544,2.5847,2.859,3.0473,2.8484,2.4252,2.3899,1.6875,1.3224,0.4625,1.0217,0.747,-0.8392,-1.2934
2.1267,2.7022,1.4757,2.4343,2.2564,1.8241,1.1963,-0.0884,0.0828,0.8786,0.8926,1.428,1.8396,2.2408,2.0239,3.008,3.0014,2.583,2.8424,3.0471,2.8548,2.3769,2.3178,1.6996,1.2938,0.4341,1.0477,0.7485,-0.7995,-1.3582
2.1768,2.7591,1.5122,2.4893,2.3254,1.8622,1.2191,-0.1105,0.0641,0.9203,0.9646,1.4593,1.9174,2.2749,2.0882,3.0675,3.0623,2.5646,2.8448,3.0822,2.8689,2.3239,2.2365,1.6921,1.2578,0.3969,1.0536,0.742,-0.7429,-1.4417
2.2331,2.8482,1.5678,2.6174,2.4861,1.9585,1.2702,-0.1064,0.0714,0.9675,1.0415,1.4759,1.9807,2.3061,2.1729,3.1553,3.1367,2.5292,2.8779,3.1589,2.9014,2.2799,2.155,1.6682,1.2203,0.3549,1.0414,0.7318,-0.6761,-1.5451
2.2956,2.9636,1.6397,2.8121,2.7273,2.1071,1.3496,-0.0741,0.1082,1.0232,1.121,1.4776,2.0323,2.3411,2.2748,3.2686,3.224,2.4797,2.9506,3.2798,2.9612,2.2592,2.0825,1.6331,1.1869,0.3124,1.0143,0.7205,-0.6058,-1.6648
2.365,3.0995,1.7243,3.0606,3.0283,2.296,1.4512,-0.0172,0.1707,1.0858,1.1968,1.4636,2.0746,2.3853,2.3867,3.4021,3.3238,2.4222,3.0676,3.4421,3.0533,2.2736,2.0284,1.5936,1.163,0.2738,0.9769,0.7084,-0.5384,-1.7922
2.4425,3.2506,1.8176,3.3456,3.3627,2.5084,1.5646,0.0548,0.2484,1.149,1.2603,1.4328,2.1093,2.4421,2.4979,3.5483,3.4352,2.3655,3.2279,3.6378,3.1779,2.3308,2.0011,1.5576,1.1542,0.2441,0.9352,0.6954,-0.4793,-1.9147
2.5284,3.4119,1.9152,3.6473,3.7018,2.7245,1.6764,0.1289,0.3263,1.2038,1.3023,1.3854,2.1375,2.5114,2.5961,3.6983,3.5562,2.3198,3.424,3.8537,3.3289,2.4322,2.0079,1.5337,1.166,0.2296,0.8969,0.6823,-0.4331,-2.0179
2.6212,3.578,2.0123,3.9453,4.0181,2.9245,1.7733,0.1912,0.3884,1.2408,1.3163,1.3236,2.1593,2.59,2.6708,3.8426,3.6826,2.2943,3.6429,4.0731,3.4952,2.5731,2.0524,1.5297,1.2032,0.2368,0.8706,0.6711,-0.403,-2.0893
2.7162,3.7419,2.104,4.22,4.2882,3.0912,1.8444,0.2299,0.4213,1.2523,1.2993,1.252,2.1743,2.6717,2.7148,3.9718,3.8077,2.2958,3.8668,4.2783,3.6619,2.7422,2.134,1.552,1.2684,0.2713,0.8648,0.6658,-0.3901,-2.121
2.8049,3.8948,2.1852,4.4539,4.4943,3.2112,1.8826,0.238,0.4174,1.2345,1.2532,1.1776,2.1811,2.7483,2.7269,4.0777,3.9223,2.3256,4.0761,4.4526,3.8127,2.9236,2.2467,1.6031,1.361,0.3367,0.8861,0.671,-0.3939,-2.1118
2.8757,4.0257,2.2505,4.6321,4.625,3.2771,1.8856,0.2141,0.3761,1.1879,1.184,1.1082,2.1779,2.811,2.7111,4.1531,4.0154,2.3794,4.252,4.5831,3.9331,3.0988,2.3792,1.682,1.4768,0.4325,0.9377,0.6907,-0.4118,-2.0679
2.9163,4.1226,2.2946,4.7437,4.6753,3.2869,1.8559,0.1628,0.3042,1.1176,1.1006,1.0514,2.1629,2.852,2.6755,4.1924,4.0758,2.4465,4.3785,4.6615,4.0121,3.2499,2.5165,1.783,1.6076,0.5541,1.0184,0.7273,-0.4395,-2.0008
2.9161,4.1733,2.3126,4.7823,4.6465,3.2439,1.7996,0.0932,0.214,1.0319,1.0134,1.0126,2.1345,2.8659,2.6289,4.1917,4.0938,2.5121,4.4451,4.6853,4.0443,3.3622,2.6418,1.8971,1.742,0.6925,1.1221,0.7804,-0.4717,-1.9243
2.8693,4.1679,2.3006,4.7463,4.5448,3.1555,1.7253,0.0176,0.1212,0.9413,0.9329,0.9947,2.0926,2.8505,2.5786,4.1491,4.0628,2.5596,4.4475,4.6567,4.03,3.4262,2.7393,2.0131,1.8674,0.8356,1.2388,0.8466,-0.5022,-1.8513
2.7764,4.1004,2.2569,4.6395,4.3812,3.0319,1.6432,-0.0513,0.042,0.8572,0.8684,0.9978,2.0391,2.8078,2.5276,4.0645,3.9803,2.5745,4.3872,4.5819,3.9743,3.4388,2.7966,2.1192,1.9713,0.9694,1.3561,0.92,-0.5252,-1.7902
2.6443,3.9703,2.1826,4.4698,4.1694,2.8842,1.5636,-0.1019,-0.0097,0.7906,0.8274,1.0193,1.9785,2.7431,2.4748,3.9398,3.8484,2.5471,4.2704,4.4683,3.8858,3.4024,2.806,2.2053,2.043,1.0805,1.4611,0.9928,-0.5356,-1.7435
2.4847,3.7835,2.0821,4.2486,3.9244,2.7229,1.496,-0.125,-0.0243,0.7508,0.8146,1.0553,1.917,2.664,2.4143,3.7784,3.6732,2.474,4.1061,4.3235,3.7737,3.3233,2.7652,2.2635,2.0747,1.157,1.542,1.0567,-0.5301,-1.7075
2.3118,3.5516,1.9625,3.9886,3.6606,2.5569,1.448,-0.115,0.003,0.7443,0.8322,1.1011,1.8619,2.5784,2.338,3.5853,3.4639,2.3586,3.9043,4.1531,3.6454,3.2089,2.6767,2.2889,2.0623,1.1906,1.5898,1.1038,-0.5077,-1.6735
2.139,3.2911,1.8327,3.7036,3.391,2.3927,1.4243,-0.07,0.0715,0.7739,0.8788,1.1522,1.8195,2.493,2.2374,3.3668,3.2313,2.2093,3.6749,3.9606,3.5057,3.0662,2.5467,2.2795,2.0052,1.177,1.5995,1.1281,-0.47,-1.631
1.9772,3.02,1.7026,3.4066,3.1262,2.2347,1.4262,0.0087,0.1759,0.8378,0.9502,1.2046,1.7936,2.4117,2.1067,3.1303,2.9868,2.038,3.4271,3.7482,3.3559,2.9006,2.3841,2.2356,1.9066,1.1169,1.5697,1.1257,-0.4203,-1.5699
1.833,2.7563,1.581,3.1101,2.8747,2.0856,1.4514,0.1161,0.3073,0.9296,1.0392,1.2551,1.7847,2.3351,1.9451,2.8842,2.7406,1.8574,3.1697,3.5181,3.1953,2.7159,2.1987,2.1599,1.7726,1.0156,1.5032,1.0957,-0.3632,-1.4843
1.7084,2.5143,1.4747,2.825,2.6431,1.9475,1.4944,0.2448,0.4543,1.039,1.1366,1.3009,1.7896,2.2611,1.7581,2.637,2.5004,1.6796,2.9105,3.274,3.0222,2.5152,2.0006,2.0569,1.6122,0.8826,1.4064,1.04,-0.3031,-1.374
1.6014,2.3028,1.3871,2.5606,2.4364,1.8218,1.5471,0.3849,0.6041,1.1529,1.2317,1.34,1.8024,2.1856,1.5567,2.3966,2.2709,1.5142,2.6572,3.0213,2.8364,2.3026,1.7996,1.9332,1.4364,0.7311,1.2885,0.9638,-0.2434,-1.2448
1.5071,2.1232,1.3173,2.3231,2.2583,1.7095,1.5997,0.5252,0.7441,1.2569,1.3141,1.3705,1.8153,2.1039,1.3549,2.1685,2.0533,1.3675,2.416,2.7668,2.6394,2.0841,1.6049,1.7968,1.2576,0.5761,1.1603,0.8748,-0.1865,-1.1069
1.419,1.969,1.2595,2.1149,2.1103,1.6103,1.6415,0.654,0.8625,1.3373,1.3741,1.3911,1.8199,2.0115,1.166,1.9546,1.8463,1.2416,2.1917,2.5172,2.4346,1.8678,1.4246,1.6567,1.0881,0.4329,1.0334,0.782,-0.1334,-0.9719
1.3297,1.8259,1.2041,1.9333,1.9909,1.522,1.6618,0.7604,0.9499,1.3823,1.4041,1.4008,1.8079,1.9045,0.9987,1.752,1.6462,1.1341,1.9867,2.2772,2.226,1.6632,1.2652,1.5218,0.9391,0.3147,0.9181,0.6952,-0.085,-0.8498
1.2323,1.6745,1.1384,1.7708,1.8953,1.4401,1.651,0.8355,0.9993,1.3835,1.3986,1.3985,1.7722,1.7799,0.8549,1.5527,1.4481,1.0383,1.8001,2.0474,2.017,1.4791,1.1306,1.3993,0.8184,0.2311,0.8223,0.6227,-0.0416,-0.7463
1.1204,1.4934,1.0493,1.6156,1.8157,1.3584,1.602,0.8734,1.0077,1.3367,1.3553,1.3835,1.7074,1.6356,0.7295,1.3453,1.246,0.9442,1.6282,1.8246,1.809,1.3219,1.0219,1.2935,0.7298,0.1865,0.75,0.5705,-0.004,-0.6624
0.9895,1.2642,0.9261,1.4545,1.7426,1.2696,1.5108,0.8723,0.9757,1.2424,1.2747,1.3552,1.6106,1.4705,0.6129,1.1174,1.0337,0.8412,1.4645,1.6023,1.6012,1.1938,0.9368,1.2057,0.6724,0.1798,0.7012,0.5411,0.0274,-0.5944
0.8376,0.9758,0.7627,1.2758,1.6669,1.1679,1.3784,0.8348,0.9079,1.1057,1.1608,1.3142,1.4824,1.285,0.494,0.8594,0.8059,0.7205,1.3021,1.3731,1.3913,1.093,0.8703,1.1337,0.6414,0.2056,0.6727,0.5336,0.0529,-0.5364
0.6656,0.6272,0.5599,1.0724,1.582,1.05,1.2105,0.7678,0.8126,0.9356,1.0206,1.2621,1.327,1.0813,0.3642,0.5669,0.5597,0.5779,1.1349,1.131,1.1768,1.0136,0.8158,1.0732,0.6291,0.2552,0.6586,0.5442,0.0736,-0.4817
0.4774,0.2284,0.3251,0.844,1.4851,0.9167,1.0174,0.6815,0.7001,0.7442,0.8633,1.2021,1.152,0.8638,0.2195,0.2428,0.2959,0.4142,0.9592,0.874,0.956,0.9471,0.7664,1.019,0.6268,0.3182,0.6524,0.5668,0.0913,-0.4252
0.2798,-0.2012,0.0715,0.597,1.3779,0.7729,0.8125,0.5879,0.5821,0.5448,0.6995,1.1386,0.9676,0.6386,0.0617,-0.1026,0.0191,0.2358,0.7746,0.6044,0.7293,0.8846,0.7161,0.9659,0.6262,0.3847,0.6476,0.5943,0.1083,-0.3644
