FP1,F3,F7,FC3,C3,C5,P3,P7,PO7,PO3,O1,Oz,Pz,CPz,FP2,Fz,F4,F8,FC4,FCz,Cz,C4,C6,P4,P8,PO8,PO4,O2,(corr) HEOG,(corr) VEOG
0.0384,0.288,0.0004,0.4222,0.5768,0.4203,0.5081,0.1524,0.1531,0.3727,0.1908,-0.0246,0.4451,0.7284,0.315,0.5618,0.665,0.4463,0.8254,0.648,0.7847,0.6634,0.5292,0.3906,0.3699,0.1471,0.0602,0.1603,0.3221,-0.0323
0.0181,0.2438,-0.0021,0.3694,0.5325,0.4186,0.5337,0.1791,0.2124,0.4052,0.2311,0.0144,0.4339,0.7065,0.3164,0.5134,0.5987,0.3878,0.776,0.6197,0.7518,0.6236,0.4906,0.377,0.3467,0.1412,0.0527,0.1973,0.3303,-0.0857
0.0105,0.1634,-0.0228,0.2839,0.4576,0.3646,0.5434,0.1925,0.2647,0.4349,0.2606,0.0521,0.4177,0.6688,0.3087,0.4494,0.5065,0.3246,0.7001,0.5751,0.7063,0.5672,0.4272,0.3587,0.3103,0.1399,0.0447,0.229,0.3468,-0.1369
0.0311,0.0521,-0.0577,0.1743,0.3573,0.2549,0.533,0.1866,0.3014,0.4552,0.2754,0.0815,0.3979,0.6204,0.2953,0.3815,0.4015,0.2613,0.608,0.524,0.6564,0.4981,0.339,0.3364,0.2577,0.1402,0.0347,0.2486,0.373,-0.1778
0.0903,-0.0777,-0.0995,0.0551,0.242,0.0958,0.5001,0.1568,0.3151,0.4593,0.2725,0.0957,0.3754,0.5668,0.2807,0.3227,0.2982,0.2019,0.5117,0.4779,0.6106,0.4214,0.2296,0.3107,0.1894,0.139,0.022,0.2502,0.4078,-0.2018
0.1901,-0.207,-0.1377,-0.055,0.1263,-0.0962,0.4464,0.1024,0.3013,0.4424,0.2506,0.0902,0.3519,0.5148,0.2705,0.2849,0.2118,0.1506,0.4243,0.4477,0.5763,0.3438,0.1076,0.2829,0.1099,0.1338,0.0072,0.2308,0.4476,-0.2057
0.3219,-0.3132,-0.1607,-0.1357,0.0281,-0.2955,0.3784,0.0278,0.2607,0.4039,0.2116,0.0642,0.3301,0.472,0.2698,0.2777,0.1553,0.1133,0.3586,0.4427,0.5599,0.2737,-0.0127,0.2561,0.0284,0.1241,-0.0075,0.1913,0.4869,-0.1904
0.4673,-0.3741,-0.158,-0.1685,-0.034,-0.4703,0.3071,-0.0571,0.1996,0.3489,0.1605,0.0219,0.3145,0.4461,0.2825,0.3065,0.1392,0.0974,0.3254,0.469,0.5662,0.2213,-0.1125,0.235,-0.043,0.1113,-0.0177,0.1372,0.5197,-0.1612
0.6024,-0.3716,-0.1221,-0.1401,-0.044,-0.5879,0.247,-0.1383,0.1294,0.2871,0.1056,-0.0284,0.3109,0.4441,0.3104,0.372,0.1691,0.111,0.3321,0.528,0.5973,0.1965,-0.1716,0.2258,-0.0913,0.0992,-0.0186,0.0781,0.5399,-0.1259
0.7036,-0.2959,-0.05,-0.0446,0.0085,-0.6197,0.2122,-0.2003,0.0646,0.2316,0.0564,-0.0753,0.3249,0.4705,0.3523,0.4699,0.2458,0.1621,0.3811,0.6166,0.6526,0.2073,-0.1722,0.2344,-0.1061,0.0927,-0.0049,0.0261,0.5427,-0.0926
0.7538,-0.1471,0.057,0.115,0.1256,-0.5473,0.2143,-0.2295,0.02,0.1957,0.0225,-0.1071,0.3604,0.5261,0.4052,0.5929,0.3657,0.2562,0.4697,0.7279,0.7285,0.2571,-0.1046,0.2648,-0.0821,0.0966,0.0264,-0.0073,0.5259,-0.0682
0.7477,0.0641,0.193,0.3271,0.3,-0.3676,0.2586,-0.2178,0.0073,0.1897,0.0106,-0.1147,0.4181,0.6074,0.4661,0.7324,0.521,0.395,0.5901,0.8526,0.8188,0.3435,0.0299,0.3172,-0.0209,0.1138,0.076,-0.0131,0.4902,-0.056
0.6943,0.3185,0.3491,0.573,0.516,-0.0952,0.3437,-0.1645,0.0325,0.2186,0.0238,-0.0934,0.4951,0.7067,0.5333,0.8803,0.7017,0.5744,0.7309,0.9809,0.9158,0.458,0.2174,0.388,0.0694,0.1445,0.1413,0.0125,0.4398,-0.0556
0.6138,0.5914,0.5139,0.8295,0.7511,0.2383,0.4607,-0.0769,0.0947,0.281,0.0602,-0.0443,0.5847,0.8135,0.6075,1.0299,0.8958,0.784,0.8784,1.1039,1.0108,0.5875,0.434,0.4696,0.1761,0.1863,0.2169,0.0675,0.3809,-0.0636
0.5325,0.8562,0.6734,1.0713,0.9788,0.5891,0.5947,0.0306,0.1861,0.3685,0.1137,0.0261,0.6771,0.9156,0.6901,1.1756,1.0902,1.007,1.0187,1.2135,1.0952,0.7159,0.6502,0.552,0.2846,0.2343,0.2951,0.1446,0.3205,-0.0739
0.4738,1.0881,0.8118,1.2739,1.1727,0.9076,0.7271,0.1395,0.2925,0.4676,0.1749,0.1072,0.761,1.0005,0.7802,1.3106,1.2703,1.2211,1.1381,1.3023,1.1601,0.8268,0.8362,0.6238,0.3809,0.2822,0.3675,0.2324,0.2644,-0.08
0.452,1.2666,0.9119,1.4162,1.3092,1.1479,0.8384,0.2307,0.3963,0.5614,0.2328,0.1859,0.824,1.0565,0.8723,1.4267,1.4209,1.4009,1.2245,1.3626,1.1974,0.9057,0.9675,0.6745,0.4545,0.3235,0.4253,0.3172,0.2166,-0.0754
0.4685,1.378,0.9577,1.4834,1.3717,1.2748,0.9113,0.2877,0.4799,0.6331,0.2766,0.2492,0.8555,1.0748,0.9554,1.5133,1.527,1.5223,1.2686,1.3874,1.2002,0.9421,1.0287,0.6956,0.4996,0.3527,0.461,0.3858,0.1785,-0.0556
0.5134,1.4166,0.9377,1.4691,1.3528,1.271,0.9337,0.2996,0.5283,0.6686,0.2973,0.2866,0.8477,1.0504,1.0148,1.5601,1.577,1.5675,1.2652,1.3713,1.1646,0.9315,1.0158,0.6827,0.5155,0.3657,0.4691,0.4272,0.1496,-0.0185
0.5697,1.3854,0.8492,1.3774,1.2567,1.14,0.9012,0.2636,0.5326,0.6602,0.2897,0.2917,0.7979,0.9842,1.0366,1.5596,1.5657,1.5294,1.2154,1.3134,1.0916,0.8771,0.9377,0.6361,0.5064,0.361,0.4477,0.435,0.1279,0.0357
0.62,1.2964,0.7014,1.2235,1.0988,0.906,0.8176,0.1842,0.4918,0.6074,0.2526,0.2636,0.7093,0.8831,1.0129,1.5118,1.4976,1.4155,1.128,1.2193,0.9884,0.7899,0.8144,0.5619,0.48,0.3399,0.3989,0.4082,0.1105,0.1039
0.6532,1.1701,0.5159,1.033,0.9047,0.6095,0.6953,0.0733,0.4122,0.5174,0.1889,0.207,0.5914,0.7607,0.9453,1.4258,1.3876,1.2474,1.0199,1.1023,0.869,0.6881,0.674,0.4706,0.4455,0.3059,0.3284,0.3517,0.0949,0.1814
0.6671,1.033,0.3237,0.8384,0.7059,0.3008,0.5528,-0.0532,0.3063,0.404,0.1056,0.1312,0.4594,0.6353,0.8469,1.3209,1.2604,1.0579,0.9143,0.9835,0.7529,0.5943,0.5481,0.3762,0.4118,0.2646,0.2455,0.2751,0.0797,0.2622
0.67,0.915,0.1601,0.6749,0.5356,0.0304,0.4117,-0.1775,0.1904,0.2846,0.0119,0.0481,0.3317,0.5281,0.7402,1.2241,1.1467,0.8854,0.8379,0.8896,0.6629,0.532,0.4659,0.2937,0.3859,0.2223,0.1612,0.1908,0.0652,0.3395
0.6776,0.8446,0.0574,0.5753,0.4237,-0.1589,0.2936,-0.2839,0.0808,0.1771,-0.0819,-0.0302,0.2277,0.4604,0.653,1.1661,1.0781,0.7669,0.8163,0.8486,0.6224,0.5221,0.4498,0.2372,0.3716,0.185,0.0864,0.1112,0.0539,0.407
0.7085,0.845,0.039,0.5644,0.3923,-0.2386,0.2164,-0.3607,-0.0086,0.0971,-0.1658,-0.0934,0.1648,0.4503,0.6131,1.1754,1.0817,0.7317,0.8698,0.886,0.6514,0.5794,0.5112,0.2174,0.3703,0.1578,0.031,0.0472,0.0498,0.4591
0.7791,0.9305,0.1151,0.6554,0.4529,-0.1974,0.1924,-0.4021,-0.0686,0.0556,-0.2319,-0.1347,0.1556,0.5103,0.6418,1.2726,1.175,0.7955,1.0097,1.0191,0.7632,0.7098,0.6495,0.2409,0.3809,0.1443,0.002,0.0061,0.0574,0.4918
0.8997,1.1041,0.2818,0.848,0.6055,-0.0415,0.2269,-0.4078,-0.0948,0.0578,-0.2747,-0.1513,0.2068,0.6452,0.7495,1.4663,1.3631,0.9582,1.2357,1.2541,0.9623,0.9101,0.8529,0.3094,0.4021,0.1468,0.0036,-0.0086,0.0803,0.5029
1.0712,1.3568,0.5226,1.1284,0.8384,0.2089,0.3182,-0.3821,-0.0877,0.1033,-0.2921,-0.1441,0.3181,0.8515,0.933,1.7509,1.6372,1.2037,1.5365,1.5836,1.2428,1.1683,1.101,0.42,0.4329,0.1665,0.0372,0.0031,0.1199,0.4926
1.2858,1.6693,0.811,1.4719,1.1314,0.524,0.4589,-0.3318,-0.0508,0.1873,-0.2841,-0.1165,0.4829,1.1177,1.1762,2.1072,1.9773,1.5032,1.8909,1.9874,1.5889,1.4656,1.3693,0.566,0.4735,0.2034,0.1017,0.0389,0.1745,0.4633
1.5278,2.0144,1.1163,1.8461,1.4583,0.8688,0.6367,-0.2648,0.0102,0.3009,-0.2533,-0.0734,0.6891,1.4257,1.4534,2.5048,2.3539,1.8204,2.2711,2.4347,1.9764,1.7788,1.6327,0.7377,0.5244,0.2568,0.1935,0.0946,0.24,0.4193
1.7766,2.3604,1.4075,2.2155,1.7906,1.2087,0.8364,-0.1889,0.0887,0.4331,-0.2037,-0.0203,0.9202,1.7519,1.7343,2.9069,2.7332,2.1177,2.646,2.8882,2.3754,2.083,1.8692,0.9228,0.5856,0.3239,0.3068,0.1648,0.3098,0.3654
2.0101,2.6751,1.6574,2.5461,2.1006,1.5126,1.041,-0.1112,0.1778,0.5716,-0.1405,0.0375,1.1576,2.0706,1.9896,3.2753,3.0802,2.3616,2.9848,3.3088,2.7535,2.3545,2.0617,1.1078,0.6545,0.4001,0.4334,0.2433,0.3769,0.3063
2.2079,2.9291,1.8458,2.8091,2.3644,1.7564,1.2334,-0.0386,0.2703,0.7037,-0.0696,0.0951,1.3819,2.356,2.1953,3.5754,3.3632,2.5264,3.2599,3.6607,3.0798,2.5731,2.1987,1.2782,0.7256,0.4789,0.5631,0.3229,0.4348,0.2456
2.3538,3.0996,1.9607,2.9844,2.5642,1.9251,1.3979,0.0229,0.3586,0.8181,0.0026,0.1481,1.5758,2.5858,2.335,3.7809,3.5569,2.5974,3.45,3.916,3.3288,2.7238,2.2742,1.4208,0.7907,0.5526,0.6842,0.3964,0.4784,0.1858
2.4383,3.1729,1.9987,3.0629,2.6896,2.0132,1.5225,0.0679,0.4354,0.9058,0.0703,0.1927,1.7254,2.7436,2.4014,3.8763,3.6452,2.5705,3.5418,4.058,3.4839,2.7988,2.2877,1.5248,0.8406,0.6135,0.7856,0.4573,0.505,0.1286
2.4593,3.1467,1.9645,3.0468,2.7389,2.0248,1.5996,0.0921,0.4943,0.9612,0.1285,0.2261,1.8225,2.8217,2.3951,3.8594,3.623,2.4526,3.5325,4.0829,3.5389,2.7981,2.2438,1.5831,0.8667,0.6554,0.8579,0.5004,0.514,0.0751
2.4223,3.0296,1.87,2.9485,2.7177,1.9712,1.6271,0.0933,0.5302,0.9826,0.1735,0.2463,1.865,2.8216,2.3238,3.74,3.4969,2.2593,3.4294,3.9998,3.4991,2.7296,2.1517,1.5941,0.864,0.6749,0.8952,0.5226,0.5071,0.0267
2.3383,2.8398,1.7316,2.7877,2.6377,1.8681,1.6086,0.0714,0.5405,0.9722,0.2036,0.2522,1.857,2.7532,2.1996,3.5381,3.2842,2.0132,3.249,3.8286,3.3792,2.6076,2.0243,1.5611,0.8315,0.6718,0.8958,0.5237,0.4878,-0.0149
2.2215,2.6007,1.5681,2.5877,2.5147,1.733,1.5522,0.029,0.5255,0.935,0.2184,0.2443,1.8077,2.6333,2.0369,3.2801,3.0097,1.7408,3.0148,3.5958,3.2008,2.4502,1.8769,1.4925,0.7734,0.6495,0.8626,0.5059,0.461,-0.0481
2.086,2.3375,1.3972,2.3711,2.3655,1.5824,1.4692,-0.0296,0.4881,0.8783,0.2193,0.2238,1.7292,2.4821,1.8506,2.9943,2.7021,1.4691,2.7528,3.3302,2.9883,2.2771,1.7249,1.3999,0.6974,0.6136,0.8021,0.4734,0.4323,-0.0716
1.9436,2.0723,1.233,2.1568,2.2053,1.4302,1.3721,-0.0985,0.4334,0.81,0.2082,0.1935,1.6345,2.3196,1.6543,2.7057,2.3887,1.2225,2.4875,3.058,2.7644,2.1057,1.5821,1.2959,0.6136,0.5713,0.7233,0.4312,0.4072,-0.085
1.8023,1.8215,1.0841,1.9567,2.0462,1.2866,1.2723,-0.1718,0.3682,0.7374,0.1877,0.1564,1.5348,2.1622,1.4593,2.4332,2.0917,1.0193,2.2381,2.7984,2.5468,1.949,1.4583,1.1919,0.5322,0.5297,0.6353,0.3844,0.3896,-0.089
1.6672,1.5939,0.9539,1.7763,1.8955,1.1577,1.1787,-0.244,0.3001,0.6666,0.1604,0.1162,1.4378,2.0205,1.2732,2.1872,1.8256,0.8695,2.0169,2.5627,2.3464,1.814,1.3591,1.0966,0.4613,0.4945,0.5465,0.3369,0.3813,-0.0847
1.541,1.3917,0.841,1.6149,1.756,1.0462,1.0965,-0.3104,0.2362,0.6022,0.1287,0.0763,1.3476,1.8988,1.1004,1.9705,1.5968,0.7744,1.8284,2.3539,2.167,1.702,1.2853,1.0144,0.4062,0.4695,0.4628,0.2911,0.382,-0.0734
1.4253,1.2123,0.7408,1.4686,1.6276,0.9522,1.0278,-0.3674,0.183,0.547,0.0955,0.0397,1.2647,1.796,0.9417,1.7804,1.4051,0.7276,1.6717,2.1693,2.0073,1.6099,1.2348,0.9469,0.3692,0.4569,0.388,0.248,0.3889,-0.0563
1.3205,1.0512,0.6478,1.3326,1.5085,0.8744,0.9717,-0.4122,0.1453,0.5023,0.0633,0.0088,1.1872,1.7076,0.7958,1.6113,1.2459,0.7167,1.5421,2.0033,1.863,1.5323,1.2036,0.8929,0.35,0.4566,0.3237,0.2077,0.3977,-0.0345
1.2262,0.9049,0.557,1.2037,1.3967,0.8107,0.9253,-0.4431,0.1253,0.4674,0.0345,-0.0152,1.1122,1.6271,0.6612,1.4579,1.1126,0.7267,1.4336,1.8503,1.7294,1.4631,1.1866,0.8499,0.3461,0.4673,0.2698,0.1697,0.4035,-0.0094
1.1417,0.7719,0.4657,1.081,1.2907,0.7589,0.8838,-0.4599,0.1225,0.4403,0.0106,-0.0324,1.0365,1.5481,0.5374,1.3162,0.9981,0.7425,1.3398,1.7057,1.6019,1.3964,1.1786,0.8145,0.3537,0.4862,0.2251,0.1335,0.4019,0.0174
1.0657,0.6524,0.374,0.9647,1.1887,0.7163,0.8419,-0.464,0.1332,0.4172,-0.0078,-0.0443,0.9573,1.4649,0.4263,1.184,0.8957,0.7525,1.2551,1.5668,1.4774,1.3277,1.1733,0.7827,0.3678,0.5094,0.1871,0.0984,0.3899,0.0436
0.9969,0.548,0.2839,0.8558,1.0886,0.6789,0.7937,-0.4587,0.1508,0.3937,-0.0212,-0.0534,0.8727,1.3729,0.3314,1.0608,0.799,0.7496,1.174,1.432,1.3534,1.2529,1.1639,0.7501,0.383,0.5326,0.153,0.064,0.3665,0.0672
0.9336,0.4593,0.1981,0.7542,0.9871,0.6417,0.7344,-0.4483,0.1677,0.3655,-0.0311,-0.0623,0.7816,1.2691,0.257,0.9462,0.7029,0.7316,1.0915,1.2997,1.2276,1.169,1.1424,0.712,0.3938,0.5512,0.1193,0.0301,0.3329,0.0863
0.8722,0.3857,0.1182,0.6581,0.8805,0.5989,0.66,-0.4375,0.1763,0.3296,-0.0389,-0.0735,0.684,1.152,0.2058,0.8392,0.6031,0.7001,1.0031,1.1681,1.098,1.0733,1.1011,0.6639,0.3954,0.5614,0.0827,-0.0035,0.2928,0.0992
0.8074,0.3246,0.0429,0.5642,0.7643,0.5443,0.5694,-0.4301,0.1715,0.285,-0.0457,-0.0884,0.581,1.0214,0.1772,0.7374,0.497,0.658,0.9051,1.0346,0.9623,0.9641,1.0329,0.6022,0.3839,0.5597,0.0405,-0.037,0.2509,0.1049
0.7322,0.2717,-0.0323,0.4685,0.6351,0.4732,0.4635,-0.4282,0.1508,0.233,-0.0518,-0.1072,0.4746,0.8787,0.1668,0.6376,0.384,0.6079,0.7955,0.8963,0.819,0.8407,0.9337,0.5251,0.3569,0.5438,-0.0093,-0.0704,0.2126,0.1029
0.6395,0.2224,-0.114,0.3669,0.4912,0.383,0.3463,-0.4315,0.116,0.1771,-0.0572,-0.1294,0.367,0.7266,0.1664,0.536,0.2662,0.5502,0.6745,0.7509,0.6674,0.7039,0.8027,0.4321,0.313,0.5124,-0.0673,-0.1038,0.1828,0.0932
0.5246,0.1719,-0.2088,0.2568,0.3336,0.2745,0.2233,-0.438,0.0715,0.1215,-0.0613,-0.154,0.2608,0.5686,0.1646,0.4294,0.1474,0.4838,0.5444,0.5972,0.508,0.5556,0.6435,0.3252,0.2524,0.4653,-0.133,-0.1373,0.1646,0.0775
0.3871,0.1161,-0.3206,0.137,0.1652,0.1514,0.1006,-0.4447,0.0237,0.0699,-0.0638,-0.18,0.158,0.4087,0.1492,0.3154,0.0324,0.4065,0.409,0.4354,0.3427,0.3994,0.4633,0.2076,0.1769,0.4034,-0.2044,-0.1711,0.1594,0.0588
0.232,0.0518,-0.449,0.008,-0.0091,0.0195,-0.0163,-0.4492,-0.0207,0.0242,-0.0647,-0.2068,0.0597,0.2505,0.1088,0.1926,-0.0753,0.316,0.2723,0.2669,0.1737,0.2391,0.2714,0.0837,0.0896,0.3286,-0.279,-0.2055,0.1654,0.0415
0.0696,-0.0243,-0.5882,-0.1292,-0.1843,-0.1153,-0.1241,-0.4506,-0.0562,-0.0161,-0.0638,-0.234,-0.034,0.0965,0.0348,0.0606,-0.175,0.2111,0.137,0.0935,0.0035,0.0786,0.0779,-0.0416,-0.0047,0.2443,-0.3533,-0.2406,0.1788,0.031
-0.0861,-0.1154,-0.7291,-0.2736,-0.3561,-0.2482,-0.2219,-0.4494,-0.0798,-0.0536,-0.0613,-0.2612,-0.1237,-0.0523,-0.0768,-0.0811,-0.2694,0.0927,0.0036,-0.0835,-0.1663,-0.079,-0.1085,-0.163,-0.0995,0.1553,-0.4238,-0.2758,0.1935,0.033
-0.2208,-0.2244,-0.861,-0.4245,-0.5221,-0.3769,-0.3111,-0.4483,-0.0914,-0.0926,-0.0567,-0.2875,-0.2107,-0.1959,-0.2248,-0.2333,-0.365,-0.0364,-0.1295,-0.2638,-0.335,-0.2312,-0.2812,-0.2755,-0.1872,0.0677,-0.4865,-0.3097,0.2029,0.0519
-0.3236,-0.3537,-0.9754,-0.582,-0.6817,-0.5017,-0.395,-0.4508,-0.0938,-0.1373,-0.0495,-0.3112,-0.2965,-0.3353,-0.403,-0.3968,-0.4701,-0.1712,-0.2658,-0.4483,-0.5029,-0.3763,-0.4367,-0.3746,-0.2595,-0.0114,-0.5379,-0.3396,0.2008,0.0901
-0.3903,-0.5041,-1.0684,-0.7463,-0.8363,-0.6244,-0.4769,-0.4607,-0.0921,-0.1907,-0.0392,-0.33,-0.3819,-0.4717,-0.601,-0.5728,-0.5932,-0.306,-0.4094,-0.6388,-0.6711,-0.5137,-0.5741,-0.4571,-0.309,-0.0753,-0.5748,-0.3623,0.1831,0.1472
-0.425,-0.6741,-1.1413,-0.9173,-0.9876,-0.7469,-0.5596,-0.4811,-0.0923,-0.2535,-0.0259,-0.3414,-0.4673,-0.6061,-0.8064,-0.7618,-0.7411,-0.4353,-0.5639,-0.8374,-0.8408,-0.6434,-0.695,-0.5213,-0.3307,-0.1185,-0.5957,-0.375,0.148,0.2196
-0.4395,-0.8591,-1.1997,-1.0935,-1.1368,-0.8695,-0.6438,-0.5139,-0.0998,-0.3235,-0.0101,-0.3434,-0.5521,-0.7383,-1.0071,-0.9632,-0.9167,-0.555,-0.731,-1.0451,-1.0124,-0.7662,-0.8019,-0.5676,-0.3233,-0.1382,-0.6007,-0.3754,0.0967,0.3008
-0.4504,-1.0512,-1.2512,-1.2714,-1.283,-0.9895,-0.7276,-0.5587,-0.1182,-0.3959,0.0072,-0.3349,-0.6341,-0.867,-1.1924,-1.174,-1.1179,-0.663,-0.9098,-1.2607,-1.1849,-0.8828,-0.8974,-0.5977,-0.2899,-0.1351,-0.5919,-0.3629,0.0324,0.3826
-0.4747,-1.2396,-1.3021,-1.4445,-1.4225,-1.1009,-0.8069,-0.6132,-0.1485,-0.4643,0.0252,-0.3158,-0.71,-0.9887,-1.3542,-1.388,-1.337,-0.7589,-1.0955,-1.4794,-1.3547,-0.9929,-0.9823,-0.6144,-0.2372,-0.1127,-0.5728,-0.3379,-0.04,0.4557
-0.5251,-1.4114,-1.3552,-1.6041,-1.5488,-1.1953,-0.8757,-0.6724,-0.1882,-0.5213,0.0433,-0.287,-0.7747,-1.0986,-1.4872,-1.5961,-1.5609,-0.8435,-1.2799,-1.6926,-1.5152,-1.0944,-1.0554,-0.6202,-0.1741,-0.0765,-0.5472,-0.3023,-0.115,0.5119
-0.6071,-1.5542,-1.4082,-1.7399,-1.6533,-1.2643,-0.9276,-0.7299,-0.2324,-0.5606,0.0619,-0.2505,-0.8227,-1.1904,-1.5885,-1.7865,-1.7734,-0.9172,-1.4512,-1.8883,-1.6576,-1.1833,-1.1133,-0.6166,-0.1095,-0.0328,-0.5186,-0.2581,-0.1866,0.5454
-0.7172,-1.6575,-1.4554,-1.8426,-1.7279,-1.302,-0.9572,-0.7789,-0.2749,-0.5783,0.0818,-0.2085,-0.8487,-1.2581,-1.6573,-1.9466,-1.9572,-0.9796,-1.5968,-2.053,-1.772,-1.2539,-1.1521,-0.6041,-0.0511,0.0128,-0.489,-0.2079,-0.2496,0.5533
-0.8433,-1.7147,-1.4892,-1.9056,-1.7663,-1.3072,-0.962,-0.8136,-0.3099,-0.5739,0.1032,-0.1641,-0.8491,-1.2967,-1.6946,-2.0651,-2.0968,-1.0296,-1.705,-2.1741,-1.8496,-1.3003,-1.1681,-0.5827,-0.0041,0.0557,-0.4594,-0.1546,-0.2998,0.5374
-0.9672,-1.7246,-1.5022,-1.9266,-1.7668,-1.2841,-0.9429,-0.8306,-0.3334,-0.5508,0.1258,-0.1205,-0.8231,-1.3034,-1.7033,-2.134,-2.1816,-1.0653,-1.7673,-2.2424,-1.8841,-1.3181,-1.1597,-0.5523,0.0295,0.0922,-0.4298,-0.1016,-0.335,0.5029
-1.0681,-1.6909,-1.489,-1.9078,-1.7323,-1.2402,-0.9042,-0.8299,-0.3439,-0.5151,0.1477,-0.0811,-0.7729,-1.2787,-1.6878,-2.1498,-2.2072,-1.0857,-1.7801,-2.2538,-1.8736,-1.3055,-1.128,-0.5137,0.0501,0.1201,-0.3995,-0.0524,-0.3557,0.4585
-1.1274,-1.6213,-1.4471,-1.8554,-1.6694,-1.1846,-0.8526,-0.8145,-0.3424,-0.4745,0.1663,-0.0493,-0.7035,-1.2257,-1.6528,-2.1136,-2.1751,-1.0911,-1.7449,-2.2099,-1.821,-1.264,-1.0768,-0.4683,0.0604,0.1377,-0.368,-0.0108,-0.3645,0.4135
-1.1328,-1.5255,-1.3771,-1.7775,-1.5871,-1.1246,-0.7958,-0.7893,-0.3316,-0.436,0.1789,-0.0278,-0.6218,-1.1498,-1.6029,-2.031,-2.0926,-1.0833,-1.6676,-2.1172,-1.7326,-1.198,-1.0118,-0.4186,0.0642,0.1443,-0.3352,0.0201,-0.3661,0.3759
-1.0816,-1.4136,-1.2837,-1.6826,-1.4946,-1.0648,-0.7402,-0.76,-0.3143,-0.4049,0.184,-0.0181,-0.5353,-1.0576,-1.5411,-1.9103,-1.9706,-1.0657,-1.5573,-1.9859,-1.6174,-1.1144,-0.9394,-0.3671,0.0655,0.1397,-0.3012,0.0382,-0.3652,0.3502
-0.9816,-1.2944,-1.1754,-1.5778,-1.3996,-1.0064,-0.6903,-0.7316,-0.2932,-0.3834,0.1813,-0.0209,-0.451,-0.9563,-1.4686,-1.7617,-1.8214,-1.0419,-1.4243,-1.8276,-1.4853,-1.0206,-0.8659,-0.3167,0.0681,0.1248,-0.2672,0.0428,-0.3654,0.3365
-0.849,-1.1744,-1.0638,-1.4687,-1.3075,-0.9493,-0.6484,-0.7075,-0.2701,-0.3709,0.1724,-0.0353,-0.3745,-0.8525,-1.3854,-1.5952,-1.657,-1.0154,-1.2786,-1.6538,-1.3453,-0.9239,-0.7961,-0.2697,0.0743,0.101,-0.2352,0.0343,-0.3681,0.3311
-0.7036,-1.0582,-0.9617,-1.3591,-1.2219,-0.8932,-0.6146,-0.6896,-0.2461,-0.3653,0.1596,-0.0597,-0.3101,-0.7522,-1.2912,-1.42,-1.4878,-0.9883,-1.1291,-1.4744,-1.2049,-0.83,-0.7333,-0.228,0.0849,0.0704,-0.2079,0.0142,-0.3724,0.3281
-0.563,-0.9488,-0.8803,-1.2521,-1.1449,-0.8391,-0.5879,-0.6782,-0.2221,-0.3637,0.145,-0.0919,-0.2601,-0.66,-1.1862,-1.2438,-1.3218,-0.9607,-0.9826,-1.2971,-1.0694,-0.7427,-0.6787,-0.193,0.099,0.0355,-0.1885,-0.0157,-0.3759,0.3222
-0.4371,-0.8486,-0.8263,-1.1504,-1.0776,-0.7891,-0.567,-0.6728,-0.1998,-0.3637,0.1299,-0.1297,-0.2249,-0.5794,-1.0714,-1.0721,-1.1646,-0.9311,-0.8439,-1.127,-0.9419,-0.6636,-0.6319,-0.1655,0.1147,-0.0012,-0.1802,-0.0529,-0.3756,0.3103
-0.3255,-0.7596,-0.8007,-1.0565,-1.0209,-0.7461,-0.5509,-0.6726,-0.1811,-0.3639,0.1141,-0.1709,-0.2039,-0.5124,-0.9493,-0.9088,-1.0199,-0.8966,-0.716,-0.9672,-0.824,-0.5925,-0.5908,-0.1456,0.1292,-0.037,-0.1852,-0.0949,-0.3689,0.2928
-0.2189,-0.684,-0.7984,-0.9729,-0.975,-0.7119,-0.5387,-0.6771,-0.1684,-0.3636,0.0964,-0.2132,-0.1945,-0.4599,-0.8229,-0.7559,-0.8893,-0.8533,-0.6004,-0.8188,-0.7161,-0.5285,-0.5526,-0.1326,0.1403,-0.0693,-0.2039,-0.1386,-0.355,0.2731
-0.1033,-0.6226,-0.8099,-0.9009,-0.9387,-0.6859,-0.5295,-0.6853,-0.1634,-0.3624,0.0757,-0.2544,-0.1936,-0.4208,-0.6957,-0.6139,-0.773,-0.7979,-0.4975,-0.682,-0.6181,-0.4701,-0.5148,-0.1253,0.1469,-0.0958,-0.2346,-0.1806,-0.3344,0.256
0.0341,-0.5741,-0.8236,-0.8397,-0.9091,-0.6644,-0.5218,-0.6958,-0.1662,-0.359,0.0515,-0.2914,-0.1968,-0.3928,-0.5701,-0.4821,-0.6699,-0.7281,-0.4071,-0.5559,-0.5294,-0.4163,-0.4756,-0.1213,0.1498,-0.1143,-0.273,-0.2169,-0.3093,0.2462
0.1998,-0.5339,-0.8273,-0.7861,-0.8807,-0.6405,-0.5129,-0.7062,-0.1748,-0.3513,0.0254,-0.3209,-0.1992,-0.3721,-0.4478,-0.3587,-0.5777,-0.6438,-0.3285,-0.4387,-0.4487,-0.3667,-0.4341,-0.1175,0.1515,-0.1227,-0.3124,-0.2427,-0.2827,0.246
0.3911,-0.4943,-0.8104,-0.7343,-0.846,-0.6054,-0.4989,-0.7128,-0.1848,-0.3358,0.0008,-0.3387,-0.1954,-0.3532,-0.3288,-0.2409,-0.4932,-0.5478,-0.2598,-0.328,-0.3736,-0.3203,-0.3905,-0.1101,0.1564,-0.119,-0.3451,-0.2533,-0.2582,0.2546
0.5961,-0.4452,-0.7646,-0.6768,-0.7964,-0.5501,-0.4745,-0.7115,-0.1901,-0.3084,-0.0172,-0.3407,-0.1799,-0.3301,-0.2127,-0.1256,-0.4127,-0.4453,-0.1982,-0.2206,-0.3007,-0.2756,-0.3448,-0.0946,0.1696,-0.1015,-0.3629,-0.244,-0.2393,0.2686
0.7974,-0.3769,-0.6851,-0.6059,-0.724,-0.4678,-0.4347,-0.698,-0.1845,-0.2654,-0.023,-0.3238,-0.1476,-0.2959,-0.0993,-0.0098,-0.3324,-0.3439,-0.1396,-0.113,-0.2254,-0.2297,-0.2965,-0.0663,0.196,-0.0698,-0.3588,-0.2116,-0.2289,0.2824
0.9756,-0.2824,-0.5713,-0.5159,-0.6238,-0.3559,-0.3756,-0.6697,-0.1631,-0.2047,-0.0121,-0.2868,-0.0945,-0.2448,0.0102,0.1085,-0.2492,-0.2523,-0.0794,-0.0021,-0.143,-0.1784,-0.244,-0.0215,0.2393,-0.0242,-0.3285,-0.155,-0.2289,0.2904
1.1145,-0.1596,-0.4278,-0.4052,-0.4955,-0.2182,-0.2956,-0.6256,-0.1237,-0.1269,0.018,-0.2312,-0.0187,-0.1729,0.1126,0.2292,-0.1614,-0.1783,-0.0133,0.1138,-0.0494,-0.117,-0.1849,0.0419,0.3,0.0329,-0.2715,-0.0761,-0.2397,0.2882
1.2039,-0.0133,-0.2644,-0.2772,-0.3443,-0.064,-0.1969,-0.5676,-0.0677,-0.0357,0.0667,-0.1615,0.0787,-0.0792,0.2029,0.3499,-0.0695,-0.1274,0.0615,0.2342,0.057,-0.0419,-0.1168,0.1235,0.3757,0.0979,-0.1913,0.0197,-0.2598,0.2742
1.2413,0.1461,-0.0957,-0.1403,-0.1809,0.0925,-0.0848,-0.5,0.0001,0.0624,0.1303,-0.084,0.1934,0.0335,0.2748,0.4657,0.0235,-0.1016,0.1456,0.3557,0.1747,0.0481,-0.0384,0.2201,0.4609,0.1657,-0.0955,0.1242,-0.2859,0.2497
1.2317,0.3035,0.0604,-0.0068,-0.0193,0.2352,0.0321,-0.429,0.073,0.1593,0.2027,-0.0067,0.3175,0.1585,0.3221,0.5696,0.112,-0.0993,0.2362,0.4722,0.2981,0.1512,0.0492,0.3253,0.5478,0.2311,0.0059,0.2277,-0.314,0.2193
1.1849,0.4426,0.1861,0.1093,0.1254,0.3494,0.1439,-0.3612,0.1434,0.2463,0.2766,0.0633,0.4408,0.286,0.3392,0.6536,0.1891,-0.1162,0.3275,0.5749,0.4184,0.2614,0.1423,0.4306,0.6278,0.2886,0.1018,0.3202,-0.3397,0.1894
1.1129,0.5481,0.2667,0.1951,0.2399,0.4245,0.2412,-0.3024,0.2047,0.3163,0.3449,0.12,0.5518,0.4041,0.3227,0.7099,0.2472,-0.1469,0.4109,0.6541,0.5242,0.3697,0.2342,0.5261,0.6931,0.3339,0.1814,0.393,-0.3593,0.167
1.0274,0.6086,0.2938,0.2412,0.3148,0.456,0.3164,-0.2566,0.2527,0.3649,0.402,0.1601,0.6394,0.5011,0.2724,0.7326,0.2795,-0.1859,0.4768,0.7008,0.6042,0.4651,0.3164,0.6022,0.7374,0.3643,0.2362,0.4404,-0.3707,0.1577
0.9381,0.6182,0.2681,0.2437,0.3467,0.4471,0.3655,-0.2249,0.2865,0.3912,0.4446,0.1829,0.695,0.5674,0.1918,0.7185,0.2815,-0.2285,0.5159,0.7084,0.6489,0.5367,0.3801,0.651,0.7573,0.3784,0.2605,0.4597,-0.3736,0.1639
0.8524,0.577,0.1995,0.2054,0.3386,0.4075,0.3886,-0.2056,0.3077,0.3978,0.4722,0.1901,0.7134,0.5971,0.089,0.6685,0.2517,-0.2705,0.5215,0.6745,0.6529,0.5759,0.4182,0.6674,0.7519,0.3767,0.2525,0.452,-0.3693,0.1851
0.7766,0.4916,0.1049,0.1349,0.2985,0.3517,0.3887,-0.195,0.3201,0.3894,0.4867,0.1853,0.6938,0.5889,-0.0252,0.5871,0.1921,-0.3088,0.491,0.6017,0.616,0.5782,0.4265,0.6503,0.7228,0.3607,0.2139,0.421,-0.36,0.2175
0.7155,0.3734,0.0044,0.0452,0.2381,0.2953,0.3714,-0.188,0.3278,0.3717,0.4912,0.1722,0.6398,0.5458,-0.1384,0.4828,0.1085,-0.341,0.4269,0.4974,0.5429,0.5441,0.4051,0.602,0.6735,0.333,0.149,0.3724,-0.3483,0.2558
0.6723,0.2375,-0.0833,-0.049,0.1698,0.2517,0.3424,-0.1798,0.3336,0.3498,0.4889,0.1545,0.5581,0.4742,-0.2396,0.3662,0.0095,-0.3657,0.3368,0.3731,0.4429,0.4791,0.3586,0.5284,0.6091,0.2964,0.0641,0.3122,-0.3361,0.2945
0.647,0.1009,-0.1452,-0.1342,0.1047,0.2298,0.3069,-0.1673,0.3378,0.3264,0.482,0.1345,0.4575,0.3829,-0.321,0.2496,-0.0941,-0.382,0.2326,0.2425,0.3278,0.3928,0.2953,0.4373,0.5352,0.2536,-0.0334,0.2462,-0.3244,0.3293
0.6363,-0.0204,-0.1758,-0.2001,0.0502,0.2322,0.2681,-0.1495,0.3384,0.3021,0.4714,0.1132,0.3478,0.281,-0.3782,0.1443,-0.1906,-0.3896,0.1286,0.1192,0.21,0.2972,0.2256,0.3381,0.4583,0.2075,-0.1359,0.1792,-0.3137,0.3572
0.6336,-0.1135,-0.1767,-0.242,0.0095,0.2561,0.2275,-0.1278,0.3317,0.2757,0.4568,0.0907,0.2378,0.1773,-0.4106,0.0598,-0.2699,-0.3884,0.0382,0.0147,0.1008,0.2043,0.1599,0.2403,0.3851,0.1607,-0.2357,0.1146,-0.304,0.3771
0.6313,-0.1706,-0.155,-0.2606,-0.0188,0.2939,0.1849,-0.1062,0.3135,0.2445,0.4372,0.0669,0.1353,0.0789,-0.4198,0.0019,-0.3247,-0.378,-0.028,-0.0634,0.0082,0.124,0.1067,0.1523,0.3217,0.1155,-0.3261,0.0553,-0.2952,0.389
0.6233,-0.1901,-0.12,-0.2611,-0.0396,0.3355,0.1391,-0.0897,0.2808,0.2063,0.4113,0.0416,0.0453,-0.0095,-0.4085,-0.028,-0.3522,-0.3576,-0.0643,-0.1121,-0.0635,0.0626,0.0705,0.0806,0.2734,0.0742,-0.4017,0.0031,-0.2873,0.3938
0.6075,-0.1765,-0.0802,-0.2516,-0.0592,0.3699,0.0886,-0.0833,0.2328,0.1596,0.3787,0.0154,-0.0296,-0.0853,-0.3801,-0.0323,-0.3537,-0.3268,-0.0706,-0.1335,-0.1142,0.0219,0.0511,0.0283,0.2427,0.0385,-0.4588,-0.0405,-0.28,0.3937
0.5868,-0.1387,-0.041,-0.2402,-0.084,0.3883,0.0327,-0.0904,0.1715,0.105,0.3395,-0.0111,-0.0893,-0.1484,-0.3382,-0.0162,-0.3339,-0.2848,-0.0516,-0.1329,-0.1471,-0.0007,0.0444,-0.0046,0.2296,0.0097,-0.4963,-0.0749,-0.2728,0.3914
0.5674,-0.0877,-0.004,-0.2328,-0.1175,0.3854,-0.0279,-0.1119,0.1017,0.0448,0.295,-0.037,-0.1357,-0.2,-0.2861,0.0139,-0.2989,-0.2321,-0.0152,-0.1176,-0.167,-0.0107,0.0432,-0.0219,0.2305,-0.0118,-0.5154,-0.1001,-0.2648,0.3901
0.5567,-0.0337,0.0333,-0.2314,-0.1593,0.3608,-0.0907,-0.1454,0.0303,-0.0163,0.2474,-0.0614,-0.1718,-0.2418,-0.2271,0.0525,-0.2548,-0.1703,0.0299,-0.0946,-0.1789,-0.0149,0.0395,-0.0296,0.2395,-0.0261,-0.5196,-0.117,-0.2548,0.3922
0.5608,0.0164,0.0749,-0.2334,-0.2049,0.3198,-0.1518,-0.1862,-0.0354,-0.0727,0.1997,-0.0837,-0.2001,-0.2755,-0.1631,0.0958,-0.2063,-0.1032,0.0758,-0.0695,-0.1864,-0.0195,0.0267,-0.0346,0.2493,-0.0345,-0.514,-0.1277,-0.2422,0.399
0.5824,0.0599,0.1249,-0.233,-0.2463,0.2718,-0.2058,-0.2277,-0.0889,-0.1182,0.1551,-0.1038,-0.2224,-0.3017,-0.0953,0.1416,-0.1564,-0.0361,0.1169,-0.0457,-0.1914,-0.0286,0.0009,-0.0431,0.2527,-0.0382,-0.5038,-0.1345,-0.2269,0.41
0.6202,0.0973,0.1845,-0.2228,-0.2744,0.2283,-0.2473,-0.2635,-0.1255,-0.1475,0.1168,-0.1208,-0.2385,-0.3201,-0.0244,0.189,-0.1073,0.0246,0.1493,-0.0246,-0.1938,-0.0439,-0.0382,-0.0587,0.2447,-0.0387,-0.4937,-0.1395,-0.2101,0.4227
0.6702,0.1313,0.251,-0.1972,-0.2819,0.1998,-0.2714,-0.2884,-0.1432,-0.1567,0.0876,-0.134,-0.2471,-0.3298,0.0482,0.2362,-0.0614,0.0725,0.171,-0.0072,-0.1932,-0.0648,-0.0876,-0.082,0.2232,-0.0371,-0.4864,-0.1443,-0.194,0.4345
0.7264,0.1632,0.3171,-0.1547,-0.2656,0.1928,-0.2751,-0.2992,-0.143,-0.1444,0.0694,-0.1418,-0.2462,-0.33,0.1187,0.2799,-0.0225,0.102,0.1799,0.0051,-0.1895,-0.0893,-0.1426,-0.1104,0.1895,-0.0339,-0.4832,-0.1497,-0.1811,0.4427
0.7825,0.1925,0.3728,-0.0993,-0.2276,0.2077,-0.258,-0.296,-0.1281,-0.1121,0.0626,-0.1428,-0.234,-0.3208,0.1805,0.3143,0.0035,0.1097,0.1739,0.0097,-0.1837,-0.1158,-0.1979,-0.1393,0.1477,-0.0297,-0.4835,-0.1552,-0.1741,0.4463
0.833,0.2159,0.4076,-0.0391,-0.1753,0.2388,-0.2227,-0.2807,-0.1035,-0.064,0.0664,-0.1362,-0.2097,-0.303,0.2253,0.3326,0.0103,0.0942,0.1506,0.0031,-0.178,-0.1427,-0.2484,-0.1634,0.1039,-0.0245,-0.4855,-0.1602,-0.1752,0.4456
0.8736,0.2289,0.4132,0.015,-0.1186,0.2762,-0.174,-0.2571,-0.0748,-0.0059,0.0789,-0.122,-0.1739,-0.2783,0.245,0.3289,-0.0077,0.0576,0.1086,-0.0177,-0.1746,-0.1686,-0.2895,-0.1776,0.0646,-0.0181,-0.4871,-0.1635,-0.1859,0.4422
0.9015,0.2272,0.3859,0.0528,-0.068,0.3088,-0.1179,-0.2291,-0.0468,0.0558,0.0979,-0.1016,-0.1285,-0.2483,0.2351,0.3002,-0.0525,0.0055,0.049,-0.0537,-0.1752,-0.1916,-0.3167,-0.1782,0.0359,-0.0101,-0.486,-0.1641,-0.2065,0.4378
0.9153,0.2085,0.3271,0.0672,-0.0312,0.3271,-0.0607,-0.1999,-0.0233,0.1152,0.121,-0.0776,-0.0762,-0.2144,0.1965,0.2481,-0.1214,-0.0533,-0.0231,-0.1031,-0.1794,-0.2085,-0.3253,-0.163,0.0222,0.0003,-0.4806,-0.1611,-0.2353,0.4338
0.915,0.1733,0.2428,0.0555,-0.0122,0.3254,-0.0075,-0.1713,-0.0062,0.1682,0.1462,-0.0533,-0.0203,-0.1773,0.1366,0.1786,-0.2065,-0.1081,-0.0993,-0.1608,-0.1852,-0.2154,-0.3113,-0.1318,0.0253,0.0138,-0.4698,-0.1542,-0.2688,0.43
0.902,0.1244,0.1428,0.02,-0.0105,0.3032,0.038,-0.144,0.0041,0.2126,0.172,-0.0325,0.0356,-0.1375,0.0674,0.1012,-0.2968,-0.1481,-0.1688,-0.2198,-0.1891,-0.2081,-0.2722,-0.0862,0.0447,0.031,-0.4542,-0.1438,-0.3017,0.4254
0.8791,0.0669,0.038,-0.0332,-0.0223,0.2644,0.0742,-0.1179,0.0085,0.248,0.1968,-0.0185,0.0879,-0.0962,0.003,0.0265,-0.3801,-0.165,-0.221,-0.2725,-0.188,-0.1837,-0.2088,-0.03,0.0772,0.0514,-0.4351,-0.1307,-0.3279,0.4186
0.8501,0.0065,-0.0614,-0.0956,-0.0419,0.2163,0.1004,-0.0932,0.0083,0.275,0.2194,-0.014,0.1329,-0.0555,-0.0442,-0.0364,-0.4463,-0.1552,-0.2483,-0.3132,-0.1801,-0.1419,-0.1258,0.0316,0.1181,0.0739,-0.4151,-0.1165,-0.3417,0.4085
0.8196,-0.0515,-0.1477,-0.1584,-0.0634,0.1669,0.117,-0.0705,0.0045,0.2946,0.2385,-0.02,0.1674,-0.0187,-0.0669,-0.0815,-0.4892,-0.1204,-0.2478,-0.3391,-0.1659,-0.0856,-0.0316,0.0926,0.1614,0.0966,-0.397,-0.1028,-0.3391,0.3954
0.7924,-0.1029,-0.2161,-0.2138,-0.0825,0.124,0.1242,-0.0511,-0.0021,0.3075,0.2531,-0.0366,0.1886,0.0099,-0.0644,-0.1073,-0.5077,-0.0673,-0.2218,-0.3505,-0.1483,-0.0207,0.0626,0.1469,0.2017,0.1173,-0.3833,-0.0913,-0.3188,0.3811
0.7728,-0.1447,-0.2646,-0.2564,-0.0959,0.0931,0.1223,-0.0365,-0.011,0.3138,0.2624,-0.0622,0.1952,0.0265,-0.0426,-0.1158,-0.5046,-0.0057,-0.1771,-0.3504,-0.1314,0.0453,0.1455,0.1897,0.2345,0.1343,-0.3756,-0.0829,-0.2818,0.3687
0.7644,-0.1748,-0.2928,-0.2826,-0.1017,0.078,0.1121,-0.0278,-0.0217,0.3134,0.2658,-0.0941,0.1873,0.0286,-0.0114,-0.1114,-0.4853,0.0547,-0.1224,-0.3425,-0.1192,0.1049,0.2079,0.2183,0.2572,0.147,-0.3737,-0.0775,-0.2313,0.3616
0.7687,-0.1915,-0.3004,-0.2905,-0.0984,0.0805,0.0949,-0.0252,-0.0335,0.3069,0.2636,-0.1287,0.1674,0.0168,0.019,-0.0986,-0.4556,0.1062,-0.0661,-0.3294,-0.1137,0.1528,0.245,0.233,0.2694,0.1567,-0.3757,-0.0738,-0.1721,0.3616
0.7855,-0.1928,-0.2876,-0.2792,-0.084,0.1012,0.073,-0.0273,-0.0451,0.296,0.2565,-0.162,0.1403,-0.0052,0.0409,-0.0806,-0.4193,0.1445,-0.0136,-0.3116,-0.114,0.1877,0.2582,0.2371,0.273,0.166,-0.3781,-0.0692,-0.1095,0.3685
0.8112,-0.1764,-0.2554,-0.2483,-0.0566,0.14,0.0499,-0.0318,-0.0546,0.2834,0.2459,-0.19,0.1126,-0.0305,0.0519,-0.0582,-0.3776,0.1693,0.034,-0.2871,-0.116,0.2121,0.2546,0.2363,0.2719,0.1791,-0.3762,-0.0609,-0.0487,0.3792
0.839,-0.1398,-0.2067,-0.1983,-0.0147,0.1949,0.03,-0.0354,-0.0598,0.2731,0.2332,-0.2095,0.0917,-0.0509,0.0543,-0.0294,-0.3291,0.1829,0.0797,-0.2519,-0.1134,0.2324,0.2459,0.2373,0.2712,0.1999,-0.3652,-0.0459,0.0055,0.3884
0.8596,-0.081,-0.1469,-0.1308,0.0416,0.2624,0.0175,-0.0347,-0.0589,0.2688,0.2198,-0.2186,0.0844,-0.058,0.054,0.009,-0.2708,0.1888,0.1286,-0.2019,-0.0993,0.2563,0.2445,0.2459,0.2754,0.231,-0.3416,-0.0223,0.0499,0.3899
0.8634,0.0007,-0.083,-0.0491,0.1095,0.3362,0.0155,-0.0268,-0.0506,0.2733,0.2069,-0.2174,0.0949,-0.0464,0.0575,0.0609,-0.2003,0.1899,0.1861,-0.1341,-0.0686,0.2903,0.2601,0.265,0.2868,0.2725,-0.3047,0.0096,0.0822,0.3783
0.844,0.1036,-0.0215,0.0416,0.1833,0.4072,0.0253,-0.0106,-0.035,0.2872,0.1947,-0.208,0.1239,-0.0142,0.0705,0.1287,-0.1167,0.1883,0.2548,-0.0484,-0.0188,0.3373,0.2964,0.2934,0.3049,0.321,-0.2574,0.0472,0.1022,0.3511
0.8019,0.2223,0.0331,0.1343,0.2553,0.4646,0.0459,0.0139,-0.0138,0.3084,0.1828,-0.1946,0.1677,0.0356,0.0953,0.2129,-0.022,0.1846,0.3339,0.0524,0.0484,0.3948,0.3496,0.3258,0.3253,0.3698,-0.2065,0.0852,0.1116,0.3099
0.7464,0.3475,0.0795,0.2209,0.3165,0.4977,0.0745,0.0443,0.0103,0.3327,0.17,-0.1827,0.2191,0.0964,0.1316,0.311,0.079,0.1797,0.4185,0.1625,0.1282,0.4556,0.4088,0.3531,0.3407,0.4097,-0.162,0.1166,0.114,0.2602
0.6943,0.4667,0.1194,0.2939,0.3593,0.4987,0.1068,0.0774,0.0336,0.354,0.155,-0.1783,0.2682,0.1588,0.1764,0.4184,0.1796,0.1746,0.5007,0.2744,0.2132,0.5091,0.4587,0.3649,0.3426,0.4308,-0.1349,0.1333,0.1145,0.2108
0.6654,0.5663,0.1553,0.3476,0.3787,0.4649,0.1379,0.1088,0.0527,0.366,0.1363,-0.1868,0.305,0.2133,0.226,0.5282,0.2723,0.1716,0.5718,0.3801,0.2951,0.5437,0.4836,0.3518,0.3234,0.4242,-0.1357,0.1283,0.119,0.1706
0.6767,0.6349,0.1886,0.3793,0.3742,0.4006,0.1635,0.1347,0.0648,0.3639,0.1132,-0.2115,0.3209,0.2519,0.2764,0.6326,0.3505,0.1735,0.6242,0.4725,0.3663,0.5504,0.4721,0.3082,0.2787,0.3845,-0.1711,0.097,0.1325,0.147
0.7372,0.6663,0.2193,0.3908,0.3497,0.3164,0.1811,0.1527,0.0688,0.3457,0.086,-0.2527,0.312,0.2706,0.3246,0.7243,0.4096,0.1836,0.6535,0.5466,0.4218,0.5248,0.4199,0.2342,0.2095,0.3118,-0.242,0.039,0.1574,0.1437
0.8453,0.6614,0.2455,0.3878,0.314,0.228,0.1907,0.1622,0.0657,0.3133,0.0569,-0.3065,0.2799,0.2706,0.3685,0.7982,0.4487,0.2047,0.6596,0.6007,0.4602,0.4693,0.3324,0.1369,0.123,0.2122,-0.3424,-0.0406,0.1932,0.1598
0.9884,0.6289,0.2649,0.3794,0.279,0.1522,0.1951,0.1649,0.0586,0.2727,0.0297,-0.3657,0.2323,0.2587,0.4069,0.8521,0.4701,0.238,0.6467,0.637,0.4843,0.393,0.2235,0.03,0.0322,0.0983,-0.4595,-0.1314,0.2355,0.1908
1.1467,0.5827,0.2765,0.3757,0.2578,0.103,0.1999,0.1639,0.0515,0.2327,0.0094,-0.4201,0.1818,0.2459,0.4397,0.8873,0.4793,0.2832,0.623,0.661,0.5011,0.3101,0.1137,-0.0685,-0.0464,-0.0128,-0.575,-0.2195,0.2778,0.2289
1.2969,0.5391,0.2808,0.3859,0.2621,0.0883,0.2116,0.1624,0.0485,0.2034,0.0009,-0.4591,0.144,0.2457,0.468,0.9085,0.4837,0.3374,0.5991,0.6807,0.5204,0.238,0.0261,-0.139,-0.0959,-0.1027,-0.6687,-0.2889,0.3124,0.2655
1.418,0.5126,0.2806,0.4163,0.2998,0.1082,0.2369,0.1627,0.0522,0.1934,0.0079,-0.4737,0.1337,0.2708,0.4938,0.9228,0.4909,0.3967,0.5865,0.7053,0.5527,0.1941,-0.0185,-0.1645,-0.1024,-0.1547,-0.7219,-0.3255,0.3329,0.2925
1.4954,0.5132,0.2803,0.4693,0.3732,0.1556,0.2804,0.165,0.0631,0.2081,0.0315,-0.4581,0.1623,0.3307,0.5198,0.9381,0.5077,0.4562,0.5949,0.7434,0.6073,0.1922,-0.0054,-0.1334,-0.0583,-0.1569,-0.721,-0.3189,0.3356,0.3041
1.5237,0.5441,0.2844,0.5426,0.4784,0.218,0.3437,0.1679,0.0791,0.2489,0.0698,-0.4111,0.2349,0.4292,0.5489,0.9617,0.5383,0.5121,0.6304,0.8007,0.6897,0.2394,0.0706,-0.0426,0.0363,-0.1046,-0.6601,-0.2651,0.3206,0.2978
1.5073,0.6013,0.2968,0.6298,0.6059,0.2813,0.425,0.1692,0.0969,0.3122,0.1184,-0.3363,0.3495,0.5627,0.5835,0.9985,0.5834,0.5621,0.6941,0.8787,0.7998,0.3349,0.2034,0.1017,0.1724,-0.001,-0.5423,-0.1672,0.2917,0.2747
1.4587,0.6743,0.319,0.7214,0.7418,0.3329,0.5186,0.1663,0.1131,0.391,0.171,-0.2414,0.4969,0.7214,0.625,1.0494,0.6402,0.6053,0.7812,0.9739,0.9314,0.4693,0.3767,0.285,0.334,0.1427,-0.3799,-0.0353,0.2553,0.2387
1.3947,0.7487,0.3494,0.8063,0.8708,0.3643,0.6164,0.158,0.1252,0.4757,0.2211,-0.137,0.6622,0.8897,0.6724,1.1108,0.7028,0.6417,0.8821,1.0774,1.0729,0.6261,0.5675,0.4862,0.5005,0.3096,-0.1917,0.1155,0.2187,0.1959
1.3317,0.8089,0.3824,0.8737,0.978,0.3725,0.7085,0.1444,0.1325,0.5561,0.2633,-0.0347,0.8276,1.0497,0.7227,1.1754,0.7635,0.6713,0.9841,1.1771,1.2088,0.7854,0.7503,0.6817,0.6505,0.4793,-0.0008,0.2669,0.1885,0.1525
1.2827,0.8419,0.4099,0.9151,1.0515,0.3601,0.7853,0.1272,0.1358,0.6228,0.2939,0.0548,0.975,1.1836,0.7708,1.2337,0.8139,0.6926,1.0739,1.2592,1.3223,0.9269,0.9024,0.8489,0.7656,0.6313,0.1699,0.4012,0.1684,0.1145
1.254,0.8401,0.4226,0.9257,1.084,0.334,0.8384,0.1087,0.1371,0.6689,0.3118,0.1229,1.0885,1.2768,0.8098,1.2755,0.8468,0.7034,1.14,1.3118,1.3988,1.0338,1.0077,0.9699,0.8334,0.7481,0.301,0.5032,0.1589,0.0865
1.2459,0.803,0.4132,0.9053,1.0732,0.3029,0.8621,0.0912,0.1386,0.6902,0.3181,0.1643,1.1565,1.3196,0.8321,1.2927,0.857,0.7001,1.1749,1.3261,1.4282,1.0946,1.0584,1.0335,0.8492,0.8177,0.3791,0.5632,0.1575,0.0718
1.2532,0.7375,0.3782,0.858,1.0224,0.2754,0.854,0.0763,0.1415,0.6861,0.315,0.1776,1.1731,1.3087,0.8315,1.2806,0.8419,0.6797,1.1756,1.299,1.4063,1.1052,1.0552,1.0368,0.8162,0.8351,0.3986,0.5773,0.1597,0.0722
1.2674,0.6563,0.32,0.792,0.9396,0.2581,0.816,0.0651,0.1465,0.6594,0.3055,0.1645,1.1385,1.2472,0.8041,1.2391,0.802,0.6406,1.1445,1.2332,1.3364,1.0684,1.0056,0.9843,0.7441,0.8027,0.3619,0.5478,0.1609,0.0883
1.2803,0.5755,0.2472,0.7177,0.8366,0.2548,0.754,0.0579,0.153,0.6161,0.2925,0.1303,1.0587,1.1444,0.7504,1.1738,0.7415,0.584,1.0885,1.1375,1.2284,0.9932,0.922,0.8872,0.6472,0.7299,0.2783,0.4824,0.1576,0.1189
1.2858,0.5112,0.1728,0.647,0.7278,0.2667,0.6774,0.0553,0.1605,0.5645,0.2786,0.082,0.9453,1.0143,0.6767,1.095,0.6685,0.5149,1.0189,1.0255,1.0978,0.8937,0.8199,0.7611,0.5413,0.6312,0.1623,0.3925,0.1488,0.161
1.2827,0.477,0.1127,0.5916,0.6285,0.2928,0.5984,0.0588,0.1689,0.5146,0.2661,0.0281,0.8136,0.8742,0.5942,1.0166,0.5946,0.4418,0.9491,0.9145,0.9632,0.7868,0.7153,0.6235,0.4415,0.5237,0.0311,0.2916,0.136,0.2098
1.2754,0.4824,0.0821,0.562,0.5532,0.3311,0.5296,0.07,0.1786,0.4761,0.2568,-0.0235,0.6806,0.7419,0.5186,0.9548,0.5336,0.3759,0.8937,0.8225,0.8439,0.6899,0.624,0.4916,0.3595,0.424,-0.098,0.193,0.1224,0.2596
1.2742,0.5324,0.0934,0.5662,0.5136,0.3795,0.4825,0.0916,0.1906,0.457,0.2525,-0.0659,0.5626,0.6337,0.4669,0.9253,0.5001,0.3289,0.8661,0.7668,0.7572,0.6185,0.5592,0.38,0.3033,0.3456,-0.2099,0.108,0.112,0.3046
1.2927,0.627,0.1544,0.6096,0.5176,0.4362,0.4652,0.1256,0.2066,0.4621,0.2544,-0.0948,0.4731,0.5622,0.4546,0.9407,0.5068,0.3114,0.8765,0.7608,0.7159,0.584,0.5303,0.2991,0.2758,0.2968,-0.2936,0.0445,0.1081,0.3399
1.3449,0.7624,0.2671,0.6935,0.5679,0.5002,0.4812,0.1737,0.228,0.4922,0.2631,-0.1084,0.4204,0.5349,0.4924,1.0091,0.562,0.3303,0.9299,0.8121,0.7265,0.5913,0.5412,0.2538,0.2759,0.2795,-0.3439,0.0063,0.1121,0.3624
1.4402,0.9313,0.4272,0.8152,0.6621,0.5713,0.529,0.2358,0.2562,0.5439,0.278,-0.108,0.407,0.5527,0.5836,1.1314,0.6676,0.3883,1.0248,0.921,0.7885,0.6385,0.5894,0.2434,0.2989,0.2897,-0.3613,-0.0072,0.1239,0.3714
1.5795,1.1235,0.6239,0.9673,0.7925,0.6491,0.6021,0.31,0.2913,0.6095,0.2967,-0.0975,0.429,0.6103,0.7231,1.3009,0.8177,0.4823,1.1526,1.0794,0.894,0.7164,0.666,0.2616,0.3374,0.3182,-0.3517,-0.0009,0.1414,0.3681
1.7533,1.3265,0.8401,1.1384,0.9475,0.7332,0.6905,0.3916,0.332,0.6792,0.3153,-0.0826,0.477,0.6967,0.8968,1.5035,0.9994,0.6046,1.2986,1.2718,1.0288,0.8104,0.7568,0.2975,0.3829,0.3535,-0.3251,0.0173,0.162,0.3558
1.9426,1.5264,1.0548,1.3141,1.1125,0.8217,0.7815,0.4739,0.3753,0.7417,0.3286,-0.0703,0.5379,0.7969,1.0846,1.7199,1.1946,0.7437,1.4448,1.4771,1.1749,0.903,0.8451,0.3384,0.4268,0.3839,-0.2935,0.0382,0.183,0.3393
2.1229,1.709,1.246,1.4791,1.2722,0.9119,0.8626,0.5485,0.4168,0.7871,0.3317,-0.0665,0.5977,0.8951,1.2633,1.9286,1.3835,0.886,1.5736,1.6722,1.3135,0.9777,0.9149,0.3717,0.4627,0.4009,-0.2675,0.0529,0.2021,0.3239
2.2697,1.8613,1.3952,1.6195,1.4127,1.0001,0.9234,0.6065,0.4511,0.8083,0.3207,-0.0751,0.6444,0.9773,1.4111,2.1095,1.5487,1.0189,1.6715,1.8364,1.428,1.0223,0.9546,0.3878,0.4873,0.401,-0.2545,0.0556,0.2175,0.315
2.3644,1.9732,1.4907,1.7249,1.5232,1.0822,0.957,0.6404,0.4732,0.8026,0.2942,-0.0966,0.6707,1.0342,1.5123,2.2478,1.6776,1.1316,1.7314,1.9547,1.5076,1.0319,0.9596,0.3829,0.5012,0.3863,-0.2566,0.0446,0.2278,0.3167
2.3981,2.0389,1.5301,1.7902,1.5976,1.1537,0.9616,0.6449,0.4793,0.7716,0.2535,-0.128,0.6752,1.0629,1.5591,2.3357,1.7642,1.2172,1.754,2.0206,1.5486,1.0093,0.933,0.3592,0.509,0.3644,-0.2702,0.0228,0.232,0.3311
2.3722,2.0579,1.5194,1.8153,1.6351,1.2107,0.94,0.6187,0.4678,0.721,0.2025,-0.1631,0.6624,1.0668,1.5531,2.3733,1.8088,1.2724,1.7461,2.0362,1.5546,0.9645,0.8852,0.3247,0.5177,0.3459,-0.2868,-0.0026,0.2288,0.3575
2.2978,2.0353,1.4708,1.8051,1.6389,1.2493,0.8987,0.5642,0.4395,0.6591,0.1464,-0.1942,0.6418,1.0548,1.5033,2.3672,1.816,1.2969,1.7185,2.0115,1.5354,0.9116,0.8307,0.2915,0.5349,0.3422,-0.2956,-0.0223,0.2169,0.3925
2.1918,1.981,1.3981,1.7677,1.616,1.2662,0.8468,0.4873,0.3974,0.5947,0.0911,-0.214,0.6248,1.0387,1.4238,2.3283,1.7933,1.2923,1.6825,1.961,1.5037,0.8662,0.7851,0.2727,0.5663,0.362,-0.2862,-0.027,0.1948,0.4306
2.0732,1.9075,1.3134,1.7129,1.5745,1.2587,0.7934,0.3962,0.3459,0.5356,0.0415,-0.2171,0.6223,1.0301,1.3296,2.2691,1.7488,1.2611,1.6475,1.9005,1.473,0.8411,0.7617,0.2794,0.6145,0.4099,-0.2511,-0.01,0.162,0.4655
1.9582,1.8283,1.2241,1.6498,1.5231,1.2254,0.7463,0.3,0.2898,0.4869,0.0011,-0.2014,0.6419,1.0381,1.2343,2.2016,1.6903,1.2059,1.6192,1.8441,1.4539,0.8441,0.7681,0.318,0.6784,0.4844,-0.1883,0.0313,0.1187,0.4913
1.8573,1.7549,1.1336,1.5864,1.4692,1.167,0.7112,0.207,0.2333,0.4507,-0.0281,-0.1684,0.6862,1.0672,1.1471,2.135,1.6242,1.1299,1.5997,1.8019,1.4524,0.877,0.8059,0.3886,0.7532,0.579,-0.102,0.0947,0.0669,0.5037
1.7744,1.6951,1.0419,1.528,1.4189,1.0872,0.6904,0.1237,0.1795,0.4261,-0.0462,-0.1228,0.7522,1.116,1.073,2.0753,1.5558,1.037,1.5876,1.7783,1.4694,0.9355,0.8703,0.485,0.8316,0.6825,-0.0018,0.1732,0.0105,0.5008
1.7081,1.6522,0.9489,1.4773,1.3762,0.9925,0.6838,0.0538,0.1304,0.4103,-0.0541,-0.0717,0.8319,1.1786,1.0131,2.0249,1.4893,0.9328,1.5802,1.7729,1.5008,1.0108,0.9521,0.5952,0.9048,0.7818,0.0986,0.2564,-0.045,0.4831
1.654,1.6246,0.8559,1.4349,1.3432,0.8927,0.6889,-0.0013,0.0874,0.3995,-0.0533,-0.0227,0.9139,1.2452,0.9661,1.9836,1.4273,0.8245,1.5746,1.7813,1.5391,1.0922,1.0397,0.7047,0.9643,0.8638,0.1841,0.3327,-0.0935,0.4533
1.6079,1.6075,0.7676,1.4003,1.3205,0.799,0.7018,-0.0427,0.0508,0.39,-0.0451,0.0173,0.9863,1.3053,0.9304,1.9496,1.3723,0.7206,1.5691,1.7975,1.5757,1.1694,1.122,0.7983,1.0031,0.9178,0.2415,0.3912,-0.1287,0.4156
1.568,1.5946,0.6912,1.3721,1.3072,0.7225,0.7179,-0.0731,0.0212,0.3788,-0.0309,0.0436,1.0386,1.3492,0.9045,1.9208,1.3259,0.6298,1.5639,1.8157,1.6031,1.2343,1.1898,0.8637,1.0169,0.9373,0.2619,0.4238,-0.1461,0.3749
1.535,1.5804,0.6343,1.3494,1.3009,0.6718,0.7325,-0.0958,-0.0017,0.3637,-0.0119,0.054,1.0638,1.3703,0.8879,1.8958,1.2902,0.5602,1.5611,1.8319,1.6161,1.2826,1.2379,0.8935,1.0053,0.9213,0.2421,0.4267,-0.1435,0.3358
1.5119,1.5615,0.6026,1.331,1.2983,0.6506,0.7413,-0.1147,-0.0181,0.3432,0.0104,0.0488,1.0594,1.3659,0.8802,1.8748,1.2675,0.5178,1.5641,1.8448,1.613,1.3142,1.2655,0.8864,0.9718,0.8738,0.1852,0.4003,-0.1217,0.3026
1.5025,1.5371,0.5974,1.316,1.2952,0.6563,0.7405,-0.1328,-0.0288,0.3166,0.0335,0.0303,1.0277,1.3371,0.8811,1.8594,1.2601,0.5059,1.5767,1.8552,1.5953,1.3319,1.2756,0.8469,0.9231,0.8034,0.0996,0.3494,-0.084,0.2781
1.5105,1.5091,0.6156,1.303,1.2869,0.6808,0.7275,-0.1521,-0.035,0.2839,0.0546,0.0017,0.9748,1.2886,0.89,1.8517,1.2696,0.5244,1.6017,1.8658,1.5669,1.341,1.2742,0.7842,0.8676,0.7211,-0.0029,0.2813,-0.0356,0.2638
1.5386,1.4806,0.65,1.2903,1.2691,0.7119,0.7013,-0.173,-0.0383,0.2459,0.0699,-0.0333,0.9097,1.2272,0.9056,1.8538,1.2955,0.5701,1.6398,1.8793,1.5329,1.3463,1.2679,0.7097,0.8134,0.6387,-0.1089,0.2045,0.0175,0.2595
1.5875,1.4546,0.6916,1.2762,1.2389,0.7373,0.6628,-0.1944,-0.0403,0.2049,0.076,-0.071,0.8423,1.1605,0.9259,1.8663,1.3346,0.6367,1.6888,1.8973,1.4981,1.3516,1.2618,0.6352,0.7672,0.5665,-0.2062,0.1278,0.07,0.2639
1.6557,1.4337,0.732,1.2592,1.1952,0.7472,0.6147,-0.2141,-0.0424,0.164,0.0699,-0.1084,0.7814,1.0955,0.948,1.8872,1.3806,0.7162,1.743,1.9191,1.4661,1.3577,1.2583,0.5699,0.732,0.5118,-0.2854,0.0582,0.118,0.2742
1.7385,1.4189,0.7651,1.238,1.1391,0.7367,0.5609,-0.2293,-0.0455,0.127,0.0497,-0.1433,0.7333,1.0371,0.9681,1.912,1.4245,0.7994,1.7942,1.9414,1.4379,1.3621,1.256,0.5189,0.7076,0.478,-0.3414,0.0005,0.1591,0.2874
1.8274,1.4095,0.7878,1.2121,1.0737,0.7067,0.506,-0.2377,-0.0504,0.0972,0.0146,-0.1748,0.7005,0.9876,0.9818,1.9342,1.4562,0.8769,1.8325,1.9582,1.4116,1.3598,1.2507,0.4829,0.6904,0.4639,-0.3743,-0.0432,0.1931,0.3005
1.9106,1.4026,0.7995,1.1808,1.0031,0.663,0.4539,-0.2385,-0.0577,0.0762,-0.0346,-0.2031,0.6813,0.9455,0.9846,1.9454,1.4661,0.9398,1.8482,1.9616,1.3829,1.3442,1.236,0.4576,0.6749,0.4646,-0.3886,-0.0744,0.2203,0.3106
1.9739,1.3932,0.8006,1.1431,0.9313,0.6141,0.4071,-0.2326,-0.0678,0.0635,-0.0964,-0.2301,0.6699,0.9067,0.9727,1.9371,1.4464,0.9806,1.8331,1.9434,1.3457,1.3087,1.2053,0.436,0.6549,0.4718,-0.3925,-0.0968,0.2419,0.3157
2.0034,1.3743,0.791,1.0971,0.8614,0.5692,0.3662,-0.2225,-0.0806,0.0562,-0.1678,-0.2579,0.6579,0.8649,0.9438,1.9014,1.3925,0.994,1.7817,1.8957,1.2936,1.2474,1.153,0.4091,0.6256,0.4758,-0.3958,-0.1164,0.2589,0.314
1.9862,1.3371,0.7682,1.0401,0.7953,0.5359,0.3302,-0.2115,-0.0958,0.0494,-0.2449,-0.2892,0.6363,0.8136,0.8975,1.832,1.3029,0.9775,1.6917,1.8132,1.2211,1.1568,1.0756,0.369,0.5839,0.4669,-0.4084,-0.1397,0.2725,0.3039
1.9126,1.2734,0.7275,0.9698,0.7341,0.5199,0.2972,-0.2027,-0.1119,0.0379,-0.3227,-0.3253,0.5969,0.7474,0.8355,1.7251,1.1795,0.9322,1.5644,1.6931,1.1252,1.0359,0.9721,0.3101,0.5293,0.4377,-0.4382,-0.1722,0.2841,0.2838
1.7761,1.1769,0.6621,0.8845,0.6784,0.5243,0.2652,-0.1985,-0.1273,0.0173,-0.3957,-0.3668,0.5346,0.6635,0.7616,1.5797,1.027,0.8626,1.4039,1.5366,1.0058,0.8864,0.8444,0.2299,0.4632,0.3835,-0.4899,-0.218,0.2951,0.252
1.5746,1.0451,0.5653,0.7841,0.6282,0.5495,0.2328,-0.1995,-0.1399,-0.0151,-0.4592,-0.4123,0.4475,0.5616,0.6805,1.3984,0.852,0.776,1.2164,1.3478,0.8658,0.7122,0.6964,0.1298,0.3882,0.3036,-0.5646,-0.2786,0.3071,0.2068
1.3112,0.88,0.4331,0.6703,0.5834,0.5937,0.1992,-0.2052,-0.1482,-0.0599,-0.5097,-0.4599,0.3377,0.4441,0.5973,1.186,0.6615,0.6807,1.0089,1.1332,0.7097,0.5188,0.5332,0.0134,0.3071,0.2008,-0.6599,-0.353,0.3215,0.1474
0.995,0.6876,0.2659,0.5459,0.5432,0.6534,0.1645,-0.2144,-0.1515,-0.1155,-0.5469,-0.5079,0.2096,0.3148,0.5154,0.9499,0.4622,0.5838,0.7882,0.9002,0.5427,0.3118,0.3602,-0.1144,0.2224,0.08,-0.7715,-0.439,0.3388,0.0745
0.6412,0.4764,0.0708,0.4143,0.5059,0.7232,0.1283,-0.2254,-0.1505,-0.1789,-0.5734,-0.5552,0.0693,0.1777,0.4367,0.6984,0.2593,0.4899,0.5606,0.6563,0.3696,0.097,0.1819,-0.2488,0.1362,-0.0526,-0.8936,-0.5328,0.3591,-0.0088
0.27,0.2561,-0.1401,0.2791,0.4689,0.7967,0.0907,-0.2374,-0.1469,-0.2468,-0.5942,-0.6019,-0.0768,0.037,0.3609,0.4405,0.0565,0.4005,0.3312,0.4085,0.1944,-0.1206,0.0022,-0.3855,0.0501,-0.1901,-1.0203,-0.6307,0.3812,-0.0975
