FP1,F3,F7,FC3,C3,C5,P3,P7,PO7,PO3,O1,Oz,Pz,CPz,FP2,Fz,F4,F8,FC4,FCz,Cz,C4,C6,P4,P8,PO8,PO4,O2,(corr) HEOG,(corr) VEOG
0.7001,0.4751,0.6535,0.6149,0.2669,0.1777,-0.2215,-0.1618,-0.0721,-0.1523,-0.3171,-0.1664,-0.0064,0.2065,0.7624,0.7302,0.7124,0.4924,0.7476,0.738,0.4125,0.6415,0.5919,0.1211,0.1481,0.1407,0.0111,-0.0175,0.077,0.2957
0.7314,0.5263,0.6984,0.6481,0.3209,0.2174,-0.1614,-0.1427,-0.0513,-0.0965,-0.3159,-0.1473,0.0522,0.27,0.7933,0.7747,0.7665,0.554,0.7745,0.7892,0.482,0.6926,0.6247,0.161,0.1584,0.149,0.0427,0.0013,0.0605,0.2738
0.7474,0.5679,0.7318,0.6727,0.3747,0.2584,-0.0937,-0.1149,-0.0159,-0.0327,-0.2913,-0.1151,0.109,0.3264,0.8059,0.8063,0.8023,0.6053,0.7808,0.8286,0.5414,0.7249,0.6431,0.198,0.1663,0.1572,0.0764,0.0259,0.0506,0.2414
0.7555,0.607,0.7557,0.7018,0.4397,0.309,-0.0163,-0.0786,0.0331,0.0379,-0.2436,-0.0668,0.172,0.3864,0.808,0.8358,0.8285,0.6466,0.7809,0.8692,0.6021,0.7524,0.6601,0.2411,0.1765,0.169,0.1187,0.0612,0.0452,0.1922
0.7667,0.6558,0.7757,0.7524,0.53,0.3797,0.0735,-0.0341,0.0921,0.1133,-0.176,-0.001,0.2501,0.4634,0.811,0.8778,0.8578,0.6815,0.7928,0.927,0.6788,0.7921,0.6914,0.2997,0.1935,0.1874,0.1753,0.1106,0.0418,0.1206
0.7942,0.7293,0.8005,0.842,0.6588,0.4816,0.1788,0.0173,0.1558,0.1912,-0.094,0.0813,0.3514,0.5699,0.8276,0.9481,0.9049,0.717,0.8357,1.0187,0.7861,0.8615,0.7526,0.3818,0.2214,0.2141,0.2504,0.1758,0.0384,0.023
0.8505,0.8416,0.84,0.9843,0.8355,0.6228,0.3014,0.0739,0.2186,0.2693,-0.0046,0.1773,0.4813,0.7148,0.8694,1.0608,0.9838,0.7622,0.9259,1.1574,0.9355,0.9745,0.8564,0.4915,0.2631,0.249,0.3454,0.256,0.0342,-0.1014
0.9434,1.0016,0.9026,1.1852,1.0614,0.8054,0.441,0.1335,0.2753,0.3461,0.0854,0.2826,0.6408,0.9001,0.9438,1.2234,1.1042,0.8261,1.0731,1.3492,1.1313,1.138,1.0087,0.6284,0.3193,0.2903,0.4583,0.3483,0.0295,-0.2492
1.0742,1.2089,0.9929,1.4395,1.3278,1.0233,0.5936,0.1934,0.3225,0.4202,0.1708,0.3915,0.8245,1.119,1.0522,1.4347,1.2685,0.9139,1.2765,1.5902,1.3681,1.3487,1.2065,0.7857,0.3884,0.3348,0.5832,0.4472,0.026,-0.4123
1.2355,1.4527,1.1092,1.7301,1.6147,1.2606,0.7509,0.25,0.358,0.49,0.2477,0.4977,1.0206,1.3551,1.1888,1.6823,1.4697,1.0244,1.5232,1.8653,1.6297,1.5924,1.4362,0.9511,0.4658,0.3786,0.7111,0.5457,0.0259,-0.5775
1.4126,1.712,1.2435,2.0296,1.8925,1.4929,0.9,0.2992,0.3801,0.5521,0.3136,0.5939,1.2117,1.584,1.3415,1.9447,1.6917,1.1492,1.7894,2.1499,1.8904,1.8445,1.6751,1.1075,0.5445,0.4173,0.8301,0.6358,0.0313,-0.7275
1.5852,1.9592,1.3815,2.3045,2.1267,1.6903,1.0254,0.3353,0.3874,0.6016,0.3668,0.6729,1.377,1.7775,1.4937,2.1942,1.9113,1.273,2.0437,2.4133,2.1194,2.0747,1.894,1.2361,0.6161,0.4471,0.9278,0.7091,0.0436,-0.8421
1.7322,2.1653,1.5052,2.5211,2.2836,1.823,1.1106,0.3525,0.3783,0.6315,0.4061,0.7283,1.4959,1.9086,1.627,2.4022,2.1027,1.3772,2.2528,2.6246,2.2862,2.2513,2.0623,1.3195,0.6716,0.4652,0.9927,0.7586,0.0632,-0.9024
1.8343,2.3049,1.5957,2.6508,2.3372,1.8664,1.1421,0.345,0.3508,0.635,0.4304,0.7552,1.5515,1.9566,1.724,2.5445,2.2412,1.443,2.3869,2.7575,2.3666,2.3479,2.153,1.3448,0.7036,0.4704,1.0165,0.7795,0.0889,-0.8942
1.8772,2.3601,1.636,2.6748,2.2735,1.8065,1.1116,0.309,0.3041,0.6064,0.4391,0.7513,1.5337,1.911,1.771,2.6036,2.3069,1.4551,2.4244,2.7942,2.3468,2.3465,2.1472,1.3059,0.707,0.4629,0.9955,0.77,0.1185,-0.8114
1.8525,2.3214,1.6134,2.5856,2.0926,1.642,1.0177,0.2433,0.2389,0.5429,0.4323,0.717,1.4403,1.7723,1.7581,2.571,2.2866,1.4038,2.354,2.7268,2.2244,2.2405,2.0366,1.2039,0.6799,0.4444,0.9309,0.7314,0.1488,-0.6587
1.7572,2.1878,1.5209,2.3864,1.8072,1.3841,0.8654,0.1501,0.158,0.4452,0.4111,0.6552,1.2761,1.5497,1.6803,2.4458,2.1748,1.2861,2.1747,2.5564,2.0071,2.033,1.824,1.0461,0.6241,0.4172,0.8276,0.6676,0.1763,-0.4503
1.5931,1.9646,1.3572,2.089,1.4383,1.0533,0.6644,0.0353,0.0664,0.3173,0.377,0.5702,1.0511,1.258,1.5367,2.2334,1.9728,1.1056,1.8939,2.2914,1.709,1.735,1.5219,0.8429,0.5441,0.3837,0.6928,0.5831,0.1975,-0.2071
1.3657,1.6626,1.1272,1.7109,1.0105,0.6753,0.4266,-0.0929,-0.0297,0.1657,0.3318,0.4664,0.778,0.9133,1.3304,1.9436,1.6889,0.8713,1.5259,1.9449,1.3469,1.3624,1.1499,0.606,0.4461,0.3451,0.5336,0.4823,0.2094,0.0477
1.0843,1.2963,0.8412,1.2732,0.5479,0.2766,0.1643,-0.2249,-0.1239,-0.0021,0.2769,0.3474,0.4698,0.5301,1.069,1.5898,1.3368,0.597,1.0895,1.5333,0.9367,0.9335,0.7324,0.3459,0.3377,0.3011,0.3562,0.3683,0.2096,0.2931
0.7617,0.884,0.515,0.7994,0.0726,-0.1185,-0.1114,-0.3507,-0.2102,-0.1779,0.2129,0.216,0.1394,0.1212,0.7643,1.189,0.9357,0.2995,0.6078,1.0755,0.4933,0.4684,0.296,0.0717,0.2258,0.25,0.1652,0.2426,0.1974,0.5139
0.4145,0.4475,0.1687,0.3142,-0.3963,-0.4898,-0.39,-0.4614,-0.2838,-0.354,0.1408,0.0743,-0.2008,-0.3016,0.4325,0.7609,0.509,-0.0028,0.107,0.5927,0.0308,-0.0114,-0.1326,-0.2084,0.1167,0.1894,-0.0354,0.1062,0.1745,0.7016
0.0621,0.0113,-0.1749,-0.1567,-0.8415,-0.8217,-0.6614,-0.5498,-0.3414,-0.5228,0.0618,-0.0746,-0.5377,-0.7252,0.093,0.3284,0.0823,-0.2917,-0.3847,0.1089,-0.4355,-0.483,-0.5284,-0.4861,0.015,0.1173,-0.2411,-0.0395,0.1451,0.8536
-0.2744,-0.3993,-0.4927,-0.5892,-1.2471,-1.1033,-0.9146,-0.6111,-0.3807,-0.677,-0.0209,-0.2258,-0.8569,-1.1335,-0.2329,-0.0845,-0.3186,-0.5514,-0.8396,-0.3509,-0.8875,-0.9229,-0.8702,-0.7514,-0.0759,0.0335,-0.4455,-0.1906,0.1153,0.9719
-0.5749,-0.761,-0.7646,-0.9627,-1.5984,-1.3282,-1.1381,-0.6431,-0.4007,-0.8092,-0.1024,-0.3716,-1.1423,-1.5069,-0.5251,-0.4545,-0.6704,-0.7703,-1.2332,-0.7619,-1.3037,-1.3083,-1.1425,-0.9921,-0.1541,-0.0594,-0.6391,-0.3404,0.0917,1.0609
-0.8222,-1.0553,-0.9761,-1.2624,-1.8828,-1.4942,-1.3202,-0.6463,-0.4009,-0.9121,-0.1756,-0.5019,-1.3768,-1.8231,-0.7667,-0.7613,-0.9553,-0.9424,-1.5478,-1.1021,-1.6613,-1.62,-1.337,-1.1943,-0.2183,-0.1554,-0.8099,-0.479,0.0801,1.1262
-1.0048,-1.2707,-1.1203,-1.4809,-2.0909,-1.6031,-1.4504,-0.6238,-0.3823,-0.9795,-0.2328,-0.6053,-1.5442,-2.0601,-0.9462,-0.9902,-1.1621,-1.0673,-1.7738,-1.3551,-1.938,-1.8438,-1.4527,-1.3442,-0.2679,-0.2458,-0.9441,-0.5946,0.0841,1.1729
-1.1169,-1.4028,-1.1984,-1.6177,-2.2175,-1.6594,-1.5211,-0.5811,-0.3467,-1.0071,-0.2669,-0.6712,-1.6315,-2.1992,-1.0581,-1.1324,-1.2867,-1.1488,-1.9098,-1.5105,-2.1151,-1.9722,-1.4949,-1.4296,-0.3019,-0.3207,-1.0291,-0.6751,0.1049,1.2047
-1.159,-1.4534,-1.2176,-1.677,-2.2614,-1.6695,-1.5297,-0.5254,-0.2978,-0.9938,-0.2733,-0.6918,-1.6317,-2.228,-1.1023,-1.1849,-1.33,-1.1933,-1.9606,-1.5644,-2.1802,-2.0044,-1.4734,-1.4431,-0.3197,-0.3708,-1.0555,-0.7111,0.1406,1.2224
-1.1357,-1.4277,-1.1889,-1.6639,-2.2248,-1.6394,-1.479,-0.465,-0.2408,-0.9425,-0.251,-0.6641,-1.5447,-2.1427,-1.0831,-1.1489,-1.2963,-1.2069,-1.9333,-1.5175,-2.1276,-1.9449,-1.3996,-1.3828,-0.3204,-0.3895,-1.0191,-0.6972,0.1875,1.2232
-1.0537,-1.3314,-1.1237,-1.582,-2.1112,-1.5731,-1.3772,-0.4078,-0.1816,-0.8598,-0.2033,-0.5902,-1.3782,-1.948,-1.0069,-1.0281,-1.1911,-1.1938,-1.8351,-1.3737,-1.959,-1.8017,-1.2842,-1.254,-0.3038,-0.3744,-0.9225,-0.6339,0.2408,1.2008
-0.9203,-1.1691,-1.0315,-1.4316,-1.9249,-1.4711,-1.2361,-0.3597,-0.1259,-0.7547,-0.1364,-0.4773,-1.1462,-1.6569,-0.8809,-0.8279,-1.0202,-1.1554,-1.671,-1.1387,-1.6824,-1.5851,-1.1354,-1.0678,-0.2707,-0.3281,-0.7743,-0.5268,0.2956,1.1466
-0.7422,-0.944,-0.9182,-1.2112,-1.67,-1.3311,-1.0692,-0.3237,-0.0785,-0.6376,-0.0582,-0.3363,-0.8669,-1.2886,-0.7124,-0.5553,-0.7903,-1.0904,-1.4449,-0.8204,-1.3117,-1.3066,-0.9589,-0.84,-0.2234,-0.2573,-0.588,-0.3865,0.3481,1.0517
-0.5259,-0.6598,-0.7861,-0.9205,-1.3517,-1.1492,-0.8894,-0.2994,-0.0416,-0.5183,0.0232,-0.1797,-0.5599,-0.8664,-0.509,-0.2206,-0.5105,-0.9965,-1.1616,-0.43,-0.8659,-0.9793,-0.7582,-0.5891,-0.1657,-0.1724,-0.3802,-0.2265,0.396,0.91
-0.2785,-0.3236,-0.6357,-0.5643,-0.9782,-0.9229,-0.7079,-0.2832,-0.0153,-0.4051,0.1013,-0.0205,-0.2448,-0.4159,-0.2794,0.1615,-0.1945,-0.8728,-0.8297,0.016,-0.3686,-0.6183,-0.5373,-0.3342,-0.1024,-0.0846,-0.1684,-0.0613,0.4386,0.7207
-0.0091,0.0522,-0.4669,-0.1552,-0.5621,-0.6536,-0.5332,-0.2698,0.0024,-0.3041,0.1717,0.13,0.0612,0.0367,-0.0343,0.5706,0.1398,-0.7205,-0.4634,0.4953,0.1522,-0.2414,-0.3012,-0.0931,-0.0391,-0.0046,0.0313,0.0953,0.4768,0.4904
0.2714,0.4493,-0.2814,0.2857,-0.1212,-0.3486,-0.3712,-0.2539,0.0147,-0.2194,0.2323,0.2626,0.3437,0.4671,0.2147,0.9828,0.4717,-0.5444,-0.082,0.9813,0.6672,0.132,-0.0579,0.1194,0.0193,0.0593,0.2056,0.2319,0.5117,0.2326
0.5505,0.8452,-0.0829,0.7313,0.3228,-0.0212,-0.2256,-0.2316,0.0248,-0.1526,0.2829,0.3712,0.5916,0.8544,0.4559,1.3732,0.7813,-0.3511,0.2926,1.4456,1.1477,0.4828,0.1833,0.2926,0.0691,0.1026,0.3454,0.3409,0.5441,-0.0343
0.8159,1.217,0.1226,1.1529,0.7467,0.3114,-0.0982,-0.2015,0.0353,-0.104,0.3246,0.4531,0.7979,1.1836,0.68,1.7205,1.0538,-0.1478,0.6403,1.8631,1.5703,0.7952,0.4125,0.421,0.1088,0.1247,0.4464,0.4186,0.5739,-0.2905
1.058,1.5466,0.3281,1.5268,1.1302,0.6307,0.0103,-0.1653,0.0472,-0.0723,0.3586,0.5083,0.9595,1.4469,0.8817,2.0116,1.2834,0.0599,0.9477,2.2168,1.9202,1.06,0.6221,0.5047,0.1393,0.1286,0.5093,0.4658,0.6006,-0.5193
1.2714,1.8239,0.5273,1.8381,1.459,0.9211,0.1009,-0.1264,0.0599,-0.0552,0.3856,0.5398,1.0778,1.645,1.0608,2.2439,1.4746,0.2689,1.2108,2.5015,2.1933,1.2764,0.8084,0.549,0.1632,0.1201,0.5389,0.487,0.6233,-0.7105
1.4559,2.0491,0.7154,2.0846,1.7282,1.1726,0.1762,-0.0896,0.0722,-0.0497,0.4059,0.5526,1.1579,1.7865,1.2222,2.4255,1.6413,0.4785,1.4362,2.7241,2.3974,1.4524,0.9729,0.564,0.1844,0.1066,0.544,0.4895,0.642,-0.8624
1.6155,2.2314,0.8903,2.2752,1.9417,1.3824,0.2402,-0.0586,0.0826,-0.0523,0.4192,0.553,1.2086,1.8859,1.3734,2.5732,1.8028,0.6887,1.6382,2.902,2.5491,1.6024,1.1214,0.5626,0.2072,0.0954,0.5355,0.4823,0.6574,-0.982
1.7569,2.3858,1.0515,2.4271,2.1112,1.5546,0.2989,-0.0354,0.0899,-0.0591,0.4253,0.5478,1.2411,1.961,1.5227,2.707,1.978,0.8983,1.8342,3.0576,2.6696,1.7436,1.2623,0.5584,0.2348,0.0924,0.5243,0.4744,0.6708,-1.0817
1.8867,2.5278,1.1997,2.5599,2.2515,1.698,0.3586,-0.0188,0.0941,-0.0659,0.4245,0.5432,1.2669,2.0284,1.6759,2.845,2.1802,1.1035,2.0393,3.2122,2.7801,1.8912,1.4035,0.5633,0.2694,0.1011,0.5204,0.4733,0.6836,-1.1762
2.0095,2.669,1.3357,2.6898,2.377,1.8232,0.4252,-0.0052,0.0964,-0.0689,0.4183,0.5443,1.2962,2.1011,1.8348,2.9986,2.4129,1.297,2.2609,3.3799,2.8961,2.0543,1.5506,0.5857,0.3108,0.1223,0.5306,0.484,0.6964,-1.2773
2.1263,2.814,1.4598,2.8256,2.4975,1.9393,0.5028,0.011,0.0985,-0.0649,0.4092,0.5542,1.3357,2.1856,1.9961,3.1692,2.6683,1.4699,2.497,3.5642,3.0248,2.2339,1.7048,0.6292,0.3579,0.1543,0.5578,0.5083,0.7085,-1.391
2.2346,2.9596,1.5718,2.9663,2.6161,2.0513,0.5916,0.0349,0.1024,-0.052,0.4001,0.5735,1.3877,2.2815,2.1519,3.3486,2.9288,1.6133,2.7364,3.7574,3.1639,2.4228,1.863,0.6927,0.4081,0.194,0.6012,0.5447,0.7179,-1.5159
2.329,3.0957,1.6709,3.1027,2.7289,2.1594,0.6881,0.07,0.1087,-0.0302,0.3931,0.6004,1.4493,2.3825,2.292,3.5209,3.1717,1.7209,2.9622,3.9429,3.3034,2.6082,2.0194,0.7713,0.4589,0.2375,0.6566,0.5892,0.722,-1.644
2.4037,3.2093,1.7561,3.2205,2.8273,2.2591,0.7846,0.1166,0.1165,-0.0018,0.3892,0.6308,1.5136,2.4784,2.4066,3.6679,3.3748,1.7916,3.1566,4.1008,3.4286,2.7755,2.1662,0.8579,0.508,0.2809,0.7173,0.6362,0.7182,-1.7629
2.4537,3.2884,1.8266,3.3053,2.9009,2.3432,0.871,0.1716,0.1233,0.0295,0.3879,0.6597,1.5716,2.5585,2.4882,3.7728,3.5219,1.8297,3.3057,4.2131,3.5248,2.9119,2.297,0.9452,0.5541,0.3214,0.7764,0.6797,0.7049,-1.8601
2.4767,3.3256,1.8817,3.3467,2.941,2.4044,0.9375,0.2294,0.126,0.059,0.3877,0.6824,1.6146,2.614,2.5342,3.8256,3.6063,1.845,3.4032,4.2685,3.581,3.0103,2.407,1.0273,0.5963,0.3569,0.828,0.7147,0.6819,-1.9254
2.4741,3.3204,1.9215,3.3413,2.9438,2.4378,0.9768,0.2836,0.122,0.0829,0.3869,0.6956,1.6365,2.6401,2.5471,3.8244,3.6322,1.8504,3.4509,4.2646,3.5918,3.0695,2.4945,1.1007,0.634,0.3866,0.8681,0.7382,0.6503,-1.9538
2.4502,3.2787,1.9471,3.2927,2.911,2.4422,0.9865,0.3288,0.1101,0.0989,0.3841,0.698,1.6352,2.6364,2.5329,3.7751,3.6121,1.8588,3.4575,4.2073,3.5578,3.0939,2.5595,1.1637,0.6666,0.4097,0.8953,0.7491,0.613,-1.9456
2.4112,3.2111,1.9601,3.2107,2.8491,2.4204,0.9697,0.3622,0.0911,0.107,0.3786,0.6901,1.6125,2.6058,2.4996,3.6895,3.5625,1.8801,3.4345,4.1083,3.4845,3.0909,2.6029,1.2162,0.6924,0.4254,0.9098,0.7481,0.5738,-1.9055
2.3633,3.1292,1.9627,3.1076,2.7678,2.3782,0.9345,0.3836,0.0682,0.1092,0.3705,0.6735,1.5734,2.5534,2.454,3.5808,3.4986,1.9179,3.3926,3.9808,3.3797,3.0675,2.6249,1.2579,0.709,0.4324,0.9127,0.7362,0.5376,-1.8408
2.3114,3.0427,1.9568,2.9955,2.677,2.3229,0.892,0.3958,0.0457,0.1087,0.3599,0.6502,1.5242,2.4849,2.4003,3.4607,3.4309,1.9689,3.3387,3.8367,3.2518,3.0282,2.624,1.2872,0.7131,0.4284,0.9049,0.7146,0.5096,-1.7596
2.2581,2.9568,1.9437,2.8834,2.5845,2.2615,0.8537,0.4031,0.0289,0.1094,0.3474,0.6219,1.4712,2.4053,2.3396,3.3371,3.362,2.0233,3.2742,3.6841,3.1082,2.974,2.5974,1.3015,0.7014,0.4104,0.8867,0.6837,0.4953,-1.6686
2.2032,2.8718,1.9236,2.7758,2.495,2.1992,0.8292,0.4097,0.0223,0.1142,0.3337,0.5896,1.4191,2.3181,2.2699,3.2128,3.2882,2.0673,3.1962,3.5268,2.9546,2.9027,2.5413,1.2968,0.6713,0.3754,0.8571,0.6432,0.4993,-1.573
2.1445,2.7836,1.8948,2.6729,2.4089,2.1387,0.8242,0.4192,0.0294,0.1248,0.3199,0.5537,1.37,2.2252,2.1886,3.0863,3.2013,2.0867,3.0989,3.3646,2.7956,2.8103,2.4528,1.269,0.6214,0.3209,0.8148,0.5922,0.5252,-1.4759
2.0785,2.6855,1.8544,2.571,2.3231,2.0797,0.8386,0.433,0.0512,0.1404,0.3072,0.5142,1.3233,2.127,2.0932,2.9536,3.0921,2.0698,2.9768,3.1956,2.6339,2.6929,2.3305,1.215,0.5522,0.2464,0.7582,0.5302,0.574,-1.3789
2.0012,2.5709,1.7991,2.4646,2.2322,2.0196,0.8675,0.4501,0.0859,0.1582,0.297,0.4714,1.276,2.0223,1.983,2.8093,2.9539,2.0108,2.8262,3.0167,2.4712,2.5482,2.1763,1.1336,0.4661,0.1538,0.6867,0.4577,0.644,-1.2831
1.9095,2.4347,1.7256,2.3475,2.1303,1.9542,0.9016,0.4683,0.1297,0.1738,0.2904,0.4254,1.2233,1.9092,1.8592,2.6487,2.7843,1.9104,2.6469,2.8259,2.3079,2.3767,1.995,1.026,0.3674,0.0474,0.601,0.3762,0.7303,-1.1892
1.8013,2.2751,1.6325,2.2148,2.0123,1.8789,0.9299,0.484,0.177,0.1822,0.2884,0.377,1.16,1.7849,1.7247,2.4687,2.5855,1.7756,2.4419,2.6222,2.1433,2.1819,1.7945,0.8963,0.2614,-0.0656,0.5035,0.2889,0.8246,-1.098
1.6766,2.0938,1.5205,2.0635,1.8755,1.7901,0.9417,0.4941,0.222,0.179,0.291,0.3272,1.0819,1.6473,1.5831,2.2682,2.3639,1.6176,2.2171,2.4061,1.9757,1.9695,1.5838,0.7505,0.1543,-0.1768,0.3977,0.1995,0.9165,-1.0105
1.5371,1.8952,1.3925,1.8929,1.7202,1.6856,0.9293,0.496,0.2594,0.1615,0.297,0.277,0.9869,1.4947,1.438,2.0485,2.1276,1.4491,1.9796,2.1794,1.803,1.7467,1.3724,0.596,0.052,-0.2776,0.2883,0.1127,0.9943,-0.9272
1.3857,1.6858,1.2533,1.7048,1.5495,1.5658,0.889,0.4887,0.2854,0.1293,0.3038,0.227,0.8757,1.3277,1.2923,1.8134,1.8852,1.2815,1.7373,1.945,1.6234,1.5214,1.1688,0.4406,-0.0398,-0.3603,0.1807,0.0324,1.047,-0.8487
1.227,1.4727,1.1081,1.5028,1.3689,1.4332,0.8217,0.4723,0.2978,0.0842,0.3081,0.1781,0.7519,1.1483,1.1475,1.5681,1.644,1.1226,1.4978,1.7066,1.4362,1.3011,0.9796,0.2917,-0.1163,-0.4193,0.0798,-0.0377,1.0663,-0.7753
1.0658,1.2627,0.9625,1.2921,1.1854,1.2923,0.7323,0.448,0.2966,0.0298,0.3063,0.1308,0.6213,0.961,1.0042,1.3197,1.4092,0.9763,1.2675,1.4684,1.2422,1.0924,0.8095,0.1558,-0.1735,-0.4514,-0.0097,-0.0951,1.0483,-0.707
0.9073,1.0618,0.8211,1.0786,1.0061,1.149,0.6288,0.4179,0.2829,-0.0292,0.2964,0.0861,0.4914,0.7717,0.8626,1.0757,1.1839,0.8426,1.0521,1.2348,1.0443,0.9008,0.6614,0.0383,-0.2087,-0.4563,-0.0841,-0.138,0.9944,-0.6438
0.7568,0.8746,0.6878,0.8685,0.8374,1.0098,0.5206,0.3846,0.2591,-0.0878,0.2783,0.0458,0.3691,0.5876,0.7231,0.8435,0.9699,0.7193,0.856,1.01,0.847,0.7308,0.5367,-0.0569,-0.2202,-0.436,-0.1408,-0.1658,0.9107,-0.5851
0.6187,0.7042,0.5657,0.6678,0.6848,0.8806,0.4167,0.3506,0.2287,-0.1409,0.2544,0.0119,0.2603,0.4164,0.5872,0.6301,0.7684,0.6038,0.683,0.798,0.6563,0.5854,0.4364,-0.1271,-0.2081,-0.3946,-0.1784,-0.1785,0.8073,-0.5304
0.497,0.5527,0.4574,0.4821,0.5524,0.7667,0.3252,0.3184,0.1954,-0.1846,0.2295,-0.0131,0.1691,0.2651,0.4581,0.4411,0.5815,0.4947,0.5355,0.6023,0.4787,0.4671,0.3608,-0.1711,-0.1741,-0.3373,-0.1967,-0.1768,0.6959,-0.4793
0.394,0.4213,0.3645,0.3164,0.4429,0.6715,0.2517,0.2904,0.1632,-0.2157,0.209,-0.0269,0.0974,0.1399,0.3403,0.2806,0.4125,0.3925,0.4155,0.4265,0.3204,0.377,0.3101,-0.1894,-0.1218,-0.2698,-0.1968,-0.162,0.5884,-0.432
0.3106,0.3107,0.2883,0.1749,0.3577,0.5971,0.2,0.269,0.1363,-0.2322,0.1985,-0.0274,0.0459,0.0453,0.2391,0.1511,0.2661,0.3,0.3239,0.274,0.1872,0.3155,0.2838,-0.1835,-0.0562,-0.1977,-0.1805,-0.1357,0.4947,-0.3899
0.2464,0.2211,0.2293,0.0614,0.2973,0.5436,0.1716,0.256,0.118,-0.2331,0.2021,-0.0138,0.0147,-0.0159,0.1596,0.0539,0.1479,0.222,0.2611,0.149,0.0835,0.2821,0.2812,-0.1559,0.0167,-0.1254,-0.1498,-0.0995,0.422,-0.3556
0.1998,0.1531,0.1867,-0.0209,0.2613,0.5098,0.1666,0.2528,0.111,-0.2183,0.2213,0.0142,0.0042,-0.043,0.1054,-0.0111,0.0633,0.164,0.2268,0.0557,0.0128,0.276,0.3007,-0.1095,0.091,-0.056,-0.1066,-0.0549,0.3732,-0.3325
0.1687,0.1072,0.1585,-0.0698,0.2488,0.4932,0.1837,0.2595,0.1158,-0.1885,0.2553,0.0559,0.0152,-0.0367,0.0779,-0.045,0.0165,0.131,0.2202,-0.002,-0.0235,0.2957,0.3401,-0.0473,0.1619,0.0096,-0.0523,-0.0024,0.3475,-0.3242
0.1507,0.0833,0.141,-0.084,0.2581,0.4907,0.2203,0.2752,0.1315,-0.1451,0.301,0.1097,0.049,0.0008,0.0758,-0.0498,0.009,0.126,0.2396,-0.0216,-0.0255,0.3388,0.3963,0.0279,0.2263,0.0717,0.0124,0.0573,0.3406,-0.3337
0.1436,0.0803,0.1296,-0.0642,0.287,0.4989,0.2729,0.2979,0.1552,-0.0899,0.3536,0.1735,0.1058,0.0655,0.0954,-0.0289,0.0387,0.1485,0.2819,-0.0035,0.0044,0.402,0.4652,0.1133,0.2829,0.1318,0.0866,0.1239,0.3462,-0.362
0.1451,0.0957,0.1188,-0.0139,0.3323,0.5144,0.3363,0.3246,0.1827,-0.0259,0.4077,0.2444,0.1846,0.1517,0.1307,0.0133,0.0996,0.1941,0.3428,0.0488,0.0619,0.4808,0.5416,0.2055,0.3321,0.1912,0.1691,0.1966,0.3574,-0.408
0.1531,0.1252,0.1037,0.0611,0.3896,0.5341,0.4043,0.3517,0.2093,0.0437,0.4582,0.3188,0.2822,0.2526,0.1744,0.0707,0.1819,0.2545,0.4158,0.1278,0.1406,0.5688,0.6197,0.3009,0.3748,0.2509,0.2577,0.2736,0.3688,-0.4679
0.1652,0.1634,0.0802,0.1521,0.4537,0.5551,0.4698,0.3762,0.2309,0.115,0.5008,0.3929,0.3927,0.3602,0.2189,0.1369,0.2737,0.3189,0.4934,0.2236,0.2333,0.6588,0.693,0.395,0.4123,0.3105,0.3491,0.3523,0.377,-0.5358
0.1795,0.2048,0.0464,0.2489,0.5187,0.5746,0.5257,0.3954,0.2448,0.1837,0.5333,0.4632,0.509,0.4668,0.2575,0.2055,0.3628,0.3753,0.5677,0.3254,0.3325,0.7432,0.7556,0.4835,0.4453,0.3686,0.4392,0.4295,0.3816,-0.6051
0.194,0.2441,0.0029,0.3409,0.579,0.5904,0.5661,0.4079,0.2498,0.246,0.5556,0.5267,0.623,0.5658,0.2857,0.2716,0.4389,0.4133,0.6315,0.4238,0.4321,0.8153,0.8026,0.5624,0.4739,0.4227,0.5236,0.5016,0.3839,-0.6688
0.2073,0.2779,-0.0469,0.4192,0.6301,0.6009,0.5873,0.4135,0.2465,0.2984,0.5699,0.5817,0.7273,0.6529,0.3016,0.3324,0.4951,0.4253,0.6795,0.5122,0.5277,0.8703,0.8312,0.6285,0.4973,0.4694,0.5982,0.5653,0.3863,-0.722
0.2189,0.3043,-0.0981,0.4778,0.6696,0.6054,0.5887,0.4133,0.237,0.3383,0.5809,0.628,0.8168,0.7262,0.3065,0.3875,0.5288,0.4083,0.7096,0.5883,0.6175,0.9059,0.8412,0.6802,0.5141,0.5053,0.66,0.6182,0.3911,-0.7616
0.2288,0.3232,-0.1449,0.5145,0.6972,0.6042,0.5729,0.409,0.2246,0.3647,0.5941,0.6669,0.8889,0.7871,0.304,0.4386,0.5416,0.3639,0.7224,0.6537,0.7013,0.923,0.835,0.7173,0.5231,0.5277,0.7072,0.6591,0.3993,-0.7874
0.2377,0.3358,-0.182,0.5312,0.7153,0.5985,0.5455,0.403,0.2125,0.3784,0.6152,0.7007,0.9442,0.8387,0.2994,0.4882,0.5384,0.2979,0.7214,0.7125,0.7804,0.9253,0.8168,0.7411,0.5231,0.5348,0.7401,0.6882,0.4102,-0.8011
0.2468,0.3442,-0.2061,0.5328,0.7276,0.5905,0.5135,0.3976,0.2036,0.3818,0.6481,0.7318,0.9858,0.8853,0.2977,0.5386,0.5252,0.2189,0.7115,0.7693,0.8562,0.9178,0.7915,0.7537,0.514,0.5266,0.7602,0.7067,0.4215,-0.8059
0.2573,0.3505,-0.216,0.5258,0.7387,0.5829,0.4844,0.3941,0.2,0.3785,0.6938,0.7623,1.0183,0.9312,0.3029,0.5904,0.5085,0.1366,0.6984,0.8279,0.9297,0.9058,0.7635,0.7579,0.4961,0.5043,0.7699,0.7166,0.4305,-0.8055
0.2699,0.3562,-0.2126,0.5163,0.7524,0.5784,0.4645,0.3936,0.2022,0.3728,0.7497,0.7925,1.0463,0.9791,0.3164,0.6426,0.4932,0.0605,0.6868,0.8894,1.0005,0.8937,0.736,0.756,0.4702,0.4705,0.772,0.7198,0.4341,-0.803
0.2846,0.3619,-0.1987,0.5085,0.7707,0.5791,0.4582,0.3958,0.2101,0.3687,0.8104,0.8214,1.0731,1.03,0.3375,0.6924,0.4829,-0.002,0.6802,0.9517,1.0664,0.8842,0.7101,0.7498,0.4375,0.4281,0.7684,0.7173,0.4305,-0.8004
0.3009,0.367,-0.1781,0.5038,0.7928,0.5857,0.4668,0.3999,0.2222,0.3687,0.868,0.8462,1.0996,1.0819,0.363,0.7355,0.4794,-0.0454,0.68,1.0097,1.124,0.8776,0.6854,0.7401,0.3992,0.3799,0.7602,0.7094,0.4186,-0.7983
0.3172,0.3692,-0.1553,0.5,0.8154,0.5972,0.4888,0.4044,0.2364,0.3733,0.9144,0.8628,1.124,1.1308,0.3886,0.7676,0.483,-0.0676,0.6855,1.0563,1.1685,0.8721,0.6602,0.7267,0.3565,0.3282,0.7472,0.6952,0.3985,-0.795
0.3314,0.3654,-0.1351,0.4926,0.8329,0.6105,0.5199,0.4071,0.2496,0.3803,0.9427,0.8671,1.1416,1.1702,0.4095,0.7846,0.4924,-0.0693,0.6942,1.0839,1.1949,0.8643,0.6323,0.7086,0.3105,0.2747,0.7281,0.6732,0.3708,-0.7874
0.3409,0.3519,-0.1217,0.4755,0.839,0.6211,0.5535,0.4058,0.258,0.3855,0.9483,0.8556,1.146,1.1931,0.4214,0.7832,0.5053,-0.0547,0.7017,1.086,1.1987,0.8499,0.5999,0.6843,0.2626,0.2207,0.7009,0.6419,0.3369,-0.7718
0.3434,0.3254,-0.1189,0.4431,0.8283,0.6241,0.5821,0.398,0.2578,0.3833,0.9298,0.8264,1.131,1.1926,0.4217,0.7616,0.5184,-0.0302,0.7025,1.0592,1.1769,0.8248,0.5616,0.6527,0.2147,0.1676,0.6641,0.6006,0.2988,-0.7447
0.337,0.2842,-0.1288,0.3916,0.7974,0.6152,0.5988,0.3823,0.2453,0.3687,0.889,0.7801,1.0919,1.1639,0.4089,0.7196,0.5275,-0.0039,0.6919,1.004,1.1291,0.7863,0.5172,0.6132,0.1689,0.1172,0.6173,0.5501,0.2593,-0.7045
0.3205,0.2283,-0.1517,0.3205,0.7461,0.5917,0.5982,0.3582,0.2186,0.3382,0.8312,0.7195,1.0282,1.1054,0.3836,0.6592,0.5284,0.0163,0.6661,0.9247,1.0574,0.7336,0.4672,0.5662,0.1277,0.0713,0.5618,0.4925,0.2218,-0.6524
0.2935,0.1599,-0.1862,0.2329,0.6775,0.5537,0.5784,0.3275,0.1777,0.2921,0.7639,0.6502,0.9436,1.0198,0.3474,0.5841,0.5174,0.0237,0.6237,0.8295,0.967,0.6681,0.4127,0.5137,0.0935,0.0321,0.5007,0.432,0.1905,-0.5929
0.2564,0.083,-0.2297,0.1348,0.5974,0.5035,0.5411,0.2935,0.1257,0.2341,0.6959,0.5796,0.8465,0.9141,0.3028,0.4993,0.4919,0.0141,0.5659,0.7281,0.865,0.5936,0.3553,0.4588,0.0679,0.0013,0.439,0.3736,0.1692,-0.5332
0.2103,0.0024,-0.2782,0.0342,0.5132,0.446,0.4915,0.2613,0.068,0.1714,0.6361,0.5157,0.7486,0.7982,0.2527,0.4107,0.4509,-0.0138,0.496,0.6302,0.7597,0.515,0.2963,0.4059,0.0516,-0.0194,0.3825,0.3229,0.1606,-0.4817
0.1565,-0.0773,-0.3279,-0.0608,0.432,0.387,0.4366,0.2363,0.0118,0.1128,0.5916,0.4657,0.6622,0.6837,0.1997,0.324,0.3949,-0.0588,0.4183,0.5431,0.6591,0.4373,0.2367,0.3588,0.0442,-0.0292,0.3368,0.285,0.1657,-0.446
0.0966,-0.1525,-0.3753,-0.1437,0.3593,0.3323,0.3835,0.2228,-0.0359,0.0665,0.5668,0.4347,0.5977,0.5811,0.1457,0.2431,0.3258,-0.1184,0.3365,0.4701,0.569,0.3641,0.1766,0.3207,0.0443,-0.0277,0.3063,0.2633,0.1833,-0.4314
0.0322,-0.2214,-0.4179,-0.2109,0.2977,0.2859,0.3375,0.2231,-0.0699,0.0376,0.5617,0.4241,0.5609,0.4975,0.0915,0.17,0.246,-0.1897,0.2535,0.4102,0.4923,0.2969,0.1153,0.2926,0.0496,-0.0153,0.2927,0.2587,0.2101,-0.4387
-0.0349,-0.2837,-0.4539,-0.2621,0.2468,0.2496,0.3005,0.2359,-0.0883,0.0269,0.5727,0.4314,0.5519,0.4356,0.0372,0.1045,0.1585,-0.2704,0.1703,0.3586,0.4281,0.2347,0.0513,0.273,0.0571,0.0066,0.2944,0.2694,0.2413,-0.4644
-0.1029,-0.3404,-0.4827,-0.3002,0.2031,0.2227,0.2707,0.257,-0.0926,0.0303,0.593,0.4506,0.5649,0.3932,-0.0173,0.0451,0.0664,-0.3592,0.0867,0.3082,0.3729,0.1749,-0.0164,0.2584,0.0639,0.0354,0.307,0.2908,0.2719,-0.501
-0.1693,-0.3927,-0.5037,-0.3292,0.1621,0.2022,0.2435,0.2798,-0.0879,0.0401,0.6143,0.4735,0.5894,0.3643,-0.0717,-0.0107,-0.0269,-0.4547,0.0023,0.2521,0.3215,0.1146,-0.0884,0.2436,0.0668,0.0671,0.3235,0.3162,0.2976,-0.5386
-0.2312,-0.4407,-0.5167,-0.3538,0.1191,0.1842,0.2129,0.2968,-0.0803,0.0472,0.6291,0.4915,0.6133,0.3411,-0.1251,-0.0648,-0.1178,-0.5553,-0.0829,0.1854,0.2685,0.0514,-0.1637,0.2234,0.0631,0.0964,0.3361,0.3379,0.316,-0.5668
-0.2857,-0.4836,-0.5215,-0.377,0.0708,0.1652,0.1742,0.3021,-0.0757,0.0436,0.6324,0.4978,0.6249,0.316,-0.1756,-0.1181,-0.2024,-0.6578,-0.1679,0.1071,0.2104,-0.0157,-0.2405,0.1934,0.0507,0.1178,0.3377,0.3493,0.3268,-0.577
-0.3299,-0.519,-0.518,-0.4008,0.0166,0.1426,0.1249,0.2927,-0.0777,0.0247,0.6225,0.4884,0.6157,0.2832,-0.2214,-0.1705,-0.2773,-0.7582,-0.2506,0.0199,0.1457,-0.086,-0.3157,0.1511,0.0285,0.1267,0.3235,0.3455,0.3312,-0.5646
-0.3622,-0.5445,-0.5068,-0.4253,-0.042,0.1157,0.0665,0.2694,-0.0867,-0.0096,0.6016,0.4632,0.5818,0.2401,-0.2608,-0.2207,-0.3399,-0.8514,-0.3279,-0.0704,0.0756,-0.1572,-0.3864,0.0968,-0.0032,0.1197,0.2916,0.3248,0.3312,-0.5292
-0.3822,-0.5577,-0.4889,-0.4504,-0.1014,0.0856,0.0037,0.2365,-0.1001,-0.0547,0.5748,0.4255,0.5242,0.1872,-0.293,-0.2674,-0.3892,-0.9323,-0.3965,-0.1569,0.0032,-0.2266,-0.4496,0.0326,-0.0424,0.0961,0.2435,0.2885,0.329,-0.475
-0.3908,-0.5583,-0.4658,-0.4759,-0.1567,0.0546,-0.0565,0.2009,-0.1129,-0.1033,0.5489,0.3813,0.448,0.1277,-0.3179,-0.3097,-0.426,-0.9967,-0.4535,-0.2333,-0.0678,-0.2912,-0.5035,-0.0369,-0.0858,0.0577,0.1837,0.2408,0.3262,-0.409
-0.3906,-0.548,-0.4402,-0.5024,-0.2037,0.0256,-0.1069,0.1702,-0.1195,-0.1467,0.5304,0.3371,0.3613,0.0661,-0.3365,-0.3476,-0.4527,-1.0421,-0.4974,-0.2957,-0.134,-0.3486,-0.5475,-0.1063,-0.1289,0.0086,0.1183,0.1875,0.3237,-0.3397
-0.3851,-0.5312,-0.4149,-0.5314,-0.2394,0.0009,-0.1419,0.1505,-0.1152,-0.1777,0.524,0.2991,0.2728,0.0071,-0.3507,-0.3822,-0.4735,-1.0682,-0.5286,-0.3435,-0.1931,-0.3977,-0.5822,-0.1704,-0.1671,-0.0458,0.054,0.1346,0.3216,-0.2748
-0.3783,-0.5139,-0.3933,-0.5648,-0.2629,-0.0182,-0.159,0.1452,-0.0977,-0.1923,0.5312,0.271,0.1904,-0.0458,-0.3625,-0.4154,-0.4932,-1.0766,-0.5496,-0.379,-0.2447,-0.4384,-0.6094,-0.2249,-0.1966,-0.0997,-0.0038,0.087,0.3201,-0.2199
-0.3738,-0.5024,-0.3778,-0.604,-0.2756,-0.0321,-0.16,0.1544,-0.068,-0.1908,0.5499,0.2535,0.1188,-0.0904,-0.3741,-0.4492,-0.5162,-1.0711,-0.5642,-0.4065,-0.29,-0.4717,-0.6314,-0.2674,-0.2153,-0.1483,-0.0517,0.0477,0.3194,-0.178
-0.3738,-0.5016,-0.3696,-0.6489,-0.2809,-0.042,-0.1501,0.1746,-0.03,-0.1776,0.5748,0.2439,0.0597,-0.1267,-0.3867,-0.4848,-0.5455,-1.0555,-0.5768,-0.4308,-0.3307,-0.4991,-0.6505,-0.2977,-0.2229,-0.1884,-0.089,0.0169,0.3196,-0.149
-0.3789,-0.5133,-0.368,-0.6979,-0.283,-0.0501,-0.1371,0.2001,0.0101,-0.1604,0.5985,0.2377,0.0114,-0.1559,-0.4001,-0.522,-0.5813,-1.0332,-0.5904,-0.4553,-0.3686,-0.5216,-0.6682,-0.3174,-0.2212,-0.2188,-0.1173,-0.007,0.321,-0.1306
-0.388,-0.5363,-0.3714,-0.7472,-0.286,-0.0588,-0.1295,0.2238,0.0448,-0.1481,0.6137,0.2294,-0.0298,-0.18,-0.4122,-0.559,-0.6205,-1.0061,-0.6061,-0.4814,-0.4045,-0.5395,-0.6846,-0.3293,-0.2127,-0.2398,-0.1397,-0.0271,0.3228,-0.119
-0.3989,-0.5663,-0.3772,-0.7928,-0.2933,-0.0702,-0.1348,0.239,0.0672,-0.1484,0.6148,0.2145,-0.0677,-0.2012,-0.4197,-0.593,-0.6577,-0.9741,-0.6226,-0.5083,-0.4385,-0.5526,-0.6988,-0.3364,-0.2001,-0.2523,-0.1594,-0.0462,0.3235,-0.1104
-0.4094,-0.5975,-0.3839,-0.8306,-0.3068,-0.0861,-0.158,0.2408,0.0722,-0.1665,0.5993,0.1906,-0.1056,-0.2215,-0.4191,-0.6206,-0.6866,-0.9361,-0.6371,-0.5338,-0.4698,-0.5602,-0.7088,-0.3415,-0.1853,-0.2573,-0.1787,-0.066,0.3208,-0.1012
-0.4175,-0.6246,-0.3906,-0.8581,-0.3272,-0.107,-0.2004,0.2266,0.0579,-0.2036,0.5681,0.158,-0.1445,-0.2426,-0.4077,-0.6396,-0.7016,-0.8911,-0.6465,-0.5556,-0.4977,-0.5623,-0.7131,-0.3464,-0.1692,-0.2554,-0.1984,-0.0867,0.3127,-0.089
-0.4226,-0.644,-0.3979,-0.8748,-0.354,-0.1329,-0.2598,0.1965,0.0261,-0.2568,0.525,0.1198,-0.1837,-0.266,-0.3855,-0.6489,-0.7,-0.8397,-0.649,-0.5722,-0.5224,-0.5596,-0.7112,-0.3518,-0.1517,-0.2467,-0.2178,-0.1066,0.2977,-0.0722
-0.4252,-0.6553,-0.407,-0.8824,-0.3858,-0.163,-0.3309,0.1531,-0.0181,-0.32,0.4763,0.0804,-0.2209,-0.2925,-0.3546,-0.6497,-0.6826,-0.7849,-0.6445,-0.5838,-0.5452,-0.5541,-0.704,-0.3573,-0.1323,-0.2308,-0.2348,-0.1233,0.2763,-0.0501
-0.4269,-0.6609,-0.4194,-0.8839,-0.4208,-0.196,-0.4067,0.1008,-0.067,-0.3857,0.4285,0.045,-0.2531,-0.3229,-0.3193,-0.6442,-0.6538,-0.732,-0.635,-0.5916,-0.568,-0.5484,-0.6932,-0.3619,-0.1107,-0.2078,-0.2469,-0.1339,0.2507,-0.0223
-0.4292,-0.6648,-0.436,-0.8822,-0.4567,-0.23,-0.4799,0.0447,-0.1119,-0.4465,0.3876,0.0181,-0.2776,-0.3569,-0.2849,-0.635,-0.6197,-0.6876,-0.6237,-0.5974,-0.5924,-0.5446,-0.6812,-0.3638,-0.0868,-0.1782,-0.2519,-0.1362,0.2248,0.0108
-0.4325,-0.6708,-0.4562,-0.8793,-0.4906,-0.2627,-0.5441,-0.0102,-0.1447,-0.4968,0.358,0.0025,-0.2924,-0.3934,-0.2553,-0.6236,-0.5868,-0.6578,-0.6131,-0.6022,-0.6187,-0.5434,-0.6691,-0.3612,-0.0609,-0.1432,-0.2481,-0.129,0.2028,0.0486
-0.4359,-0.6806,-0.4782,-0.8749,-0.5192,-0.2912,-0.5949,-0.0596,-0.1603,-0.534,0.3416,-0.0008,-0.2969,-0.4298,-0.2324,-0.6097,-0.5594,-0.6461,-0.604,-0.605,-0.6448,-0.5429,-0.6563,-0.3525,-0.0334,-0.1043,-0.2354,-0.1127,0.1886,0.089
-0.4366,-0.6926,-0.4983,-0.867,-0.5388,-0.3126,-0.6301,-0.1008,-0.157,-0.5584,0.3377,0.0071,-0.2913,-0.4624,-0.2147,-0.5905,-0.5382,-0.6518,-0.5943,-0.603,-0.6665,-0.5391,-0.64,-0.336,-0.0042,-0.0635,-0.2143,-0.0885,0.1847,0.1293
-0.4306,-0.7025,-0.5121,-0.8523,-0.5461,-0.3239,-0.6501,-0.1328,-0.1378,-0.5726,0.3433,0.0234,-0.2768,-0.4869,-0.1983,-0.5619,-0.5205,-0.6696,-0.5794,-0.5919,-0.6783,-0.5262,-0.6156,-0.3111,0.0268,-0.0228,-0.1866,-0.0588,0.1914,0.1657
-0.4141,-0.7045,-0.5154,-0.8273,-0.5388,-0.3231,-0.6568,-0.1561,-0.1091,-0.5799,0.3539,0.0442,-0.2551,-0.4992,-0.1777,-0.5196,-0.5011,-0.6902,-0.5535,-0.5673,-0.6751,-0.4981,-0.5782,-0.2779,0.0597,0.016,-0.1544,-0.0267,0.2073,0.1946
-0.3842,-0.6929,-0.5052,-0.7898,-0.516,-0.3094,-0.6533,-0.172,-0.0795,-0.5832,0.3645,0.0655,-0.2283,-0.4962,-0.1477,-0.4607,-0.4738,-0.7023,-0.5113,-0.5266,-0.6532,-0.4507,-0.524,-0.2375,0.0944,0.0513,-0.1204,0.0047,0.2297,0.2128
-0.34,-0.6645,-0.4806,-0.7391,-0.4785,-0.2834,-0.6426,-0.1825,-0.0572,-0.5834,0.3707,0.0838,-0.1985,-0.4769,-0.1049,-0.3851,-0.4338,-0.6955,-0.4498,-0.4698,-0.6123,-0.3829,-0.4519,-0.1922,0.1296,0.0811,-0.0873,0.0325,0.256,0.2193
-0.2831,-0.6191,-0.4424,-0.6766,-0.4285,-0.2469,-0.6273,-0.1888,-0.0487,-0.5796,0.3695,0.0968,-0.1681,-0.4426,-0.0483,-0.2961,-0.3787,-0.663,-0.37,-0.4003,-0.5551,-0.2978,-0.3646,-0.1452,0.163,0.1038,-0.0575,0.0542,0.284,0.2149
-0.2174,-0.5603,-0.3928,-0.6057,-0.3695,-0.2028,-0.609,-0.1916,-0.0566,-0.5692,0.3603,0.1034,-0.1396,-0.397,0.0196,-0.2004,-0.3106,-0.6041,-0.2771,-0.3245,-0.488,-0.2027,-0.2684,-0.1008,0.1908,0.1173,-0.0334,0.068,0.3133,0.2027
-0.1482,-0.4942,-0.3348,-0.5309,-0.3053,-0.1541,-0.5885,-0.1904,-0.0797,-0.5494,0.3442,0.1035,-0.1155,-0.346,0.094,-0.1072,-0.235,-0.5248,-0.18,-0.2508,-0.4192,-0.1079,-0.1724,-0.0638,0.2086,0.1194,-0.0174,0.0725,0.3449,0.1873
-0.0816,-0.4284,-0.271,-0.4573,-0.24,-0.1039,-0.5665,-0.184,-0.1128,-0.5179,0.324,0.098,-0.0987,-0.2965,0.1678,-0.0264,-0.1608,-0.437,-0.0898,-0.1881,-0.358,-0.0252,-0.0874,-0.039,0.2116,0.1086,-0.0113,0.067,0.3813,0.1739
-0.0228,-0.3699,-0.2039,-0.3895,-0.1778,-0.055,-0.5433,-0.1707,-0.148,-0.4744,0.3036,0.0883,-0.0919,-0.2552,0.2333,0.0334,-0.0978,-0.3558,-0.0177,-0.1437,-0.3122,0.0348,-0.0237,-0.0306,0.196,0.084,-0.0168,0.0515,0.4253,0.1669
0.0246,-0.3235,-0.1358,-0.3309,-0.122,-0.0093,-0.5195,-0.149,-0.1769,-0.4209,0.2867,0.0759,-0.0974,-0.2274,0.284,0.0665,-0.0547,-0.2955,0.028,-0.1217,-0.2871,0.0649,0.0113,-0.0411,0.1603,0.0466,-0.0342,0.0272,0.4792,0.1689
0.0595,-0.2905,-0.0694,-0.2832,-0.0752,0.032,-0.496,-0.1186,-0.1916,-0.3617,0.2764,0.0625,-0.116,-0.2156,0.3158,0.0725,-0.0359,-0.2662,0.0439,-0.1217,-0.2836,0.0635,0.0146,-0.0701,0.1064,-0.0009,-0.0624,-0.0038,0.5432,0.18
0.0835,-0.2686,-0.0076,-0.2456,-0.0385,0.0686,-0.4735,-0.0803,-0.1869,-0.3025,0.2745,0.0501,-0.1464,-0.2182,0.3281,0.0562,-0.0405,-0.27,0.0327,-0.1382,-0.2979,0.0357,-0.0108,-0.1136,0.0399,-0.0532,-0.0983,-0.0377,0.6143,0.1977
0.1006,-0.2518,0.0469,-0.2153,-0.0108,0.1012,-0.4524,-0.0366,-0.1606,-0.2489,0.2813,0.0408,-0.185,-0.23,0.325,0.0281,-0.0614,-0.3008,0.0037,-0.1609,-0.3211,-0.0074,-0.0557,-0.1643,-0.0299,-0.1033,-0.1366,-0.0695,0.6859,0.2171
0.1165,-0.2324,0.0922,-0.1872,0.0113,0.1312,-0.4329,0.0089,-0.1144,-0.2055,0.2955,0.0367,-0.2252,-0.2421,0.3142,0.002,-0.0864,-0.3452,-0.0293,-0.1767,-0.3411,-0.05,-0.106,-0.2121,-0.0918,-0.1432,-0.1704,-0.0937,0.7488,0.2319
0.1371,-0.2021,0.1281,-0.1549,0.0332,0.1613,-0.4139,0.0523,-0.0531,-0.1746,0.3146,0.0397,-0.2584,-0.2438,0.3059,-0.0072,-0.1008,-0.386,-0.0498,-0.1714,-0.3446,-0.0748,-0.1445,-0.2461,-0.1341,-0.1653,-0.1923,-0.1048,0.7931,0.2352
0.1675,-0.1535,0.1572,-0.1112,0.0618,0.1944,-0.3942,0.0897,0.0163,-0.1554,0.3351,0.0514,-0.2754,-0.2248,0.311,0.014,-0.0903,-0.4061,-0.0423,-0.1324,-0.319,-0.0664,-0.1546,-0.2562,-0.1478,-0.1635,-0.1955,-0.0982,0.8106,0.221
0.2113,-0.082,0.1843,-0.0499,0.104,0.234,-0.3717,0.1184,0.0858,-0.145,0.353,0.0724,-0.2676,-0.1765,0.3387,0.0748,-0.0444,-0.3926,0.005,-0.0511,-0.2553,-0.014,-0.1233,-0.2352,-0.1278,-0.1354,-0.1749,-0.0716,0.7974,0.1848
0.2699,0.0144,0.2154,0.0336,0.1659,0.2829,-0.3446,0.1371,0.148,-0.1386,0.3647,0.102,-0.2294,-0.0944,0.3945,0.179,0.0421,-0.3395,0.098,0.0757,-0.1498,0.0864,-0.0438,-0.18,-0.0746,-0.0818,-0.1289,-0.0254,0.7552,0.125
0.3429,0.1344,0.2565,0.1408,0.2507,0.3427,-0.3118,0.1458,0.1967,-0.1313,0.3673,0.1388,-0.1589,0.0215,0.4789,0.3241,0.1679,-0.2489,0.2353,0.2451,-0.0044,0.2312,0.0825,-0.0927,0.0063,-0.0079,-0.0591,0.0374,0.6914,0.0432
0.428,0.2741,0.3117,0.2698,0.3584,0.4133,-0.2731,0.1459,0.2285,-0.119,0.3599,0.1801,-0.0586,0.1661,0.5877,0.5021,0.3255,-0.13,0.409,0.448,0.1732,0.41,0.2462,0.0203,0.105,0.0785,0.0293,0.1117,0.6173,-0.0553
0.5217,0.4271,0.3819,0.4151,0.4852,0.4926,-0.2295,0.1399,0.2426,-0.0993,0.3439,0.2236,0.0647,0.3301,0.7122,0.7007,0.5029,0.0028,0.6055,0.6708,0.3711,0.6073,0.4315,0.1483,0.2096,0.1677,0.1288,0.1908,0.5459,-0.1623
0.6199,0.5858,0.4644,0.5684,0.6236,0.5764,-0.1831,0.1308,0.2412,-0.0716,0.3232,0.2671,0.2015,0.5015,0.8414,0.9054,0.6852,0.1328,0.8079,0.8971,0.5748,0.8054,0.6189,0.279,0.3081,0.2504,0.2306,0.2683,0.4891,-0.2674
0.7179,0.7414,0.5531,0.7191,0.7631,0.659,-0.1366,0.1213,0.2282,-0.0376,0.3035,0.3093,0.3407,0.6667,0.9638,1.1014,0.8574,0.2446,0.9985,1.11,0.7692,0.9866,0.7883,0.3997,0.3912,0.3192,0.3262,0.3387,0.4553,-0.3597
0.8108,0.8845,0.639,0.8561,0.892,0.7336,-0.0934,0.1132,0.208,-0.0011,0.2911,0.3495,0.4716,0.8127,1.0692,1.2753,1.0062,0.3267,1.1614,1.2944,0.9405,1.1364,0.9231,0.4994,0.4533,0.3699,0.4084,0.3983,0.4482,-0.4302
0.8935,1.0062,0.7123,0.9691,0.9985,0.7934,-0.0571,0.1067,0.1838,0.0329,0.291,0.3879,0.585,0.9286,1.1505,1.4168,1.1225,0.3735,1.2849,1.439,1.0778,1.2455,1.0124,0.5712,0.4935,0.4026,0.473,0.4458,0.4659,-0.4726
0.9612,1.0989,0.7638,1.0501,1.073,0.8321,-0.0309,0.1002,0.157,0.0582,0.3062,0.4244,0.6743,1.0073,1.2041,1.5198,1.2018,0.3853,1.3634,1.5376,1.1743,1.3107,1.0531,0.6127,0.5153,0.4213,0.5188,0.4824,0.5019,-0.4854
1.0098,1.157,0.7867,1.0949,1.1091,0.8455,-0.0176,0.0908,0.1274,0.0689,0.336,0.4592,0.7362,1.0458,1.23,1.5827,1.245,0.3676,1.3972,1.5895,1.2276,1.3348,1.0494,0.6269,0.5251,0.4328,0.5479,0.5108,0.5469,-0.471
1.0365,1.1779,0.7782,1.1031,1.1048,0.8314,-0.0186,0.0751,0.0934,0.0607,0.3769,0.4916,0.7705,1.0459,1.2311,1.6075,1.2569,0.3286,1.3921,1.5991,1.2395,1.3252,1.0113,0.6207,0.5309,0.4451,0.5645,0.5346,0.5907,-0.4353
1.0399,1.1621,0.74,1.0773,1.0621,0.7908,-0.0344,0.0504,0.054,0.0315,0.4228,0.5205,0.7792,1.0127,1.212,1.5996,1.2444,0.2768,1.3569,1.5741,1.2151,1.2918,0.9523,0.6033,0.5399,0.4652,0.5737,0.5573,0.6244,-0.3859
1.0204,1.1133,0.6772,1.0226,0.9863,0.7266,-0.0642,0.0153,0.0092,-0.0178,0.4662,0.5442,0.7658,0.9535,1.1775,1.5649,1.2147,0.2185,1.3013,1.5236,1.1613,1.2436,0.8854,0.5836,0.557,0.4973,0.5801,0.5806,0.6429,-0.3302
0.9795,1.0373,0.5975,0.9445,0.8847,0.6439,-0.1067,-0.0293,-0.039,-0.0836,0.5001,0.5604,0.7338,0.876,1.1315,1.5095,1.1728,0.1577,1.2326,1.4557,1.0851,1.1872,0.8207,0.5677,0.5838,0.5417,0.5861,0.6046,0.6456,-0.2744
0.9197,0.9408,0.5092,0.8478,0.765,0.5486,-0.16,-0.0802,-0.0869,-0.1601,0.519,0.5666,0.6856,0.7862,1.0764,1.4375,1.1212,0.0952,1.1547,1.3765,0.9926,1.125,0.7631,0.5574,0.6182,0.5948,0.5913,0.6268,0.6364,-0.222
0.8438,0.8307,0.4193,0.7359,0.634,0.4467,-0.222,-0.1325,-0.1301,-0.241,0.5202,0.5601,0.6229,0.6879,1.0127,1.3513,1.0594,0.0301,1.0674,1.2887,0.8877,1.0551,0.7119,0.55,0.6552,0.6492,0.5923,0.6426,0.6225,-0.1742
0.7551,0.7131,0.3326,0.611,0.4968,0.343,-0.2908,-0.1805,-0.1645,-0.3203,0.5035,0.5392,0.5461,0.5824,0.9398,1.2519,0.9848,-0.0396,0.9675,1.1922,0.7723,0.9724,0.6614,0.5383,0.6877,0.6956,0.5837,0.6466,0.6126,-0.1296
0.6568,0.5932,0.2519,0.4751,0.3573,0.2415,-0.3646,-0.219,-0.1871,-0.3934,0.4717,0.5029,0.4552,0.4691,0.8569,1.1399,0.895,-0.1161,0.8507,1.0855,0.6469,0.871,0.6029,0.5133,0.7079,0.7242,0.5593,0.6333,0.6138,-0.0856
0.5532,0.4753,0.1779,0.3307,0.2186,0.1449,-0.4414,-0.2441,-0.1969,-0.4578,0.4291,0.4514,0.3512,0.3473,0.7641,1.0173,0.7889,-0.2006,0.7143,0.9676,0.5121,0.7463,0.5274,0.4662,0.7093,0.7266,0.5137,0.5985,0.6302,-0.0388
0.4493,0.3637,0.1108,0.1818,0.0839,0.0554,-0.519,-0.2539,-0.1939,-0.5122,0.3815,0.3871,0.2367,0.2178,0.6635,0.8885,0.6688,-0.2932,0.5594,0.8398,0.3701,0.5978,0.4288,0.3913,0.6874,0.6977,0.4441,0.5409,0.6619,0.0134
0.351,0.2623,0.0512,0.0344,-0.0423,-0.0248,-0.5946,-0.2479,-0.1792,-0.5559,0.3349,0.3139,0.1161,0.0836,0.5596,0.761,0.5408,-0.392,0.3916,0.7072,0.2257,0.4299,0.3058,0.2874,0.6404,0.6361,0.3518,0.4621,0.7051,0.0719
0.2646,0.1751,-0.0003,-0.1045,-0.1547,-0.0932,-0.6646,-0.2272,-0.1536,-0.5884,0.2954,0.2375,-0.0039,-0.049,0.4589,0.6441,0.4137,-0.4937,0.2205,0.5779,0.086,0.2521,0.1625,0.1593,0.57,0.5454,0.2417,0.3674,0.7547,0.1352
0.1955,0.1052,-0.0421,-0.227,-0.2481,-0.1472,-0.7251,-0.1938,-0.1177,-0.6085,0.2674,0.1648,-0.1159,-0.1723,0.3679,0.5474,0.2976,-0.5936,0.0578,0.4618,-0.0407,0.0769,0.008,0.0165,0.481,0.433,0.1223,0.2647,0.8053,0.2001
0.1471,0.054,-0.0729,-0.3268,-0.318,-0.1846,-0.772,-0.1502,-0.0724,-0.6147,0.2539,0.1021,-0.2119,-0.278,0.2924,0.4779,0.2008,-0.6868,-0.086,0.368,-0.1465,-0.0827,-0.1458,-0.1286,0.3807,0.3097,0.0043,0.1633,0.8538,0.2618
0.1199,0.0213,-0.0922,-0.3993,-0.3624,-0.2046,-0.8017,-0.0993,-0.0186,-0.6057,0.2553,0.0546,-0.2852,-0.3594,0.2353,0.4387,0.1278,-0.7692,-0.2038,0.3024,-0.2263,-0.2162,-0.2867,-0.2625,0.2777,0.1873,-0.1018,0.0725,0.8993,0.3155
0.1112,0.0044,-0.1005,-0.4429,-0.3822,-0.2079,-0.8119,-0.0441,0.0416,-0.5811,0.2697,0.0253,-0.3311,-0.4126,0.1961,0.4279,0.0783,-0.8376,-0.2938,0.2664,-0.2782,-0.3174,-0.4051,-0.3743,0.1808,0.0772,-0.1871,-0.0003,0.9434,0.3573
0.1157,0.0001,-0.0996,-0.459,-0.3807,-0.1968,-0.802,0.0121,0.1051,-0.5422,0.2935,0.0147,-0.3473,-0.4372,0.1715,0.4394,0.0479,-0.8908,-0.3588,0.2568,-0.3039,-0.3853,-0.495,-0.4564,0.0975,-0.0123,-0.2459,-0.0508,0.9884,0.3846
0.1273,0.0047,-0.0919,-0.4512,-0.3629,-0.1752,-0.7734,0.0662,0.1683,-0.4918,0.322,0.0205,-0.3346,-0.4357,0.156,0.4654,0.0299,-0.9286,-0.4054,0.2679,-0.3072,-0.4236,-0.5548,-0.5065,0.0329,-0.0764,-0.2768,-0.078,1.0359,0.3964
0.1404,0.0164,-0.08,-0.4244,-0.3336,-0.1468,-0.7296,0.1155,0.2274,-0.4345,0.3505,0.0388,-0.2963,-0.4125,0.144,0.4984,0.018,-0.9518,-0.4403,0.2933,-0.2922,-0.4383,-0.5867,-0.5264,-0.0108,-0.1149,-0.2821,-0.0842,1.0854,0.3931
0.1518,0.0353,-0.0651,-0.3836,-0.2968,-0.115,-0.6756,0.1578,0.2791,-0.3762,0.3751,0.0645,-0.2378,-0.3724,0.1318,0.5339,0.0084,-0.9616,-0.4683,0.3283,-0.2619,-0.4357,-0.5947,-0.5216,-0.0341,-0.1312,-0.2669,-0.0741,1.1346,0.3756
0.1613,0.0641,-0.0473,-0.3323,-0.254,-0.0813,-0.6171,0.1911,0.321,-0.3231,0.3927,0.0925,-0.1658,-0.3193,0.119,0.5716,0.0019,-0.9584,-0.49,0.3718,-0.217,-0.4204,-0.5833,-0.4989,-0.0397,-0.1309,-0.2382,-0.0537,1.1793,0.3451
0.1723,0.1069,-0.0246,-0.2723,-0.205,-0.0453,-0.5606,0.2139,0.3512,-0.2812,0.4016,0.1184,-0.0871,-0.2556,0.1092,0.6149,0.0033,-0.9415,-0.5016,0.4258,-0.1559,-0.3938,-0.5553,-0.4648,-0.0311,-0.1204,-0.2025,-0.0287,1.2156,0.3033
0.1902,0.1679,0.0056,-0.2035,-0.1477,-0.0052,-0.5117,0.2247,0.3679,-0.2556,0.4009,0.1389,-0.0077,-0.1816,0.1095,0.6699,0.0207,-0.9091,-0.4952,0.495,-0.076,-0.3541,-0.5116,-0.4239,-0.0116,-0.1049,-0.1653,-0.0036,1.2408,0.2519
0.2213,0.2498,0.0458,-0.1251,-0.0798,0.0413,-0.4755,0.2222,0.3694,-0.2498,0.3906,0.1521,0.0683,-0.0969,0.1288,0.7433,0.0627,-0.8586,-0.4618,0.5842,0.0254,-0.2976,-0.4511,-0.3787,0.0163,-0.0874,-0.1298,0.0191,1.254,0.1932
0.2706,0.3529,0.0975,-0.0363,0.0002,0.0965,-0.4551,0.2056,0.3544,-0.2651,0.3716,0.1579,0.1383,-0.001,0.1756,0.8398,0.1364,-0.7878,-0.3932,0.6966,0.1488,-0.2202,-0.3717,-0.3295,0.0511,-0.0688,-0.0969,0.0386,1.257,0.1299
0.341,0.4743,0.1604,0.0622,0.0927,0.1613,-0.4517,0.1753,0.3223,-0.3005,0.3456,0.1576,0.2018,0.1061,0.2553,0.9606,0.2445,-0.6956,-0.2851,0.8321,0.292,-0.1193,-0.2719,-0.2756,0.092,-0.0483,-0.0659,0.0559,1.2531,0.0652
0.432,0.609,0.2329,0.1685,0.1962,0.2358,-0.4639,0.1329,0.2739,-0.3524,0.3154,0.1536,0.2593,0.223,0.369,1.1026,0.3849,-0.5835,-0.1384,0.9871,0.4503,0.005,-0.1524,-0.2159,0.1381,-0.0241,-0.0351,0.0729,1.247,0.0018
0.5403,0.7508,0.3122,0.2794,0.3087,0.3191,-0.4879,0.0816,0.2124,-0.4149,0.2846,0.1491,0.3119,0.3471,0.5122,1.2593,0.5506,-0.4556,0.0405,1.1547,0.6168,0.1489,-0.0162,-0.1501,0.1883,0.0057,-0.0024,0.092,1.2431,-0.0588
0.6605,0.8941,0.3952,0.3918,0.4276,0.4097,-0.518,0.0262,0.1433,-0.4809,0.2574,0.1473,0.3604,0.4749,0.676,1.4221,0.7314,-0.3184,0.2411,1.3267,0.7845,0.3065,0.1303,-0.0788,0.2406,0.042,0.0336,0.1153,1.2452,-0.1165
0.7861,1.0348,0.4798,0.5037,0.5507,0.5064,-0.5479,-0.0279,0.0735,-0.5424,0.2379,0.1516,0.4052,0.6025,0.8483,1.5821,0.9158,-0.1799,0.4503,1.4953,0.9471,0.4702,0.2791,-0.0039,0.2922,0.0843,0.0736,0.1441,1.2557,-0.1729
0.9111,1.171,0.5646,0.6151,0.6765,0.6082,-0.5712,-0.0754,0.0107,-0.592,0.2291,0.1641,0.4463,0.7266,1.0163,1.7322,1.0936,-0.0478,0.6558,1.6548,1.1008,0.6327,0.4215,0.0722,0.3399,0.131,0.1176,0.1789,1.2752,-0.2314
1.0309,1.303,0.6497,0.7281,0.8045,0.7144,-0.5824,-0.1118,-0.0386,-0.6244,0.2328,0.1858,0.4838,0.8444,1.1687,1.8678,1.2574,0.0713,0.8474,1.8025,1.244,0.788,0.5498,0.1466,0.3808,0.1791,0.1643,0.2187,1.3033,-0.2955
1.1427,1.4323,0.7358,0.846,0.9348,0.8247,-0.5778,-0.134,-0.07,-0.6369,0.2484,0.2161,0.5181,0.9546,1.298,1.9881,1.4038,0.1735,1.0191,1.9388,1.3769,0.9325,0.6591,0.2166,0.4127,0.2249,0.212,0.2618,1.3384,-0.3686
1.2461,1.5614,0.8237,0.9725,1.0679,0.9385,-0.5552,-0.1409,-0.0827,-0.6296,0.2733,0.2529,0.5508,1.0566,1.4011,2.095,1.5334,0.2584,1.1693,2.0671,1.5011,1.0652,0.7483,0.28,0.4345,0.265,0.2587,0.3059,1.3784,-0.452
1.3427,1.6926,0.9139,1.11,1.2042,1.0554,-0.5139,-0.1332,-0.0793,-0.6055,0.3037,0.2932,0.5841,1.1511,1.4802,2.1928,1.65,0.3287,1.3005,2.1916,1.6184,1.1874,0.8201,0.3354,0.4466,0.2967,0.3025,0.3482,1.4211,-0.5451
1.4354,1.8269,1.0058,1.2584,1.3437,1.1744,-0.4547,-0.113,-0.0646,-0.569,0.3352,0.3337,0.6206,1.2399,1.5412,2.2865,1.759,0.3899,1.418,2.3168,1.7305,1.3018,0.8804,0.3825,0.4508,0.3183,0.342,0.3863,1.4643,-0.6449
1.5268,1.9637,1.0972,1.4146,1.4853,1.2942,-0.3793,-0.0831,-0.0447,-0.525,0.3642,0.3717,0.6628,1.3251,1.5921,2.3798,1.8657,0.4482,1.5281,2.4451,1.8384,1.4118,0.9367,0.422,0.4496,0.3296,0.3765,0.4187,1.5055,-0.7468
1.618,2.0998,1.1841,1.5725,1.6266,1.4129,-0.2905,-0.0468,-0.0249,-0.4776,0.3882,0.4054,0.7124,1.4086,1.6407,2.4739,1.9735,0.5091,1.6364,2.5761,1.9429,1.5203,0.9964,0.4554,0.4458,0.3312,0.4062,0.4445,1.5423,-0.8465
1.7074,2.2299,1.2609,1.7235,1.7633,1.5276,-0.192,-0.0069,-0.0089,-0.4299,0.4062,0.4338,0.7695,1.4917,1.6929,2.567,2.0833,0.5757,1.7464,2.706,2.0443,1.629,1.065,0.4843,0.442,0.3246,0.4314,0.4639,1.5722,-0.9403
1.7901,2.347,1.3202,1.8582,1.8898,1.6345,-0.088,0.034,0.0021,-0.3837,0.418,0.4566,0.833,1.5743,1.7511,2.6538,2.193,0.6486,1.8589,2.828,2.1421,1.7381,1.1454,0.5105,0.4397,0.3112,0.4528,0.4771,1.5925,-1.0269
1.8595,2.4436,1.3549,1.9683,1.9995,1.7293,0.0167,0.0739,0.0089,-0.34,0.4241,0.474,0.9,1.655,1.8149,2.7275,2.2986,0.7255,1.9721,2.9338,2.2353,1.8463,1.2381,0.535,0.4399,0.2923,0.4707,0.4845,1.6003,-1.1065
1.9085,2.5139,1.359,2.0481,2.0868,1.8081,0.1175,0.1112,0.0134,-0.2996,0.425,0.4861,0.9671,1.7313,1.8815,2.7815,2.3956,0.8033,2.0831,3.0159,2.3228,1.9519,1.341,0.5579,0.4426,0.269,0.4851,0.4868,1.5934,-1.1811
1.9324,2.5552,1.3301,2.0962,2.1486,1.8689,0.2111,0.1451,0.0177,-0.2624,0.4213,0.4935,1.0309,1.8012,1.9473,2.8116,2.4807,0.8784,2.1891,3.0698,2.4037,2.0533,1.4514,0.5793,0.4475,0.2425,0.4961,0.4846,1.5709,-1.2533
1.9311,2.5695,1.2703,2.1159,2.1861,1.9124,0.2962,0.1754,0.0236,-0.2282,0.4139,0.4967,1.0894,1.8638,2.0097,2.818,2.5533,0.949,2.2889,3.096,2.4785,2.1501,1.5661,0.5991,0.4538,0.2137,0.5039,0.4786,1.5337,-1.3258
1.9095,2.5636,1.1871,2.1153,2.205,1.9429,0.3742,0.2029,0.0319,-0.1959,0.404,0.4973,1.1429,1.9204,2.068,2.8055,2.6156,1.0147,2.3832,3.1006,2.5488,2.2435,1.6828,0.6177,0.4608,0.1834,0.5096,0.4704,1.4854,-1.4007
1.8769,2.5479,1.0922,2.1054,2.2151,1.9674,0.4486,0.2292,0.0425,-0.1637,0.3935,0.4971,1.1931,1.9742,2.1233,2.7828,2.6725,1.0774,2.4749,3.0939,2.6178,2.3356,1.8001,0.636,0.4679,0.1529,0.5145,0.4615,1.4315,-1.4787
