FP1,F3,F7,FC3,C3,C5,P3,P7,PO7,PO3,O1,Oz,Pz,CPz,FP2,Fz,F4,F8,FC4,FCz,Cz,C4,C6,P4,P8,PO8,PO4,O2,(corr) HEOG,(corr) VEOG
0.817,0.9551,0.4661,0.8263,0.6157,0.329,0.0879,0.2017,0.1252,0.0772,0.2869,0.1357,0.3225,0.5439,0.6984,0.9188,0.7109,0.4649,0.722,0.9651,0.7955,0.6871,0.5288,0.1618,-0.129,-0.1384,-0.0274,-0.0125,0.1971,-0.4881
0.7887,0.9209,0.4489,0.7856,0.5794,0.2994,0.0624,0.1847,0.1154,0.0539,0.2508,0.1193,0.3259,0.5284,0.6596,0.8709,0.668,0.4422,0.6811,0.9205,0.7625,0.6431,0.4823,0.1808,-0.1299,-0.1371,-0.0062,0.0045,0.1662,-0.4703
0.7576,0.89,0.4265,0.7589,0.5559,0.285,0.059,0.187,0.1225,0.0581,0.2371,0.1247,0.3398,0.523,0.6316,0.8351,0.6247,0.4184,0.6497,0.8846,0.7391,0.6088,0.4409,0.2078,-0.1265,-0.1256,0.0254,0.0319,0.1349,-0.4671
0.7266,0.8707,0.4034,0.7567,0.5543,0.2946,0.0842,0.2139,0.1486,0.0922,0.2472,0.1505,0.3682,0.5348,0.6223,0.8201,0.5872,0.3943,0.6371,0.8676,0.7347,0.5944,0.4151,0.2455,-0.1162,-0.1029,0.0674,0.068,0.1043,-0.489
0.6998,0.8713,0.3857,0.7868,0.5817,0.3345,0.1412,0.2673,0.193,0.1551,0.2783,0.1928,0.4144,0.5697,0.6367,0.832,0.5622,0.372,0.651,0.8774,0.757,0.6093,0.4162,0.2974,-0.0957,-0.067,0.1206,0.1112,0.075,-0.5442
0.6834,0.8994,0.3804,0.8543,0.6424,0.4074,0.2283,0.345,0.2511,0.2426,0.3251,0.2465,0.4809,0.6316,0.6766,0.8747,0.5562,0.3557,0.6972,0.9194,0.8105,0.6605,0.4541,0.3676,-0.0607,-0.0157,0.1861,0.1609,0.0467,-0.6362
0.6858,0.9613,0.3946,0.9602,0.7363,0.5108,0.3392,0.4401,0.3148,0.3478,0.3801,0.3062,0.5684,0.7217,0.7402,0.9498,0.5758,0.3525,0.7791,0.9955,0.8964,0.7521,0.5368,0.4598,-0.0067,0.0535,0.2659,0.2179,0.0193,-0.7635
0.7164,1.0615,0.4343,1.1018,0.8592,0.6373,0.4637,0.5417,0.3737,0.4616,0.435,0.3665,0.6761,0.8383,0.8235,1.0569,0.6277,0.3727,0.8972,1.1044,1.0118,0.8846,0.6682,0.5758,0.0695,0.1422,0.3613,0.2827,-0.0069,-0.9192
0.7844,1.2022,0.5037,1.2737,1.0035,0.7759,0.5887,0.6366,0.4161,0.5732,0.4816,0.4226,0.8003,0.9762,0.9217,1.1942,0.7181,0.4292,1.0503,1.2422,1.1508,1.0544,0.8474,0.7142,0.1687,0.2495,0.4715,0.3553,-0.0307,-1.0927
0.8961,1.3834,0.6042,1.4688,1.1603,0.9145,0.7007,0.7113,0.4313,0.6719,0.5134,0.4701,0.9348,1.1279,1.0312,1.3595,0.8529,0.5353,1.2354,1.4032,1.3057,1.2553,1.0688,0.8697,0.2875,0.371,0.5927,0.4335,-0.05,-1.2722
1.0533,1.6032,0.7353,1.6802,1.321,1.042,0.788,0.7552,0.4122,0.7477,0.5261,0.5053,1.0712,1.2846,1.1515,1.5507,1.0362,0.7016,1.4492,1.5814,1.4681,1.4793,1.3224,1.0333,0.4182,0.4982,0.7177,0.5128,-0.0631,-1.4476
1.2527,1.8583,0.894,1.9027,1.4797,1.1517,0.8427,0.7631,0.3571,0.7935,0.5187,0.5259,1.2005,1.4379,1.2856,1.7663,1.2695,0.9327,1.6887,1.7717,1.6312,1.719,1.5962,1.1933,0.5492,0.6199,0.8364,0.5867,-0.0689,-1.6124
1.4854,2.1429,1.0757,2.1329,1.633,1.241,0.8616,0.736,0.2697,0.8056,0.4936,0.531,1.3138,1.5804,1.4388,2.0044,1.5493,1.2237,1.9506,1.9702,1.7899,1.9674,1.8772,1.3375,0.6668,0.7234,0.9377,0.6478,-0.0677,-1.7645
1.7378,2.4481,1.2735,2.3673,1.7791,1.3116,0.8462,0.6804,0.1591,0.7845,0.4553,0.521,1.4031,1.7062,1.6155,2.2609,1.8659,1.559,2.2297,2.1726,1.9403,2.218,2.1521,1.4547,0.7578,0.7974,1.0111,0.6891,-0.0611,-1.9042
1.9921,2.7599,1.4783,2.6003,1.9156,1.3669,0.801,0.6061,0.0372,0.7336,0.4094,0.4974,1.462,1.8095,1.8153,2.5267,2.2012,1.9122,2.5163,2.3724,2.0777,2.4623,2.4073,1.536,0.8119,0.8337,1.0485,0.7052,-0.051,-2.0313
2.2281,3.0582,1.6782,2.8218,2.0371,1.4097,0.7324,0.5236,-0.0836,0.659,0.3609,0.4624,1.4852,1.8844,2.0303,2.7859,2.5297,2.25,2.7942,2.5589,2.1953,2.6881,2.6277,1.5757,0.8246,0.8298,1.0461,0.6934,-0.0376,-2.1428
2.4243,3.3178,1.8585,3.0159,2.1338,1.4403,0.6474,0.4418,-0.1924,0.5681,0.3135,0.4186,1.4694,1.9237,2.2437,3.0162,2.8202,2.5364,3.0409,2.7168,2.2829,2.8789,2.7971,1.5724,0.798,0.7893,1.0051,0.6549,-0.0189,-2.2309
2.5605,3.5109,2.003,3.1625,2.1928,1.4562,0.5528,0.3671,-0.2807,0.4688,0.2695,0.3691,1.414,1.9204,2.4313,3.1904,3.0403,2.7387,3.2294,2.8274,2.3283,3.0148,2.8995,1.5288,0.7415,0.7226,0.9325,0.5946,0.01,-2.2841
2.6201,3.6109,2.0954,3.2395,2.2002,1.4525,0.4552,0.303,-0.343,0.3694,0.2301,0.317,1.3218,1.8692,2.5653,3.2817,3.1606,2.8319,3.3326,2.8717,2.3194,3.0758,2.9207,1.4522,0.67,0.6444,0.8401,0.5209,0.055,-2.2895
2.5931,3.5981,2.1219,3.2283,2.1443,1.4233,0.3608,0.2507,-0.3768,0.278,0.1958,0.266,1.2001,1.7687,2.6196,3.2684,3.1608,2.8029,3.3283,2.8345,2.2474,3.0458,2.8522,1.3533,0.6012,0.5719,0.7428,0.4439,0.1211,-2.2362
2.4777,3.4637,2.0735,3.1177,2.0196,1.3643,0.2752,0.2101,-0.3819,0.2018,0.1671,0.2197,1.06,1.623,2.5755,3.1397,3.0331,2.6528,3.205,2.7089,2.1102,2.9179,2.6934,1.2451,0.552,0.5209,0.6557,0.3735,0.2095,-2.1195
2.2819,3.2135,1.9487,2.9082,1.8284,1.2739,0.2028,0.1804,-0.3607,0.1465,0.1447,0.1809,0.9153,1.4427,2.4269,2.8996,2.7857,2.3969,2.966,2.4991,1.9139,2.6967,2.454,1.1406,0.5347,0.5024,0.5916,0.3178,0.3165,-1.9435
2.0233,2.8682,1.7548,2.6133,1.5825,1.1543,0.1463,0.1602,-0.3177,0.1156,0.1291,0.1515,0.781,1.2439,2.1832,2.5681,2.4425,2.0635,2.6308,2.2217,1.6741,2.4002,2.1537,1.0509,0.5548,0.5209,0.5581,0.2816,0.4333,-1.7219
1.7276,2.462,1.5084,2.2593,1.3015,1.012,0.1074,0.148,-0.2595,0.1103,0.1206,0.1317,0.6711,1.047,1.8692,2.1803,2.0415,1.6902,2.2343,1.905,1.4146,2.0579,1.8206,0.984,0.6097,0.5729,0.5568,0.2657,0.5466,-1.4772
1.4259,2.0385,1.2338,1.8819,1.0116,0.8572,0.0867,0.1425,-0.1938,0.1294,0.1198,0.1206,0.5974,0.8737,1.5224,1.7813,1.6293,1.3186,1.8215,1.5852,1.1643,1.7075,1.4876,0.9439,0.6896,0.6483,0.5835,0.2673,0.6417,-1.2376
1.1509,1.6451,0.9603,1.5221,0.7428,0.7031,0.0856,0.1437,-0.1279,0.1704,0.1276,0.1173,0.5686,0.745,1.1866,1.4204,1.2547,0.9889,1.4413,1.302,0.9542,1.3889,1.1876,0.9311,0.7795,0.7327,0.6303,0.2816,0.7045,-1.0328
0.9335,1.3264,0.7175,1.2203,0.5252,0.5641,0.1063,0.153,-0.0675,0.2302,0.1458,0.1211,0.5898,0.6783,0.9049,1.143,0.9613,0.734,1.139,1.0925,0.8128,1.1386,0.9488,0.9433,0.8625,0.8108,0.6877,0.3029,0.7243,-0.8889
0.7979,1.1184,0.5315,1.0114,0.3857,0.4544,0.152,0.1737,-0.0148,0.3069,0.1769,0.1334,0.6625,0.6858,0.7129,0.9841,0.781,0.5756,0.9495,0.9861,0.7622,0.9844,0.7914,0.977,0.9231,0.8691,0.7472,0.3267,0.6958,-0.8248
0.7597,1.043,0.4205,0.9193,0.3438,0.3854,0.226,0.2102,0.0309,0.3992,0.2238,0.1566,0.7847,0.7723,0.6329,0.9631,0.73,0.5223,0.8925,0.9998,0.8145,0.9424,0.7254,1.0288,0.9502,0.8996,0.8032,0.3506,0.6197,-0.8494
0.8232,1.1048,0.3914,0.9538,0.4086,0.3634,0.3301,0.2664,0.0731,0.5061,0.2887,0.1943,0.9507,0.9351,0.6711,1.0812,0.8069,0.5689,0.9711,1.1364,0.9706,1.015,0.7507,1.0956,0.9383,0.8996,0.8536,0.3745,0.5022,-0.9603
0.9808,1.2904,0.4393,1.1084,0.5766,0.3892,0.463,0.3446,0.116,0.6261,0.3715,0.2493,1.151,1.1635,0.8173,1.322,0.9941,0.699,1.172,1.3837,1.2192,1.1922,0.858,1.1749,0.8884,0.8724,0.8993,0.3999,0.3535,-1.1457
1.2135,1.57,0.5475,1.3614,0.831,0.4567,0.6191,0.4432,0.1628,0.7552,0.469,0.3222,1.3727,1.4397,1.0479,1.6543,1.2617,0.8881,1.4689,1.7167,1.5382,1.4536,1.0315,1.2641,0.8071,0.8249,0.9421,0.4284,0.1858,-1.3861
1.4932,1.9021,0.6909,1.6793,1.1442,0.5546,0.7883,0.5564,0.2134,0.8866,0.5747,0.4102,1.5996,1.7406,1.3304,2.0374,1.5727,1.1077,1.8268,2.1011,1.8979,1.7718,1.2512,1.3596,0.7042,0.7661,0.9839,0.4605,0.011,-1.6582
1.786,2.2405,0.8399,2.0215,1.4813,0.6683,0.9572,0.6745,0.2648,1.0111,0.6789,0.5068,1.8144,2.0405,1.6286,2.427,1.8889,1.3299,2.2076,2.4982,2.2646,2.1163,1.4956,1.4566,0.5915,0.7041,1.0242,0.4946,-0.1613,-1.938
2.057,2.5413,0.9655,2.3476,1.806,0.7829,1.1114,0.7861,0.3115,1.1181,0.7708,0.6026,1.9999,2.3144,1.9085,2.7817,2.1764,1.5311,2.5747,2.8704,2.6055,2.4569,1.7441,1.5489,0.4803,0.6451,1.0607,0.5269,-0.3241,-2.2043
2.2754,2.7702,1.0445,2.6236,2.0862,0.8863,1.2376,0.8806,0.3477,1.1981,0.8405,0.6867,2.1419,2.5407,2.1427,3.0684,2.4099,1.6943,2.8978,3.1856,2.8926,2.767,1.9786,1.6293,0.3801,0.5925,1.0888,0.5517,-0.4733,-2.4402
2.4192,2.9069,1.0628,2.8271,2.2987,0.9716,1.3263,0.9503,0.3693,1.2444,0.8809,0.7483,2.2305,2.7043,2.313,3.2658,2.5748,1.8112,3.1556,3.4214,3.1064,3.0264,2.1849,1.6909,0.2981,0.5469,1.1027,0.5628,-0.607,-2.6348
2.4777,2.9472,1.0178,2.9493,2.432,1.0377,1.3727,0.9922,0.3755,1.2547,0.8885,0.7785,2.2619,2.7978,2.4116,3.3658,2.6675,1.881,3.337,3.5665,3.2374,3.2218,2.3537,1.7277,0.238,0.5068,1.0972,0.5547,-0.7238,-2.7828
2.4528,2.9012,0.9173,2.9944,2.4865,1.0885,1.3777,1.008,0.3684,1.231,0.8639,0.7717,2.2377,2.8212,2.4398,3.3724,2.6939,1.9096,3.4405,3.621,3.2857,3.3479,2.4808,1.7357,0.2012,0.4696,1.0687,0.5236,-0.8229,-2.8836
2.3568,2.7888,0.7773,2.9765,2.4717,1.1312,1.3462,1.0025,0.3522,1.1789,0.8106,0.7263,2.1646,2.7813,2.4063,3.2988,2.6659,1.9063,3.4724,3.594,3.2597,3.406,2.5665,1.7136,0.1868,0.433,1.0162,0.4687,-0.903,-2.9397
2.2089,2.6341,0.6173,2.9138,2.4031,1.1727,1.2864,0.9817,0.3312,1.1062,0.7338,0.6446,2.0525,2.6888,2.3237,3.1632,2.5976,1.8812,3.4438,3.5003,3.1725,3.4025,2.6147,1.6627,0.1927,0.3959,0.9416,0.3925,-0.9623,-2.955
2.0311,2.4595,0.4562,2.824,2.2974,1.2174,1.2076,0.9511,0.3085,1.021,0.6392,0.5324,1.9131,2.5568,2.2057,2.9848,2.5019,1.8424,3.3674,3.3568,3.0396,3.3467,2.6309,1.5866,0.2161,0.3584,0.8496,0.2999,-0.999,-2.9341
1.8433,2.2812,0.3078,2.7201,2.169,1.2654,1.1196,0.9142,0.2852,0.9308,0.5326,0.3985,1.7579,2.3981,2.0647,2.7804,2.3883,1.7948,3.2553,3.1797,2.8753,3.2489,2.6208,1.491,0.2539,0.3219,0.7467,0.1981,-1.0113,-2.8809
1.6607,2.108,0.1795,2.6089,2.0289,1.3126,1.0311,0.8729,0.261,0.8414,0.4195,0.2538,1.5971,2.2248,1.911,2.5634,2.2627,1.7397,3.1179,2.9825,2.6922,3.1187,2.5889,1.3826,0.3029,0.2891,0.6403,0.0952,-0.9981,-2.7991
1.4917,1.9416,0.0713,2.4914,1.8828,1.351,0.9492,0.8276,0.2349,0.7566,0.3058,0.1105,1.4395,2.0469,1.7522,2.3433,2.128,1.6759,2.9632,2.7752,2.5,2.9646,2.5378,1.2686,0.36,0.2629,0.5376,-0.0007,-0.9601,-2.6925
1.338,1.7788,-0.0223,2.3644,1.7328,1.3709,0.8786,0.7785,0.2069,0.6785,0.1968,-0.0195,1.2919,1.8721,1.5938,2.1263,1.9858,1.6013,2.7973,2.565,2.3054,2.7934,2.4684,1.1558,0.4218,0.2461,0.4448,-0.0823,-0.9003,-2.5658
1.1957,1.6138,-0.11,2.2228,1.5776,1.3622,0.8213,0.7254,0.1776,0.6071,0.0977,-0.1258,1.1586,1.7056,1.439,1.9154,1.8374,1.5144,2.6247,2.3561,2.1129,2.6106,2.3806,1.0498,0.4848,0.2407,0.366,-0.1444,-0.8245,-2.4241
1.0576,1.4404,-0.2019,2.0608,1.4139,1.3166,0.7756,0.6682,0.1485,0.5411,0.0126,-0.2015,1.0415,1.55,1.2893,1.7115,1.6841,1.4146,2.4483,2.1502,1.9246,2.42,2.2737,0.9543,0.5451,0.247,0.3033,-0.1843,-0.7409,-2.2722
0.9155,1.2533,-0.3066,1.8737,1.2379,1.2286,0.7369,0.6064,0.1214,0.4779,-0.0564,-0.2441,0.9402,1.405,1.1438,1.5129,1.5271,1.3025,2.2693,1.9471,1.7402,2.2238,2.1468,0.8708,0.5986,0.2638,0.2561,-0.2021,-0.6592,-2.114
0.7629,1.0483,-0.4302,1.6576,1.0464,1.0962,0.698,0.5391,0.0973,0.4138,-0.1089,-0.2556,0.8519,1.2679,0.9998,1.3162,1.3663,1.1792,2.0871,1.7442,1.5575,2.023,1.9992,0.7984,0.6418,0.288,0.2222,-0.2008,-0.5877,-1.951
0.5964,0.8234,-0.5751,1.4109,0.8378,0.9216,0.6509,0.4654,0.0764,0.3454,-0.146,-0.2419,0.7722,1.1341,0.8537,1.1168,1.2007,1.0457,1.8992,1.5376,1.3728,1.8171,1.8304,0.7345,0.6712,0.3153,0.1981,-0.1853,-0.5324,-1.7827
0.4161,0.5785,-0.7391,1.134,0.6128,0.7111,0.5885,0.3843,0.0582,0.2702,-0.1702,-0.211,0.6963,0.9984,0.7017,0.9103,1.0281,0.9026,1.7024,1.323,1.182,1.6047,1.6405,0.6751,0.6847,0.3406,0.18,-0.1615,-0.4946,-1.6064
0.2252,0.3159,-0.9159,0.8308,0.3751,0.4746,0.507,0.2961,0.0416,0.1876,-0.1837,-0.1716,0.6194,0.8563,0.5412,0.6931,0.8465,0.7502,1.4934,1.0968,0.9817,1.3845,1.4303,0.6162,0.6812,0.3592,0.1644,-0.1352,-0.4709,-1.4192
0.029,0.0404,-1.0962,0.5083,0.1307,0.2247,0.4069,0.2027,0.0263,0.0991,-0.1885,-0.1314,0.5382,0.7053,0.3718,0.4641,0.6544,0.5891,1.27,0.8569,0.7702,1.156,1.2019,0.5536,0.6608,0.3672,0.1482,-0.1113,-0.454,-1.2187
-0.1665,-0.2414,-1.2693,0.1765,-0.1124,-0.0249,0.2927,0.1073,0.0123,0.0083,-0.1863,-0.0962,0.4507,0.545,0.1953,0.2244,0.452,0.4206,1.0322,0.6037,0.5485,0.9198,0.959,0.4844,0.6248,0.362,0.1291,-0.0934,-0.4349,-1.0044
-0.3553,-0.5213,-1.4253,-0.1525,-0.3458,-0.2615,0.1721,0.0142,0.0007,-0.0802,-0.1783,-0.0698,0.3566,0.3774,0.0154,-0.0224,0.241,0.2469,0.7821,0.34,0.3198,0.6788,0.7069,0.4065,0.5751,0.3426,0.1049,-0.0839,-0.4055,-0.7783
-0.5327,-0.7908,-1.5566,-0.4664,-0.5615,-0.475,0.0541,-0.0717,-0.007,-0.1621,-0.1662,-0.0538,0.2568,0.2063,-0.1629,-0.2709,0.0248,0.0714,0.524,0.0709,0.0894,0.4376,0.4522,0.3196,0.5144,0.3094,0.0741,-0.0835,-0.3602,-0.5446
-0.6953,-1.0419,-1.6593,-0.7541,-0.7534,-0.6588,-0.0526,-0.1464,-0.0089,-0.2336,-0.152,-0.0479,0.1533,0.0367,-0.3341,-0.5152,-0.1919,-0.1017,0.2641,-0.1969,-0.1366,0.2021,0.2027,0.225,0.4455,0.2638,0.0359,-0.0915,-0.2971,-0.309
-0.8407,-1.2684,-1.7329,-1.0078,-0.9178,-0.8107,-0.1415,-0.2066,-0.003,-0.2928,-0.138,-0.0502,0.0491,-0.1265,-0.4936,-0.7488,-0.4042,-0.2682,0.009,-0.4564,-0.3521,-0.0213,-0.0342,0.1253,0.3718,0.2089,-0.0094,-0.1065,-0.2177,-0.0776
-0.9674,-1.4661,-1.7802,-1.2234,-1.0537,-0.9318,-0.2084,-0.2505,0.0122,-0.3388,-0.1261,-0.0577,-0.0524,-0.2784,-0.6381,-0.9668,-0.6069,-0.4246,-0.2346,-0.7008,-0.5519,-0.2266,-0.2522,0.0247,0.2968,0.1482,-0.0603,-0.1258,-0.126,0.1442
-1.0741,-1.6334,-1.8061,-1.4012,-1.1631,-1.0261,-0.252,-0.2776,0.0376,-0.3723,-0.1177,-0.0671,-0.1474,-0.4153,-0.7662,-1.1654,-0.7954,-0.5685,-0.4609,-0.925,-0.7325,-0.4098,-0.4465,-0.0726,0.2239,0.0858,-0.114,-0.1473,-0.0269,0.3524
-1.1607,-1.7713,-1.8164,-1.5446,-1.2493,-1.0989,-0.2739,-0.2892,0.073,-0.3945,-0.1136,-0.0754,-0.233,-0.5349,-0.8784,-1.3428,-0.9661,-0.6982,-0.6656,-1.1253,-0.8927,-0.569,-0.6151,-0.1625,0.1566,0.0253,-0.1675,-0.1691,0.075,0.5449
-1.2279,-1.882,-1.8171,-1.659,-1.3173,-1.1554,-0.2781,-0.2879,0.1166,-0.4073,-0.1135,-0.0808,-0.3069,-0.6368,-0.9761,-1.4988,-1.1161,-0.8129,-0.846,-1.3005,-1.0326,-0.7045,-0.7574,-0.2423,0.0976,-0.0304,-0.2177,-0.1902,0.1757,0.7206
-1.2786,-1.9694,-1.8136,-1.7511,-1.3718,-1.1998,-0.2704,-0.2775,0.1649,-0.4129,-0.1169,-0.0824,-0.3688,-0.7219,-1.061,-1.6341,-1.2435,-0.9116,-1.0005,-1.4507,-1.154,-0.8183,-0.8744,-0.3104,0.0492,-0.0792,-0.2624,-0.2105,0.2716,0.8785
-1.3174,-2.0369,-1.8098,-1.8265,-1.4168,-1.235,-0.2572,-0.2628,0.2132,-0.4139,-0.1226,-0.0805,-0.4194,-0.7921,-1.1336,-1.7498,-1.3472,-0.9927,-1.1282,-1.5773,-1.2588,-0.9127,-0.9671,-0.3665,0.0128,-0.1202,-0.3,-0.2296,0.3596,1.0165
-1.3501,-2.0869,-1.8074,-1.8892,-1.4545,-1.2624,-0.2445,-0.2483,0.2563,-0.4122,-0.1294,-0.0755,-0.4602,-0.8494,-1.1932,-1.8465,-1.4262,-1.0537,-1.2282,-1.6816,-1.3481,-0.9894,-1.036,-0.4109,-0.0109,-0.1528,-0.3297,-0.2464,0.436,1.1316
-1.3811,-2.1202,-1.8059,-1.9403,-1.4854,-1.2817,-0.2365,-0.2376,0.2894,-0.4092,-0.1357,-0.0674,-0.4928,-0.8952,-1.2378,-1.9234,-1.4799,-1.0919,-1.2997,-1.764,-1.4213,-1.0487,-1.0804,-0.4438,-0.022,-0.1763,-0.3507,-0.2585,0.4978,1.2198
-1.4121,-2.1356,-1.8024,-1.978,-1.5074,-1.2912,-0.2348,-0.2322,0.3098,-0.4052,-0.1399,-0.0553,-0.5179,-0.9296,-1.2647,-1.9784,-1.5083,-1.1052,-1.342,-1.8233,-1.4764,-1.0891,-1.0985,-0.4648,-0.0208,-0.19,-0.3618,-0.2619,0.5422,1.2774
-1.4408,-2.1306,-1.7924,-1.9983,-1.517,-1.2876,-0.2388,-0.2318,0.3166,-0.3997,-0.1403,-0.0377,-0.5355,-0.9515,-1.2721,-2.0091,-1.5122,-1.093,-1.3548,-1.858,-1.5103,-1.1086,-1.0887,-0.4725,-0.0083,-0.1927,-0.3615,-0.2521,0.5684,1.3027
-1.4613,-2.1032,-1.7712,-1.9965,-1.5099,-1.2676,-0.2462,-0.2339,0.3116,-0.3919,-0.1361,-0.013,-0.545,-0.9594,-1.2603,-2.0137,-1.4938,-1.0574,-1.3398,-1.8666,-1.5201,-1.1055,-1.0507,-0.4656,0.0144,-0.183,-0.3486,-0.2253,0.5774,1.297
-1.4664,-2.0531,-1.7355,-1.9691,-1.4828,-1.2282,-0.2546,-0.2356,0.2978,-0.3815,-0.1276,0.0188,-0.5458,-0.9523,-1.2321,-1.9926,-1.4572,-1.003,-1.3005,-1.8495,-1.5052,-1.0798,-0.9862,-0.4434,0.0456,-0.1606,-0.3228,-0.1803,0.572,1.2647
-1.4502,-1.9828,-1.6852,-1.9152,-1.4344,-1.1685,-0.2621,-0.2343,0.279,-0.3696,-0.1165,0.0556,-0.538,-0.9308,-1.1929,-1.949,-1.4081,-0.9363,-1.2423,-1.8099,-1.4674,-1.034,-0.8997,-0.4069,0.0832,-0.1266,-0.2855,-0.1194,0.5559,1.2126
-1.4104,-1.8983,-1.623,-1.8376,-1.3663,-1.0901,-0.2687,-0.2289,0.2581,-0.3586,-0.1064,0.0922,-0.5229,-0.8972,-1.1492,-1.8891,-1.3528,-0.8645,-1.1722,-1.7533,-1.4119,-0.9728,-0.7982,-0.3586,0.1247,-0.084,-0.2403,-0.0489,0.5319,1.1483
-1.3501,-1.8071,-1.5548,-1.742,-1.283,-0.9973,-0.2752,-0.22,0.2366,-0.3521,-0.1017,0.1215,-0.5026,-0.8553,-1.1073,-1.8202,-1.2973,-0.7939,-1.097,-1.6866,-1.3456,-0.9026,-0.6897,-0.3025,0.1676,-0.0371,-0.192,0.022,0.5016,1.0781
-1.2769,-1.7172,-1.4876,-1.6359,-1.1906,-0.8957,-0.283,-0.2095,0.2143,-0.3536,-0.107,0.136,-0.4792,-0.8093,-1.0717,-1.7495,-1.2461,-0.7287,-1.0223,-1.6164,-1.2759,-0.8297,-0.582,-0.2436,0.2101,0.0092,-0.1462,0.0831,0.464,1.0056
-1.2013,-1.635,-1.4279,-1.5268,-1.0957,-0.7915,-0.2923,-0.1996,0.1906,-0.3649,-0.1254,0.1295,-0.455,-0.7628,-1.0436,-1.6823,-1.2014,-0.6702,-0.9516,-1.5477,-1.2089,-0.7595,-0.4814,-0.1864,0.2506,0.0501,-0.1075,0.1254,0.4169,0.9313
-1.1345,-1.5636,-1.38,-1.4203,-1.0038,-0.6899,-0.3018,-0.192,0.1643,-0.3856,-0.1574,0.099,-0.4309,-0.7181,-1.0217,-1.6211,-1.163,-0.6174,-0.8864,-1.4829,-1.1483,-0.6953,-0.3917,-0.1346,0.2886,0.082,-0.0792,0.143,0.3581,0.8534
-1.0849,-1.5031,-1.345,-1.3192,-0.9184,-0.5939,-0.3079,-0.1869,0.1356,-0.4122,-0.2008,0.0462,-0.4069,-0.6759,-1.0022,-1.566,-1.1291,-0.5677,-0.8262,-1.4219,-1.095,-0.6384,-0.3144,-0.0906,0.3236,0.1029,-0.0625,0.1343,0.2862,0.7692
-1.0562,-1.4505,-1.3211,-1.2237,-0.8405,-0.5049,-0.3059,-0.1828,0.1055,-0.4388,-0.2505,-0.0231,-0.3819,-0.6352,-0.9811,-1.5148,-1.0967,-0.5184,-0.7699,-1.3626,-1.0475,-0.588,-0.2484,-0.0552,0.3553,0.1123,-0.0564,0.1025,0.2024,0.6775
-1.0465,-1.4005,-1.3039,-1.1312,-0.7692,-0.4222,-0.2904,-0.1771,0.0764,-0.4585,-0.3002,-0.0995,-0.3544,-0.5941,-0.955,-1.4645,-1.0629,-0.4673,-0.7156,-1.3023,-1.0024,-0.542,-0.1914,-0.0278,0.3833,0.1114,-0.0583,0.0545,0.1096,0.5796
-1.0483,-1.3472,-1.2875,-1.0385,-0.702,-0.3445,-0.2574,-0.1668,0.051,-0.465,-0.343,-0.1725,-0.3227,-0.5505,-0.9221,-1.4119,-1.025,-0.4137,-0.6618,-1.2383,-0.956,-0.4976,-0.1403,-0.0072,0.407,0.1029,-0.0643,0.0001,0.0127,0.4795
-1.0505,-1.2852,-1.2654,-0.9418,-0.6366,-0.2698,-0.2058,-0.1494,0.0322,-0.4543,-0.3736,-0.2321,-0.2859,-0.5031,-0.8825,-1.3541,-0.9809,-0.3576,-0.6072,-1.1684,-0.9047,-0.4519,-0.092,0.0088,0.4253,0.0903,-0.0704,-0.0511,-0.0826,0.3828
-1.0415,-1.21,-1.2315,-0.8388,-0.5713,-0.1965,-0.1375,-0.1234,0.0225,-0.4251,-0.3892,-0.2718,-0.2441,-0.451,-0.8371,-1.2889,-0.9288,-0.2993,-0.5505,-1.0915,-0.8459,-0.4024,-0.0444,0.0221,0.437,0.0767,-0.073,-0.0914,-0.1709,0.2954
-1.0118,-1.1195,-1.1808,-0.7286,-0.5055,-0.1238,-0.058,-0.0882,0.0237,-0.3792,-0.3893,-0.2888,-0.1987,-0.3949,-0.7875,-1.2147,-0.8674,-0.2391,-0.4907,-1.0071,-0.7784,-0.3474,0.0037,0.0345,0.4405,0.0645,-0.0701,-0.1164,-0.2479,0.2214
-0.9564,-1.0135,-1.1108,-0.6124,-0.4399,-0.0516,0.0253,-0.0448,0.0368,-0.3207,-0.3761,-0.2846,-0.1517,-0.3359,-0.7349,-1.1311,-0.7957,-0.1773,-0.4267,-0.9155,-0.7024,-0.2864,0.0517,0.0472,0.4345,0.0549,-0.0611,-0.126,-0.3107,0.1621
-0.876,-0.8945,-1.0216,-0.4934,-0.3763,0.0189,0.1044,0.0052,0.0618,-0.2551,-0.3531,-0.2641,-0.106,-0.2759,-0.6796,-1.0383,-0.7139,-0.1147,-0.358,-0.8179,-0.6195,-0.22,0.098,0.0609,0.4179,0.0475,-0.0472,-0.1233,-0.3582,0.1158
-0.7768,-0.7672,-0.9165,-0.3762,-0.3171,0.0856,0.1717,0.0593,0.0976,-0.1879,-0.3251,-0.2336,-0.0643,-0.2169,-0.621,-0.9378,-0.6232,-0.0531,-0.2847,-0.7161,-0.5327,-0.1503,0.1397,0.0754,0.3906,0.0409,-0.0309,-0.1135,-0.3909,0.0788
-0.6689,-0.638,-0.8018,-0.2661,-0.2643,0.1458,0.2219,0.1144,0.1414,-0.1245,-0.2966,-0.2003,-0.0293,-0.161,-0.558,-0.8319,-0.5262,0.0046,-0.2082,-0.6125,-0.4458,-0.0804,0.1731,0.09,0.3534,0.0331,-0.0153,-0.1021,-0.4107,0.046
-0.5638,-0.514,-0.6852,-0.1682,-0.2199,0.1962,0.2519,0.1668,0.1896,-0.0693,-0.272,-0.1698,-0.0026,-0.11,-0.4893,-0.7237,-0.4272,0.0545,-0.1305,-0.51,-0.3629,-0.0142,0.195,0.1035,0.3083,0.0225,-0.0034,-0.093,-0.4205,0.0129
-0.472,-0.4015,-0.575,-0.0862,-0.1845,0.2343,0.2614,0.2131,0.2373,-0.0256,-0.2542,-0.1461,0.0152,-0.065,-0.4146,-0.6161,-0.3307,0.0932,-0.0547,-0.4114,-0.2878,0.0441,0.2024,0.1148,0.2586,0.0081,0.0024,-0.0884,-0.4236,-0.024
-0.4004,-0.3048,-0.478,-0.022,-0.1577,0.2591,0.2526,0.2505,0.2803,0.0043,-0.2445,-0.1306,0.0252,-0.0262,-0.3341,-0.5121,-0.2419,0.1184,0.016,-0.319,-0.2228,0.0907,0.1941,0.1233,0.2081,-0.0095,0.0016,-0.0883,-0.4231,-0.0659
-0.3512,-0.2256,-0.3983,0.0254,-0.1374,0.2713,0.2297,0.2774,0.3148,0.0194,-0.242,-0.1224,0.0297,0.0071,-0.2498,-0.4137,-0.1647,0.1296,0.0784,-0.2341,-0.1687,0.1229,0.1702,0.1286,0.1607,-0.0283,-0.0051,-0.0908,-0.4214,-0.1123
-0.3224,-0.1628,-0.3365,0.0583,-0.121,0.2736,0.1983,0.2936,0.3389,0.0201,-0.2442,-0.1193,0.0316,0.036,-0.1645,-0.3226,-0.1024,0.1287,0.1298,-0.1573,-0.1247,0.1393,0.1322,0.1313,0.12,-0.0457,-0.0155,-0.0936,-0.4196,-0.1607
-0.3086,-0.1132,-0.2906,0.0804,-0.1055,0.2697,0.164,0.3002,0.3521,0.008,-0.2478,-0.1187,0.0337,0.0614,-0.0826,-0.2403,-0.0566,0.1186,0.1681,-0.0894,-0.0897,0.1393,0.0825,0.1313,0.0885,-0.0591,-0.0275,-0.0948,-0.4177,-0.2066
-0.3026,-0.0737,-0.2564,0.095,-0.0888,0.2636,0.1322,0.2989,0.3553,-0.0141,-0.2495,-0.1189,0.0376,0.0833,-0.009,-0.1685,-0.0279,0.1034,0.1912,-0.0313,-0.0628,0.1232,0.024,0.1284,0.0667,-0.0672,-0.0395,-0.0943,-0.4144,-0.2446
-0.2978,-0.0417,-0.23,0.1044,-0.0703,0.2585,0.1064,0.2918,0.3507,-0.0426,-0.247,-0.1195,0.043,0.1005,0.0508,-0.1097,-0.0164,0.0863,0.1971,0.0146,-0.0443,0.0913,-0.0413,0.1208,0.0529,-0.0706,-0.0514,-0.0937,-0.4076,-0.2685
-0.2894,-0.0166,-0.2082,0.1091,-0.0516,0.256,0.0884,0.2809,0.341,-0.0727,-0.2393,-0.1214,0.0481,0.1106,0.092,-0.0672,-0.0216,0.0694,0.184,0.0453,-0.0357,0.0441,-0.1121,0.1058,0.0437,-0.0722,-0.065,-0.0963,-0.3949,-0.2728
-0.2761,0.0002,-0.19,0.1084,-0.0355,0.2566,0.0781,0.2681,0.3292,-0.0994,-0.227,-0.126,0.05,0.1103,0.111,-0.0443,-0.0435,0.0528,0.1503,0.0569,-0.0399,-0.0185,-0.1879,0.0802,0.0348,-0.0764,-0.0829,-0.106,-0.3744,-0.2531
-0.2604,0.0061,-0.176,0.1001,-0.026,0.2587,0.0734,0.2547,0.3182,-0.1173,-0.211,-0.1343,0.0451,0.0964,0.1055,-0.0446,-0.082,0.0345,0.0949,0.0457,-0.0598,-0.0959,-0.2689,0.0415,0.0219,-0.0873,-0.1078,-0.1255,-0.3458,-0.2074
-0.2477,-0.0024,-0.1676,0.0814,-0.0275,0.2601,0.0707,0.2413,0.3099,-0.1219,-0.1932,-0.146,0.0309,0.0665,0.0757,-0.0709,-0.1376,0.011,0.0178,0.0092,-0.0983,-0.1871,-0.355,-0.0113,0.0021,-0.1076,-0.141,-0.1555,-0.3102,-0.1361
-0.2453,-0.0278,-0.1664,0.0498,-0.0438,0.2575,0.066,0.2279,0.3054,-0.1102,-0.1748,-0.1592,0.0058,0.0195,0.0234,-0.1247,-0.2103,-0.0218,-0.0796,-0.0537,-0.1568,-0.29,-0.445,-0.0768,-0.025,-0.1375,-0.1816,-0.1933,-0.2708,-0.042
-0.2594,-0.0711,-0.1727,0.0037,-0.0774,0.2477,0.0551,0.2139,0.3042,-0.0816,-0.1568,-0.1706,-0.0299,-0.0439,-0.0479,-0.2053,-0.2988,-0.0675,-0.1938,-0.1413,-0.2347,-0.4009,-0.5363,-0.151,-0.0576,-0.1738,-0.2263,-0.2335,-0.2324,0.0703
-0.2931,-0.1305,-0.185,-0.0567,-0.1292,0.2282,0.0349,0.1983,0.3052,-0.0379,-0.1396,-0.1761,-0.0744,-0.1214,-0.1329,-0.3092,-0.4001,-0.1273,-0.3195,-0.2491,-0.3289,-0.5144,-0.6249,-0.2279,-0.0916,-0.211,-0.2698,-0.2684,-0.1998,0.1951
-0.345,-0.2014,-0.2001,-0.1289,-0.1981,0.1976,0.0046,0.18,0.3064,0.0168,-0.1231,-0.1719,-0.1243,-0.2085,-0.2256,-0.43,-0.5091,-0.1998,-0.4491,-0.3701,-0.434,-0.6238,-0.7056,-0.3005,-0.1216,-0.2421,-0.3061,-0.2898,-0.177,0.3263
-0.4086,-0.277,-0.2136,-0.2084,-0.2809,0.1563,-0.0347,0.1584,0.3059,0.0767,-0.1068,-0.1554,-0.1756,-0.2998,-0.3193,-0.5584,-0.619,-0.2808,-0.5742,-0.4954,-0.5429,-0.722,-0.7733,-0.3621,-0.1422,-0.2607,-0.3297,-0.2914,-0.1659,0.4581
-0.4746,-0.3498,-0.222,-0.2896,-0.373,0.1058,-0.0797,0.1336,0.3023,0.1354,-0.091,-0.1263,-0.2245,-0.3895,-0.4077,-0.6845,-0.7223,-0.364,-0.6863,-0.6155,-0.6481,-0.8026,-0.8239,-0.408,-0.1494,-0.2621,-0.3374,-0.2704,-0.1656,0.5853
-0.533,-0.4131,-0.2233,-0.3669,-0.4689,0.0485,-0.126,0.1059,0.2947,0.1869,-0.0763,-0.0869,-0.2681,-0.4724,-0.4855,-0.7988,-0.8123,-0.4424,-0.7785,-0.7227,-0.7432,-0.861,-0.8552,-0.4362,-0.1416,-0.2451,-0.3284,-0.2284,-0.1732,0.7035
-0.5761,-0.4633,-0.2185,-0.4363,-0.5637,-0.0131,-0.1693,0.0756,0.2824,0.2258,-0.0646,-0.0421,-0.3051,-0.5452,-0.5496,-0.8945,-0.8844,-0.5098,-0.8468,-0.8119,-0.8242,-0.8957,-0.8673,-0.4481,-0.1197,-0.2114,-0.3054,-0.1716,-0.1843,0.8093
-0.6005,-0.4995,-0.2108,-0.4958,-0.653,-0.0767,-0.2066,0.0429,0.265,0.248,-0.0585,0.0015,-0.3362,-0.6065,-0.5986,-0.9684,-0.9368,-0.5614,-0.8905,-0.8815,-0.8899,-0.9081,-0.8626,-0.4475,-0.0873,-0.1657,-0.2735,-0.1091,-0.1946,0.9001
-0.6068,-0.5239,-0.2047,-0.5451,-0.7337,-0.1405,-0.237,0.0079,0.2423,0.2508,-0.061,0.0367,-0.363,-0.6564,-0.6334,-1.0206,-0.9709,-0.5957,-0.9125,-0.9328,-0.9415,-0.9026,-0.8454,-0.4399,-0.0494,-0.1146,-0.2394,-0.0513,-0.2004,0.9744
-0.5981,-0.54,-0.2044,-0.5845,-0.8032,-0.2024,-0.2614,-0.0296,0.2142,0.2331,-0.075,0.0573,-0.388,-0.6965,-0.656,-1.0534,-0.9902,-0.6137,-0.9178,-0.9685,-0.9812,-0.8848,-0.8208,-0.4311,-0.0119,-0.0648,-0.2102,-0.0073,-0.1993,1.0317
-0.5784,-0.5511,-0.2114,-0.6141,-0.8593,-0.2598,-0.2828,-0.0691,0.1816,0.1956,-0.1018,0.0594,-0.413,-0.7282,-0.6686,-1.0701,-0.9994,-0.619,-0.9123,-0.9918,-1.0112,-0.8608,-0.7936,-0.4254,0.0201,-0.0226,-0.1916,0.0169,-0.1904,1.072
-0.551,-0.5585,-0.2246,-0.633,-0.8994,-0.3099,-0.305,-0.1095,0.146,0.1402,-0.1416,0.042,-0.4388,-0.7524,-0.6731,-1.0732,-1.0034,-0.6162,-0.9017,-1.0043,-1.0324,-0.8355,-0.7675,-0.4253,0.0432,0.0079,-0.187,0.0194,-0.1742,1.0962
-0.5182,-0.5611,-0.2396,-0.6396,-0.9214,-0.3497,-0.3318,-0.1492,0.1094,0.0705,-0.1925,0.0072,-0.4653,-0.7693,-0.6698,-1.0636,-1.0055,-0.6095,-0.8895,-1.0066,-1.0443,-0.812,-0.7444,-0.4313,0.0558,0.0247,-0.1972,0.002,-0.1524,1.1048
-0.4815,-0.5558,-0.2505,-0.6318,-0.924,-0.3765,-0.3658,-0.1866,0.0738,-0.0088,-0.2514,-0.0403,-0.4914,-0.7782,-0.6582,-1.0412,-1.0068,-0.6017,-0.8773,-0.9977,-1.0454,-0.7912,-0.7243,-0.4421,0.0586,0.0279,-0.2203,-0.0301,-0.1276,1.0981
-0.4418,-0.539,-0.2511,-0.6084,-0.9075,-0.3887,-0.4075,-0.2198,0.041,-0.092,-0.3143,-0.095,-0.5153,-0.7784,-0.6375,-1.0054,-1.0062,-0.5935,-0.8642,-0.9764,-1.0338,-0.7727,-0.7058,-0.4558,0.0538,0.0196,-0.2528,-0.0705,-0.1026,1.0766
-0.3995,-0.5077,-0.2367,-0.5697,-0.874,-0.386,-0.4549,-0.2474,0.0121,-0.1727,-0.3764,-0.1511,-0.5353,-0.7693,-0.607,-0.9557,-1.0013,-0.5838,-0.8483,-0.9419,-1.0082,-0.7549,-0.6869,-0.4702,0.0438,0.0022,-0.2901,-0.113,-0.0804,1.0415
-0.3551,-0.4611,-0.2055,-0.5179,-0.8275,-0.3694,-0.5036,-0.2681,-0.0119,-0.2436,-0.4324,-0.2032,-0.5494,-0.7508,-0.5674,-0.8927,-0.9886,-0.5705,-0.827,-0.8949,-0.9689,-0.736,-0.6659,-0.4836,0.0309,-0.0215,-0.3278,-0.1528,-0.0632,0.9946
-0.3085,-0.4004,-0.1587,-0.4564,-0.7731,-0.3408,-0.5478,-0.2809,-0.0304,-0.2979,-0.4774,-0.2471,-0.5561,-0.7232,-0.5204,-0.8182,-0.965,-0.5509,-0.798,-0.8367,-0.9171,-0.7146,-0.6421,-0.4947,0.0163,-0.0488,-0.3622,-0.1868,-0.0528,0.9387
-0.2597,-0.3284,-0.1006,-0.3889,-0.7156,-0.3028,-0.5811,-0.2849,-0.043,-0.3301,-0.5072,-0.2793,-0.5536,-0.6871,-0.4681,-0.7346,-0.9277,-0.5223,-0.7595,-0.7696,-0.8549,-0.6894,-0.6153,-0.5025,0.0005,-0.0778,-0.3903,-0.2137,-0.0499,0.8766
-0.2087,-0.2482,-0.0368,-0.3185,-0.6583,-0.2578,-0.5978,-0.2792,-0.0492,-0.3366,-0.5188,-0.2978,-0.5404,-0.6431,-0.4122,-0.6442,-0.8746,-0.4827,-0.7099,-0.6954,-0.7843,-0.659,-0.5856,-0.5055,-0.0164,-0.1064,-0.4101,-0.2336,-0.0547,0.8104
-0.1557,-0.1622,0.0263,-0.2464,-0.6025,-0.2077,-0.594,-0.2637,-0.0491,-0.3173,-0.5117,-0.3015,-0.5152,-0.5913,-0.3531,-0.5487,-0.8047,-0.4304,-0.6479,-0.6149,-0.7069,-0.622,-0.5531,-0.5022,-0.0344,-0.1328,-0.4205,-0.2467,-0.0666,0.7405
-0.1013,-0.072,0.0828,-0.1722,-0.5468,-0.1536,-0.5684,-0.2388,-0.0433,-0.2752,-0.4877,-0.2909,-0.4773,-0.5317,-0.2899,-0.4489,-0.7175,-0.3646,-0.5721,-0.5283,-0.6236,-0.5765,-0.5167,-0.4909,-0.0528,-0.155,-0.4209,-0.2535,-0.0844,0.6655
-0.0465,0.0217,0.1286,-0.0945,-0.4886,-0.0964,-0.5227,-0.206,-0.0337,-0.2167,-0.4508,-0.2681,-0.4267,-0.4642,-0.2206,-0.3446,-0.6136,-0.2849,-0.4818,-0.4346,-0.5342,-0.5203,-0.4751,-0.4699,-0.0702,-0.1709,-0.4114,-0.2545,-0.1065,0.5824
0.0075,0.1187,0.1613,-0.0115,-0.4253,-0.0364,-0.461,-0.1679,-0.0229,-0.1504,-0.4068,-0.2365,-0.3649,-0.3889,-0.1429,-0.2353,-0.4944,-0.1922,-0.3765,-0.333,-0.4386,-0.4516,-0.4262,-0.4381,-0.0845,-0.1786,-0.3926,-0.2501,-0.1312,0.488
0.0597,0.2182,0.1811,0.0778,-0.3552,0.0256,-0.3895,-0.1278,-0.0138,-0.0855,-0.3618,-0.2004,-0.2946,-0.3067,-0.0554,-0.1202,-0.3622,-0.0876,-0.2567,-0.2231,-0.3367,-0.3694,-0.3683,-0.3955,-0.0934,-0.1764,-0.3658,-0.2403,-0.1574,0.3795
0.1098,0.3189,0.1901,0.1734,-0.2785,0.0889,-0.3148,-0.0888,-0.0089,-0.0301,-0.3207,-0.1636,-0.2195,-0.219,0.0419,0.0012,-0.2197,0.0265,-0.1237,-0.1048,-0.2288,-0.2734,-0.3003,-0.3431,-0.0946,-0.1633,-0.3323,-0.2254,-0.1842,0.2564
0.1584,0.4191,0.1917,0.2737,-0.1972,0.1523,-0.2429,-0.0535,-0.0094,0.0099,-0.2865,-0.1293,-0.1435,-0.128,0.1473,0.1288,-0.0707,0.1471,0.0199,0.0206,-0.116,-0.1649,-0.2219,-0.2827,-0.0862,-0.1388,-0.2938,-0.2056,-0.2108,0.1203
0.2065,0.517,0.1898,0.3763,-0.1152,0.2141,-0.1783,-0.0233,-0.0152,0.0319,-0.2602,-0.0993,-0.0706,-0.0368,0.2572,0.2608,0.0803,0.27,0.1702,0.1511,-0.0004,-0.0466,-0.1342,-0.2165,-0.0674,-0.1032,-0.2516,-0.1813,-0.2366,-0.0246
0.2553,0.6106,0.1882,0.4777,-0.0369,0.2722,-0.124,0.0013,-0.0247,0.0361,-0.2408,-0.0741,-0.0046,0.0517,0.3667,0.3944,0.2281,0.3902,0.322,0.2831,0.1151,0.0779,-0.0394,-0.1471,-0.0381,-0.0578,-0.2071,-0.1532,-0.2601,-0.1718
0.3057,0.6985,0.1898,0.574,0.0336,0.3236,-0.0813,0.0202,-0.0361,0.0253,-0.2262,-0.0531,0.052,0.1339,0.4704,0.5253,0.3672,0.5028,0.4695,0.4124,0.2267,0.204,0.0592,-0.0768,0.0005,-0.0049,-0.1614,-0.1225,-0.2796,-0.3137
0.3579,0.7799,0.1967,0.6617,0.0937,0.3649,-0.051,0.0338,-0.0475,0.0041,-0.2147,-0.0354,0.0976,0.2072,0.5635,0.6485,0.4926,0.6028,0.6069,0.5343,0.3304,0.3267,0.1578,-0.0074,0.0459,0.052,-0.1158,-0.0907,-0.2929,-0.4425
0.4113,0.8543,0.2094,0.7379,0.1426,0.3936,-0.0331,0.0422,-0.0579,-0.0226,-0.2051,-0.0202,0.1317,0.2697,0.6422,0.7589,0.6003,0.6864,0.7287,0.644,0.4225,0.4416,0.2524,0.0593,0.0946,0.1088,-0.0719,-0.0601,-0.2983,-0.5518
0.4643,0.9216,0.2273,0.8012,0.1816,0.4082,-0.0276,0.0453,-0.0673,-0.0502,-0.1974,-0.0075,0.1549,0.3204,0.7046,0.8524,0.6877,0.7511,0.8311,0.7381,0.4999,0.5447,0.3393,0.1217,0.1425,0.1608,-0.032,-0.0328,-0.2948,-0.6378
0.5148,0.9816,0.2485,0.8516,0.2135,0.4093,-0.0342,0.043,-0.0765,-0.075,-0.193,0.0019,0.1687,0.3598,0.751,0.9265,0.7535,0.7956,0.9117,0.8142,0.5612,0.633,0.4153,0.1779,0.1854,0.2033,0.0015,-0.0112,-0.2832,-0.6995
0.5605,1.0341,0.2702,0.8904,0.2414,0.3995,-0.052,0.0352,-0.0874,-0.095,-0.1937,0.0065,0.1752,0.3893,0.7828,0.9801,0.7978,0.8202,0.9701,0.8719,0.6061,0.7048,0.4785,0.2262,0.2195,0.2326,0.0261,0.0027,-0.2658,-0.7387
0.5998,1.0791,0.2899,0.9202,0.2674,0.3827,-0.0793,0.022,-0.1021,-0.1101,-0.2015,0.0047,0.1766,0.4108,0.8027,1.0146,0.8218,0.8264,1.0074,0.9121,0.6359,0.7597,0.5277,0.2649,0.2426,0.2462,0.0404,0.008,-0.2462,-0.759
0.6322,1.1163,0.3054,0.9436,0.2919,0.3632,-0.1134,0.0039,-0.1217,-0.1209,-0.2175,-0.004,0.1752,0.4264,0.8134,1.0326,0.8281,0.817,1.0263,0.9369,0.6528,0.7984,0.5632,0.2927,0.2542,0.2441,0.0446,0.0051,-0.2278,-0.7649
0.6587,1.1457,0.3161,0.9626,0.3135,0.3446,-0.1506,-0.0177,-0.1462,-0.129,-0.241,-0.0183,0.173,0.4377,0.8176,1.0378,0.8198,0.7952,1.0302,0.949,0.6592,0.8225,0.5858,0.3094,0.2555,0.2278,0.0406,-0.0038,-0.2129,-0.76
0.6811,1.1671,0.3223,0.9782,0.3298,0.3288,-0.1866,-0.0406,-0.1735,-0.1353,-0.269,-0.035,0.1717,0.4459,0.8172,1.0338,0.8005,0.7644,1.023,0.9506,0.6575,0.8342,0.5972,0.3153,0.249,0.2009,0.0319,-0.0156,-0.2022,-0.7466
0.7016,1.18,0.3248,0.9897,0.3378,0.3161,-0.2173,-0.0619,-0.1994,-0.14,-0.2967,-0.0491,0.1725,0.4512,0.813,1.0235,0.7734,0.7278,1.0077,0.9434,0.6496,0.8356,0.5991,0.3119,0.237,0.1675,0.0222,-0.0263,-0.1942,-0.725
0.7222,1.1834,0.3245,0.9953,0.3353,0.3057,-0.239,-0.0781,-0.2184,-0.1421,-0.3177,-0.0548,0.1759,0.4531,0.805,1.0086,0.7411,0.688,0.9868,0.928,0.6364,0.8285,0.5932,0.3008,0.2215,0.1312,0.0145,-0.0327,-0.1863,-0.6942
0.7449,1.176,0.3221,0.9925,0.3221,0.2963,-0.2492,-0.0859,-0.2252,-0.1398,-0.3261,-0.047,0.1818,0.451,0.7919,0.9893,0.7051,0.6469,0.9614,0.9046,0.6185,0.8141,0.5809,0.2842,0.2032,0.0951,0.0101,-0.0324,-0.1759,-0.6523
0.7707,1.1572,0.3177,0.9798,0.2999,0.2869,-0.2469,-0.0829,-0.2154,-0.1314,-0.3171,-0.0222,0.1894,0.4442,0.7722,0.9652,0.6661,0.606,0.9319,0.8733,0.5963,0.7929,0.5633,0.2637,0.1818,0.0606,0.0087,-0.0248,-0.1607,-0.5974
0.7999,1.1269,0.3116,0.9571,0.272,0.2771,-0.2332,-0.0682,-0.1871,-0.116,-0.2889,0.0199,0.1971,0.4321,0.7448,0.9357,0.6242,0.5663,0.8982,0.8348,0.5706,0.765,0.5413,0.2406,0.1567,0.0289,0.0081,-0.0107,-0.1394,-0.5294
0.8321,1.0873,0.3045,0.9269,0.2432,0.2676,-0.2112,-0.043,-0.1417,-0.0943,-0.2429,0.0764,0.2031,0.4149,0.7103,0.9012,0.58,0.5293,0.8603,0.7912,0.5425,0.731,0.516,0.216,0.1278,0.0006,0.0056,0.0079,-0.1119,-0.4502
0.8656,1.0425,0.2979,0.8936,0.2184,0.2599,-0.1854,-0.0103,-0.0837,-0.0688,-0.1839,0.1412,0.2054,0.3935,0.6711,0.8636,0.535,0.4974,0.8197,0.746,0.5136,0.6925,0.4894,0.1906,0.0965,-0.0234,-0.0013,0.0285,-0.0793,-0.3645
0.8984,0.9992,0.2947,0.8639,0.2021,0.2558,-0.161,0.0252,-0.0204,-0.0437,-0.1198,0.2057,0.2023,0.3693,0.6321,0.8262,0.4925,0.4737,0.7795,0.7038,0.486,0.6523,0.4645,0.1649,0.0652,-0.042,-0.0144,0.048,-0.0435,-0.2794
0.9289,0.9651,0.2985,0.8447,0.1977,0.2574,-0.1433,0.0583,0.0397,-0.0236,-0.0598,0.2607,0.1929,0.3444,0.5995,0.7939,0.4571,0.462,0.7443,0.6701,0.4618,0.6149,0.4453,0.1397,0.0377,-0.0544,-0.034,0.0638,-0.0072,-0.2032
0.9566,0.9485,0.3135,0.8421,0.2073,0.2662,-0.1361,0.0841,0.0886,-0.0127,-0.0127,0.2977,0.177,0.3213,0.5798,0.772,0.434,0.4654,0.7197,0.6499,0.4433,0.5856,0.4362,0.1159,0.0175,-0.0602,-0.0587,0.0738,0.0265,-0.1438
0.9825,0.9554,0.3429,0.8601,0.2315,0.283,-0.1411,0.0996,0.1204,-0.0131,0.015,0.3114,0.1562,0.3026,0.5784,0.7653,0.428,0.4852,0.7115,0.6468,0.4323,0.5698,0.4414,0.095,0.0078,-0.0596,-0.0854,0.0772,0.0553,-0.107
1.0094,0.9889,0.3883,0.8997,0.2697,0.3075,-0.1575,0.104,0.1328,-0.0243,0.0206,0.3006,0.1334,0.2909,0.598,0.7771,0.442,0.5201,0.7239,0.6625,0.4301,0.5721,0.4637,0.0793,0.0101,-0.0529,-0.1098,0.0748,0.0775,-0.0958
1.0404,1.0479,0.449,0.9585,0.3204,0.3385,-0.1823,0.0992,0.1273,-0.0433,0.0055,0.2688,0.113,0.2887,0.6386,0.8088,0.4763,0.5666,0.7592,0.6963,0.4375,0.5952,0.5042,0.0716,0.0249,-0.0402,-0.1266,0.0694,0.0925,-0.11
1.0786,1.1271,0.5214,1.0319,0.3811,0.3739,-0.2107,0.0885,0.1078,-0.065,-0.0248,0.2234,0.0999,0.2978,0.6967,0.8591,0.5291,0.6199,0.817,0.7458,0.455,0.64,0.5625,0.0752,0.0514,-0.0211,-0.1306,0.065,0.1001,-0.1469
1.1256,1.2187,0.6,1.1131,0.4483,0.4107,-0.2375,0.0759,0.0799,-0.0838,-0.063,0.1736,0.0988,0.3194,0.7666,0.9249,0.5963,0.6755,0.8947,0.8066,0.4822,0.7046,0.6365,0.0927,0.0878,0.0051,-0.1181,0.0656,0.1006,-0.2016
1.1809,1.3129,0.678,1.1952,0.5176,0.446,-0.258,0.0642,0.0481,-0.0949,-0.1014,0.1285,0.1129,0.3534,0.8411,1.0008,0.6727,0.7299,0.987,0.8736,0.5181,0.7853,0.7228,0.1255,0.1315,0.0388,-0.0877,0.0745,0.0944,-0.2683
1.2419,1.4011,0.749,1.2718,0.584,0.4771,-0.2693,0.0545,0.0151,-0.0956,-0.1336,0.0947,0.1433,0.398,0.9131,1.081,0.7524,0.7816,1.0872,0.9415,0.5608,0.8765,0.8172,0.1729,0.1795,0.079,-0.041,0.0926,0.082,-0.341
1.305,1.4768,0.8084,1.3388,0.6425,0.5024,-0.2703,0.0459,-0.0193,-0.0859,-0.1567,0.0752,0.1883,0.4507,0.9767,1.1594,0.8302,0.8308,1.1882,1.0058,0.608,0.9721,0.9144,0.2322,0.2285,0.1239,0.0172,0.118,0.0642,-0.4146
1.3661,1.5375,0.8546,1.3948,0.6894,0.5214,-0.2618,0.036,-0.0568,-0.0682,-0.1706,0.0694,0.2442,0.5078,1.0291,1.232,0.9026,0.8798,1.2837,1.0636,0.6571,1.0664,1.0097,0.2989,0.2753,0.1703,0.0806,0.1469,0.0424,-0.4848
1.4227,1.5851,0.8891,1.4414,0.7234,0.5359,-0.2461,0.0223,-0.1001,-0.0468,-0.1781,0.0741,0.3059,0.566,1.07,1.2969,0.9682,0.9314,1.3691,1.1144,0.7061,1.1553,1.0984,0.3681,0.3174,0.2147,0.1423,0.1745,0.0185,-0.5492
1.4738,1.6251,0.9163,1.4829,0.7459,0.5486,-0.2262,0.0034,-0.1505,-0.0261,-0.1833,0.0844,0.3681,0.6226,1.1026,1.355,1.028,0.9889,1.4428,1.1599,0.7542,1.2368,1.178,0.435,0.353,0.2543,0.1966,0.1967,-0.0051,-0.6074
1.5196,1.665,0.942,1.5246,0.7608,0.563,-0.205,-0.0202,-0.2072,-0.0095,-0.1905,0.0955,0.4262,0.6762,1.1319,1.4093,1.0849,1.0548,1.5056,1.2039,0.8013,1.311,1.2473,0.4964,0.3815,0.2872,0.24,0.2108,-0.026,-0.6609
1.561,1.7121,0.9722,1.5718,0.7729,0.5819,-0.1846,-0.0462,-0.2669,0.0014,-0.2025,0.1033,0.4769,0.7262,1.1632,1.4636,1.1425,1.1296,1.5606,1.2509,0.8485,1.3797,1.3075,0.5505,0.4034,0.3129,0.2716,0.2158,-0.0423,-0.7125
1.5989,1.7716,1.0115,1.6277,0.787,0.6065,-0.1666,-0.0712,-0.3245,0.0073,-0.2207,0.1051,0.5184,0.7729,1.2006,1.5211,1.2037,1.2119,1.6117,1.3044,0.8969,1.4448,1.3607,0.597,0.4201,0.3319,0.2924,0.2122,-0.0531,-0.7653
1.634,1.8452,1.0621,1.6931,0.8063,0.6362,-0.1515,-0.0915,-0.3748,0.0101,-0.2448,0.0995,0.5504,0.8166,1.2457,1.5833,1.2705,1.298,1.6625,1.3662,0.9472,1.5077,1.4096,0.6365,0.4332,0.3455,0.3052,0.2018,-0.0589,-0.8213
1.667,1.9313,1.1236,1.7664,0.8319,0.6689,-0.139,-0.1042,-0.4133,0.013,-0.2724,0.0867,0.5738,0.8575,1.2969,1.6495,1.3425,1.3825,1.7156,1.4358,0.9995,1.5687,1.456,0.6702,0.4453,0.3558,0.3135,0.1872,-0.0613,-0.8803
1.6994,2.0256,1.1933,1.8445,0.8633,0.7021,-0.1279,-0.1075,-0.4374,0.0188,-0.3,0.0686,0.5909,0.8959,1.3498,1.7172,1.4179,1.4596,1.7715,1.5105,1.053,1.6269,1.5007,0.6996,0.4584,0.3649,0.3212,0.1714,-0.0624,-0.94
1.7323,2.1225,1.2666,1.9236,0.8985,0.7337,-0.1164,-0.1006,-0.4462,0.0304,-0.3232,0.0479,0.6048,0.9325,1.3991,1.7832,1.4933,1.5235,1.8296,1.5864,1.1071,1.6808,1.5438,0.7262,0.4746,0.3752,0.3318,0.1574,-0.0643,-0.9973
1.7668,2.2165,1.3374,2.0009,0.9358,0.7631,-0.102,-0.0835,-0.4405,0.0494,-0.338,0.0282,0.6196,0.9687,1.4397,1.8445,1.5647,1.5703,1.8879,1.6597,1.1612,1.7291,1.5848,0.7521,0.4951,0.3889,0.3486,0.1476,-0.0682,-1.0498
1.8033,2.3032,1.3994,2.0746,0.974,0.7912,-0.0822,-0.0567,-0.4223,0.0769,-0.3415,0.0131,0.6397,1.0069,1.4683,1.8992,1.6289,1.5979,1.9446,1.7276,1.216,1.772,1.624,0.7795,0.5205,0.4076,0.3737,0.1438,-0.0738,-1.0972
1.8416,2.3798,1.4471,2.1442,1.0133,0.8204,-0.0545,-0.0209,-0.3947,0.1127,-0.3322,0.0054,0.6692,1.0502,1.484,1.9471,1.6839,1.6075,1.9984,1.7895,1.2731,1.8113,1.6623,0.8108,0.5503,0.4322,0.408,0.1462,-0.08,-1.1413
1.881,2.4456,1.477,2.2102,1.055,0.854,-0.0172,0.0228,-0.3608,0.1559,-0.3108,0.0066,0.7111,1.1015,1.4885,1.9894,1.7296,1.603,2.0491,1.8464,1.3347,1.85,1.7016,0.8484,0.5833,0.4622,0.4512,0.1538,-0.0852,-1.1861
1.9199,2.5007,1.4881,2.2733,1.1008,0.8947,0.0305,0.0728,-0.3242,0.2047,-0.2797,0.017,0.7668,1.163,1.4857,2.0279,1.7676,1.5903,2.0974,1.9007,1.4031,1.8921,1.7444,0.8933,0.6173,0.4961,0.501,0.1646,-0.0881,-1.2361
1.9562,2.546,1.4818,2.3339,1.1521,0.9444,0.0887,0.1269,-0.2886,0.2567,-0.2424,0.0354,0.8352,1.235,1.4808,2.0648,1.8004,1.5765,2.1449,1.9551,1.4792,1.9406,1.7924,0.945,0.6497,0.5307,0.5538,0.1756,-0.0885,-1.2951
1.9865,2.5818,1.461,2.3908,1.2093,1.0028,0.1565,0.1824,-0.257,0.3091,-0.2026,0.0594,0.9134,1.3159,1.4791,2.1015,1.8305,1.5674,2.1928,2.0115,1.5622,1.997,1.8461,1.0012,0.677,0.5618,0.6049,0.1838,-0.0879,-1.3653
2.0074,2.6071,1.4293,2.4418,1.2714,1.0671,0.2333,0.2368,-0.2314,0.3597,-0.1628,0.0865,0.9972,1.4022,1.485,2.1381,1.8593,1.5665,2.2414,2.0704,1.6496,2.0605,1.9039,1.058,0.696,0.5852,0.6496,0.1868,-0.0895,-1.446
2.0158,2.6202,1.3894,2.484,1.3361,1.1326,0.3183,0.2881,-0.2123,0.4073,-0.124,0.1146,1.0818,1.4896,1.5005,2.1734,1.8864,1.5743,2.2898,2.131,1.7373,2.1279,1.9623,1.1109,0.7039,0.5974,0.6841,0.1838,-0.0971,-1.5344
2.0104,2.6185,1.3426,2.5143,1.4003,1.1935,0.4115,0.3358,-0.1979,0.4529,-0.0847,0.143,1.1634,1.5735,1.5253,2.2056,1.9097,1.5881,2.336,2.1912,1.821,2.1947,2.0164,1.1559,0.6991,0.5967,0.7063,0.1758,-0.1145,-1.6251
1.992,2.6,1.2887,2.5303,1.4608,1.2438,0.5127,0.3807,-0.1848,0.4988,-0.0422,0.172,1.2393,1.65,1.5565,2.2324,1.9265,1.6038,2.3773,2.2484,1.8964,2.2559,2.0613,1.1902,0.6815,0.5834,0.7163,0.1654,-0.1445,-1.7117
1.9633,2.5637,1.2258,2.5305,1.5149,1.2787,0.6211,0.4242,-0.1681,0.5482,0.0071,0.2026,1.3079,1.7166,1.5897,2.2517,1.9341,1.6163,2.4109,2.2994,1.9603,2.3071,2.0927,1.2129,0.6526,0.5599,0.716,0.1566,-0.1873,-1.7879
1.9284,2.51,1.1515,2.5149,1.5601,1.2951,0.7346,0.4683,-0.1435,0.6041,0.0653,0.2358,1.3689,1.7712,1.6199,2.2621,1.9306,1.6216,2.4347,2.3416,2.0104,2.3455,2.1084,1.2246,0.6156,0.5298,0.7086,0.153,-0.2416,-1.8486
1.8912,2.4412,1.064,2.4843,1.5945,1.2919,0.8491,0.5138,-0.1083,0.6672,0.1322,0.2712,1.422,1.8131,1.6427,2.2631,1.9161,1.6169,2.4478,2.3726,2.0457,2.3702,2.1082,1.2276,0.575,0.4975,0.6979,0.1575,-0.3039,-1.8913
1.8549,2.3609,0.9626,2.4402,1.6166,1.27,0.9591,0.5603,-0.0623,0.7361,0.2044,0.3067,1.4675,1.8419,1.6546,2.2548,1.8921,1.6015,2.4502,2.3907,2.0661,2.382,2.0947,1.2249,0.5361,0.4671,0.6875,0.1714,-0.3702,-1.9161
1.8204,2.2736,0.8486,2.3849,1.6254,1.2321,1.0578,0.6058,-0.0083,0.8065,0.2755,0.3385,1.5051,1.8577,1.6537,2.2379,1.8606,1.5757,2.4424,2.3949,2.0724,2.3829,2.0716,1.2196,0.504,0.4424,0.6804,0.194,-0.4366,-1.9259
1.7871,2.1841,0.7253,2.321,1.6199,1.1822,1.1388,0.647,0.0487,0.8727,0.3368,0.362,1.5344,1.8614,1.6394,2.213,1.8235,1.5405,2.4255,2.385,2.066,2.3752,2.0433,1.2146,0.4829,0.4259,0.6786,0.2228,-0.4997,-1.9252
1.7532,2.0963,0.5972,2.2513,1.5998,1.1251,1.1966,0.6803,0.1023,0.9282,0.38,0.3728,1.5546,1.8537,1.6119,2.1804,1.7815,1.4969,2.4004,2.3618,2.0486,2.3607,2.013,1.2119,0.4753,0.4194,0.6829,0.2542,-0.5575,-1.9187
1.7167,2.0133,0.4695,2.1784,1.5652,1.0653,1.2279,0.7025,0.1463,0.9675,0.3982,0.3681,1.5649,1.8362,1.5721,2.1397,1.7343,1.4455,2.3676,2.3265,2.0223,2.3403,1.9828,1.2123,0.4815,0.4232,0.6929,0.2844,-0.6086,-1.9102
1.6763,1.9357,0.3471,2.1047,1.5166,1.0063,1.2319,0.7113,0.1762,0.9868,0.3883,0.3477,1.5647,1.8106,1.5206,2.0907,1.681,1.3866,2.3279,2.2812,1.9892,2.3143,1.953,1.2154,0.4999,0.4369,0.7072,0.3099,-0.6523,-1.9014
1.6314,1.8626,0.2337,2.0315,1.4555,0.9499,1.2099,0.7062,0.1901,0.985,0.3516,0.314,1.5541,1.7789,1.4587,2.0325,1.6209,1.3214,2.2824,2.2281,1.9516,2.2827,1.9228,1.2199,0.5273,0.4591,0.7238,0.3285,-0.6884,-1.8922
1.5817,1.7905,0.1307,1.9589,1.3838,0.8959,1.1659,0.6882,0.1889,0.9636,0.2941,0.2722,1.5338,1.743,1.3876,1.965,1.5543,1.2516,2.2329,2.1694,1.9112,2.2459,1.8911,1.2242,0.5596,0.488,0.7403,0.3395,-0.7163,-1.8809
1.5267,1.715,0.0373,1.886,1.3038,0.8425,1.1061,0.6603,0.1768,0.9268,0.2249,0.2291,1.5057,1.7046,1.3093,1.8879,1.4832,1.1804,2.1813,2.1064,1.8692,2.2045,1.8569,1.2264,0.5926,0.5209,0.7548,0.3431,-0.7355,-1.8655
1.4651,1.6311,-0.0492,1.8109,1.2174,0.7874,1.0387,0.6272,0.1602,0.881,0.1551,0.1913,1.4719,1.665,1.2264,1.8019,1.4105,1.1115,2.1299,2.0401,1.8255,2.1595,1.82,1.2248,0.6225,0.5551,0.7655,0.3405,-0.7454,-1.8442
1.3947,1.5348,-0.1327,1.731,1.1267,0.7283,0.9731,0.594,0.1462,0.8333,0.0952,0.1646,1.4348,1.6246,1.1421,1.7081,1.3396,1.0489,2.0799,1.9704,1.7791,2.1119,1.7799,1.2184,0.6458,0.5871,0.7715,0.3329,-0.7461,-1.8162
1.3128,1.4239,-0.2164,1.644,1.0331,0.6644,0.9181,0.5661,0.1414,0.7899,0.0532,0.1522,1.3963,1.5827,1.0596,1.6076,1.2734,0.9949,2.0315,1.8962,1.7277,2.062,1.7364,1.2061,0.66,0.6136,0.7721,0.3218,-0.7384,-1.7816
1.2169,1.298,-0.3024,1.5478,0.9375,0.5963,0.8804,0.5473,0.1503,0.7553,0.033,0.1544,1.3568,1.5378,0.9811,1.5015,1.2128,0.9499,1.9829,1.816,1.6683,2.0086,1.6884,1.187,0.6634,0.6317,0.7672,0.3081,-0.7242,-1.7407
1.1058,1.1583,-0.391,1.4411,0.8409,0.5262,0.8628,0.5397,0.1746,0.731,0.034,0.1685,1.3157,1.4873,0.9073,1.3898,1.156,0.9113,1.9303,1.7273,1.5973,1.9491,1.634,1.1601,0.655,0.639,0.7561,0.2922,-0.7059,-1.6928
0.9804,1.007,-0.481,1.3232,0.744,0.4565,0.8634,0.5424,0.213,0.715,0.0514,0.1896,1.2703,1.4279,0.8362,1.2711,1.0983,0.8735,1.8682,1.6271,1.5113,1.8795,1.5704,1.1236,0.6347,0.6341,0.7379,0.2739,-0.686,-1.6359
0.8443,0.8464,-0.5698,1.194,0.6471,0.3892,0.8755,0.5527,0.262,0.7028,0.0776,0.2114,1.2169,1.3555,0.7632,1.1426,1.0325,0.8284,1.7902,1.5117,1.4071,1.7946,1.4942,1.0754,0.6033,0.6167,0.7107,0.2526,-0.6664,-1.5649
0.7037,0.6784,-0.6544,1.0542,0.5504,0.3247,0.8893,0.5657,0.317,0.6886,0.1041,0.2282,1.1513,1.2663,0.6813,1.0002,0.95,0.7668,1.6898,1.3772,1.2825,1.689,1.4019,1.0136,0.5628,0.5882,0.6727,0.2277,-0.6478,-1.4727
0.5662,0.5043,-0.7318,0.9044,0.4539,0.2619,0.894,0.5765,0.3733,0.6661,0.1236,0.236,1.0696,1.1569,0.5822,0.8397,0.8425,0.6799,1.5613,1.2204,1.1363,1.5585,1.2903,0.9368,0.5163,0.5513,0.6226,0.1989,-0.6294,-1.3507
0.4392,0.3245,-0.7999,0.7456,0.3568,0.1981,0.8804,0.5807,0.4277,0.631,0.131,0.2334,0.9697,1.0254,0.459,0.6577,0.7039,0.5611,1.4019,1.0392,0.9689,1.4005,1.1579,0.8451,0.4673,0.5098,0.5599,0.1669,-0.6101,-1.1917
0.3279,0.1391,-0.8579,0.5786,0.2586,0.1302,0.843,0.5758,0.4785,0.5808,0.1247,0.2211,0.8515,0.8721,0.3073,0.4527,0.5318,0.408,1.2117,0.8336,0.7821,1.2156,1.0048,0.74,0.4195,0.4673,0.4859,0.1328,-0.5881,-0.9918
0.2335,-0.0521,-0.907,0.4045,0.1584,0.0564,0.7814,0.5614,0.5255,0.5162,0.1059,0.2018,0.7171,0.6996,0.1272,0.2261,0.3284,0.2227,0.9944,0.6063,0.5793,1.0069,0.8335,0.6241,0.3752,0.4271,0.4027,0.0979,-0.5623,-0.7526
0.1533,-0.2488,-0.9497,0.2246,0.0556,-0.0239,0.6998,0.539,0.5697,0.4401,0.0778,0.1782,0.5706,0.5126,-0.0764,-0.0182,0.1005,0.0124,0.7567,0.3622,0.3648,0.7805,0.6484,0.5009,0.3351,0.3902,0.3133,0.0631,-0.5328,-0.4821
0.0806,-0.45,-0.9897,0.0408,-0.0497,-0.1089,0.6061,0.5118,0.6123,0.3571,0.0445,0.153,0.4173,0.3177,-0.2941,-0.2731,-0.1413,-0.212,0.5082,0.1086,0.1443,0.5445,0.4556,0.3739,0.2978,0.3563,0.2208,0.0284,-0.5005,-0.1937
