FP1,F3,F7,FC3,C3,C5,P3,P7,PO7,PO3,O1,Oz,Pz,CPz,FP2,Fz,F4,F8,FC4,FCz,Cz,C4,C6,P4,P8,PO8,PO4,O2,HEOG_left,HEOG_right
-0.5693,-1.0038,-0.493,-0.7519,-0.7366,-0.5922,-0.2155,0.1139,0.1143,-0.3371,-0.1508,-0.1852,-0.5761,-0.6746,-1.312,-1.4162,-1.9347,-1.6603,-1.6162,-1.1769,-0.9193,-1.509,-1.7733,-0.6559,-0.4331,-0.3554,-0.4562,-0.2374,-0.4939,-1.0364
-0.4625,-1.034,-0.4628,-0.8113,-0.7854,-0.649,-0.2561,0.1221,0.1479,-0.3386,-0.0974,-0.1867,-0.5597,-0.6752,-1.1384,-1.3291,-1.7646,-1.5063,-1.4012,-1.0932,-0.8918,-1.2762,-1.4723,-0.5626,-0.3782,-0.3324,-0.4267,-0.2362,-0.3963,-0.9055
-0.3683,-1.0534,-0.4303,-0.8599,-0.8236,-0.6978,-0.2897,0.1295,0.1805,-0.3345,-0.0406,-0.18,-0.5375,-0.6661,-0.9751,-1.2395,-1.5966,-1.3524,-1.1959,-1.0055,-0.855,-1.0537,-1.1888,-0.4726,-0.3221,-0.3027,-0.3915,-0.2275,-0.307,-0.775
-0.2958,-1.053,-0.3936,-0.8888,-0.8424,-0.7314,-0.3109,0.1344,0.2102,-0.3206,0.0206,-0.1593,-0.5051,-0.6397,-0.8301,-1.1451,-1.4326,-1.1979,-1.008,-0.9114,-0.802,-0.8494,-0.936,-0.387,-0.263,-0.2608,-0.3461,-0.2052,-0.2348,-0.6465
-0.2488,-1.0273,-0.3507,-0.8922,-0.8357,-0.7436,-0.3157,0.1365,0.2362,-0.2938,0.0865,-0.1208,-0.4594,-0.5912,-0.7094,-1.0453,-1.2751,-1.0436,-0.8431,-0.8101,-0.7285,-0.6689,-0.7224,-0.306,-0.1999,-0.203,-0.2871,-0.1655,-0.1838,-0.5222
-0.2254,-0.9759,-0.3008,-0.8681,-0.8005,-0.7302,-0.3021,0.1366,0.2589,-0.2523,0.1562,-0.0636,-0.3997,-0.5207,-0.6166,-0.9415,-1.1271,-0.8926,-0.7039,-0.7033,-0.6345,-0.5145,-0.5514,-0.2289,-0.133,-0.1286,-0.2132,-0.107,-0.1535,-0.4049
-0.2202,-0.9027,-0.2455,-0.8192,-0.7391,-0.6902,-0.2715,0.1359,0.278,-0.1976,0.2265,0.0094,-0.3282,-0.4331,-0.5522,-0.8378,-0.9926,-0.7492,-0.5911,-0.5958,-0.5251,-0.3864,-0.4211,-0.1549,-0.0636,-0.0401,-0.1257,-0.032,-0.1397,-0.2984
-0.2274,-0.8158,-0.1901,-0.753,-0.6587,-0.6272,-0.2292,0.1345,0.2923,-0.1344,0.2912,0.0909,-0.2505,-0.3384,-0.5145,-0.7401,-0.8757,-0.618,-0.5038,-0.4949,-0.4103,-0.2831,-0.3262,-0.0843,0.0058,0.0566,-0.0297,0.0533,-0.1369,-0.2073
-0.2429,-0.7258,-0.1429,-0.6809,-0.5711,-0.549,-0.1839,0.1314,0.2982,-0.0711,0.341,0.1703,-0.1749,-0.2503,-0.4994,-0.6559,-0.7805,-0.503,-0.4403,-0.4101,-0.3043,-0.2031,-0.2593,-0.019,0.0716,0.1529,0.0667,0.139,-0.1405,-0.1368
-0.2658,-0.6439,-0.1134,-0.6165,-0.4906,-0.4667,-0.1465,0.1236,0.2911,-0.0186,0.3651,0.2342,-0.1119,-0.1834,-0.5017,-0.5929,-0.7103,-0.4063,-0.3996,-0.3515,-0.2226,-0.1457,-0.2133,0.0366,0.1294,0.2383,0.1524,0.2131,-0.1482,-0.0925
-0.2975,-0.5804,-0.1093,-0.5724,-0.431,-0.3921,-0.1279,0.108,0.2659,0.0122,0.3533,0.2699,-0.0722,-0.1512,-0.5161,-0.5576,-0.6668,-0.3282,-0.3811,-0.3276,-0.1797,-0.1122,-0.1838,0.0765,0.1745,0.3022,0.2154,0.263,-0.1605,-0.0787
-0.3406,-0.5429,-0.1343,-0.5579,-0.4024,-0.3353,-0.1364,0.0818,0.2193,0.0121,0.2986,0.2671,-0.0648,-0.1626,-0.5373,-0.5539,-0.6494,-0.2675,-0.385,-0.3435,-0.1859,-0.1053,-0.1691,0.0938,0.2019,0.3359,0.2449,0.2784,-0.1793,-0.0977
-0.3967,-0.5351,-0.1867,-0.5768,-0.4092,-0.3024,-0.1755,0.0443,0.1512,-0.023,0.1997,0.2211,-0.0947,-0.2205,-0.5611,-0.5821,-0.6556,-0.2225,-0.4119,-0.3994,-0.2447,-0.1282,-0.1712,0.0823,0.2071,0.3342,0.2334,0.2529,-0.2059,-0.1487
-0.4657,-0.556,-0.2597,-0.6267,-0.4489,-0.2948,-0.2435,-0.0025,0.0653,-0.0919,0.0625,0.1337,-0.1615,-0.3206,-0.5841,-0.6386,-0.6809,-0.1919,-0.4612,-0.4903,-0.3521,-0.1831,-0.1937,0.0382,0.1867,0.2958,0.1786,0.1861,-0.2395,-0.2268
-0.5449,-0.6004,-0.3432,-0.6994,-0.5125,-0.3091,-0.3332,-0.0546,-0.0315,-0.1869,-0.1006,0.0137,-0.2591,-0.4521,-0.6044,-0.7159,-0.7195,-0.1749,-0.5308,-0.6055,-0.4968,-0.2697,-0.2401,-0.039,0.1392,0.2243,0.0844,0.0837,-0.2764,-0.3235
-0.6282,-0.6599,-0.4259,-0.7827,-0.5865,-0.3383,-0.4336,-0.1064,-0.13,-0.296,-0.2727,-0.1252,-0.3761,-0.5989,-0.6212,-0.8038,-0.7653,-0.171,-0.6163,-0.731,-0.6612,-0.3834,-0.3114,-0.1455,0.0653,0.1271,-0.0395,-0.0434,-0.3103,-0.4279
-0.7077,-0.7235,-0.4965,-0.8625,-0.6555,-0.373,-0.5316,-0.152,-0.2206,-0.4044,-0.435,-0.266,-0.4977,-0.7418,-0.634,-0.8898,-0.8114,-0.1793,-0.7101,-0.8504,-0.824,-0.5153,-0.4044,-0.2731,-0.0316,0.0144,-0.1795,-0.1804,-0.3339,-0.528
-0.7742,-0.7797,-0.5455,-0.9248,-0.7048,-0.4037,-0.6144,-0.1867,-0.2952,-0.4976,-0.5703,-0.3917,-0.6074,-0.8612,-0.6424,-0.961,-0.8506,-0.1974,-0.8021,-0.9479,-0.9637,-0.6526,-0.511,-0.4099,-0.1451,-0.1024,-0.3196,-0.3111,-0.3408,-0.6124
-0.8195,-0.817,-0.5663,-0.9581,-0.7233,-0.4219,-0.6713,-0.2073,-0.3481,-0.5636,-0.6656,-0.4878,-0.6903,-0.9401,-0.6452,-1.0056,-0.8754,-0.2216,-0.8809,-1.0102,-1.0614,-0.7805,-0.6193,-0.5424,-0.2668,-0.2124,-0.4447,-0.4206,-0.3273,-0.6725
-0.8386,-0.826,-0.5559,-0.9549,-0.7054,-0.4218,-0.6947,-0.213,-0.3764,-0.595,-0.7143,-0.5445,-0.7354,-0.967,-0.6408,-1.0151,-0.8791,-0.2474,-0.9359,-1.0289,-1.1045,-0.8849,-0.7162,-0.6572,-0.3867,-0.3066,-0.5426,-0.4975,-0.2937,-0.7032
-0.8305,-0.8007,-0.5154,-0.9129,-0.6516,-0.4011,-0.6814,-0.2049,-0.3803,-0.5898,-0.716,-0.5578,-0.7374,-0.938,-0.6275,-0.9857,-0.8567,-0.2697,-0.9593,-1.0022,-1.0887,-0.9554,-0.7901,-0.744,-0.4951,-0.3792,-0.6062,-0.5354,-0.244,-0.7037
-0.7982,-0.7393,-0.4505,-0.8353,-0.5682,-0.3615,-0.6324,-0.1858,-0.3625,-0.5508,-0.6765,-0.5297,-0.6975,-0.8579,-0.6041,-0.9197,-0.8065,-0.2846,-0.9484,-0.9347,-1.0187,-0.9874,-0.8338,-0.7965,-0.5838,-0.4284,-0.6341,-0.5344,-0.1849,-0.6771
-0.7476,-0.6446,-0.3699,-0.7297,-0.4658,-0.3076,-0.5525,-0.1593,-0.3268,-0.4846,-0.6053,-0.467,-0.6232,-0.7389,-0.5707,-0.8245,-0.7308,-0.2886,-0.9056,-0.8364,-0.9071,-0.9824,-0.8458,-0.8143,-0.6476,-0.4558,-0.6302,-0.5004,-0.1241,-0.6294
-0.6849,-0.5235,-0.284,-0.6061,-0.3567,-0.2461,-0.4502,-0.1289,-0.2781,-0.4,-0.5139,-0.3802,-0.5264,-0.5983,-0.5281,-0.711,-0.6353,-0.2796,-0.8376,-0.7204,-0.7709,-0.9471,-0.8297,-0.8014,-0.6846,-0.4657,-0.6027,-0.4438,-0.0683,-0.5675
-0.6145,-0.385,-0.2023,-0.4747,-0.252,-0.1833,-0.3358,-0.0977,-0.2211,-0.3064,-0.4137,-0.2819,-0.421,-0.4548,-0.4768,-0.5906,-0.5276,-0.256,-0.753,-0.5992,-0.6281,-0.8906,-0.7919,-0.7652,-0.696,-0.4641,-0.5616,-0.378,-0.0216,-0.4973
-0.5374,-0.2385,-0.1314,-0.3433,-0.1597,-0.1244,-0.2207,-0.068,-0.1605,-0.2127,-0.3146,-0.1845,-0.3204,-0.3242,-0.416,-0.4716,-0.4151,-0.2163,-0.6593,-0.4823,-0.493,-0.8213,-0.7393,-0.7141,-0.685,-0.4568,-0.5167,-0.3158,0.0148,-0.4218
-0.4511,-0.0919,-0.0736,-0.2162,-0.0834,-0.0717,-0.1157,-0.0414,-0.1007,-0.1267,-0.2243,-0.0993,-0.2347,-0.217,-0.3434,-0.3572,-0.3018,-0.1591,-0.5607,-0.3736,-0.374,-0.7446,-0.6764,-0.6555,-0.6561,-0.4484,-0.4755,-0.268,0.0428,-0.3408
-0.351,0.0494,-0.0262,-0.0939,-0.0222,-0.0253,-0.0297,-0.0189,-0.0462,-0.0545,-0.1486,-0.0348,-0.1697,-0.1361,-0.2558,-0.2448,-0.1873,-0.083,-0.4565,-0.2718,-0.2722,-0.6609,-0.6043,-0.5939,-0.6133,-0.4414,-0.4421,-0.241,0.0664,-0.2516
-0.2329,0.1829,0.0169,0.0259,0.0282,0.017,0.0316,-0.0016,-0.0008,-0.0001,-0.0905,0.0041,-0.1261,-0.0783,-0.1504,-0.1274,-0.067,0.0129,-0.3419,-0.171,-0.1827,-0.5667,-0.5204,-0.5308,-0.5602,-0.4358,-0.4172,-0.2361,0.0904,-0.1498
-0.0948,0.3085,0.0633,0.1464,0.0735,0.0584,0.0664,0.0098,0.0324,0.0346,-0.051,0.0164,-0.1003,-0.0354,-0.0262,0.0034,0.0665,0.128,-0.2102,-0.0636,-0.097,-0.456,-0.4198,-0.465,-0.4988,-0.4297,-0.3978,-0.2496,0.1197,-0.0319
0.0608,0.4279,0.12,0.2702,0.1197,0.1019,0.0774,0.015,0.0519,0.051,-0.0282,0.0055,-0.0856,0.0025,0.1149,0.1546,0.2203,0.2601,-0.0554,0.0571,-0.0062,-0.3232,-0.2968,-0.3933,-0.4305,-0.4196,-0.379,-0.2736,0.1577,0.1035
0.2273,0.5428,0.1907,0.3978,0.1709,0.1501,0.0707,0.0141,0.0581,0.0527,-0.0181,-0.0216,-0.0742,0.0446,0.2681,0.3285,0.3978,0.4044,0.1249,0.1942,0.0962,-0.165,-0.1479,-0.3123,-0.3552,-0.401,-0.3548,-0.2978,0.2059,0.2545
0.395,0.6544,0.275,0.5278,0.2293,0.2039,0.0553,0.0082,0.0532,0.0461,-0.0145,-0.0552,-0.0582,0.0972,0.4266,0.5216,0.5974,0.5534,0.328,0.3466,0.2122,0.0173,0.0275,-0.2191,-0.2722,-0.3693,-0.3195,-0.3114,0.2625,0.4154
0.5524,0.7626,0.3675,0.6562,0.2947,0.2629,0.041,-0.0011,0.0409,0.0382,-0.0105,-0.0847,-0.0309,0.1628,0.5825,0.7245,0.8111,0.6973,0.5455,0.5087,0.3397,0.2173,0.225,-0.1126,-0.1806,-0.3205,-0.2683,-0.3043,0.3227,0.5775
0.6888,0.8652,0.459,0.7781,0.3647,0.3253,0.0368,-0.0122,0.0249,0.0363,0.0003,-0.1008,0.0121,0.2406,0.7288,0.9231,1.0258,0.8246,0.7645,0.671,0.4725,0.4248,0.436,0.0064,-0.0794,-0.2517,-0.1988,-0.2698,0.3791,0.7297
0.795,0.9584,0.5379,0.8879,0.4359,0.3881,0.0491,-0.0234,0.0085,0.0458,0.0221,-0.0968,0.0724,0.3268,0.8592,1.1017,1.225,0.9236,0.9694,0.8226,0.6021,0.6266,0.6479,0.135,0.0315,-0.1623,-0.1109,-0.2052,0.4234,0.8606
0.8656,1.0374,0.593,0.9805,0.5045,0.4481,0.081,-0.0336,-0.0059,0.0702,0.0564,-0.0705,0.1489,0.4159,0.9685,1.2455,1.3922,0.9844,1.1443,0.953,0.72,0.8094,0.8463,0.268,0.1503,-0.0548,-0.0069,-0.1128,0.4484,0.9596
0.8991,1.0968,0.6164,1.0517,0.5676,0.5023,0.1316,-0.0423,-0.0175,0.1099,0.1017,-0.024,0.238,0.5021,1.0522,1.3441,1.5131,1.0009,1.2762,1.0538,0.8189,0.9613,1.0171,0.3987,0.2733,0.0656,0.1084,0.0003,0.4494,1.0189
0.8984,1.1318,0.6056,1.0989,0.6239,0.5486,0.1976,-0.0492,-0.0263,0.1635,0.1539,0.0369,0.3344,0.5805,1.1067,1.3929,1.579,0.9721,1.3563,1.1201,0.8947,1.0744,1.149,0.5201,0.3943,0.1904,0.2292,0.1242,0.426,1.0343
0.8708,1.1396,0.5642,1.1215,0.674,0.5863,0.2742,-0.054,-0.0325,0.2279,0.2081,0.1046,0.4327,0.6484,1.1302,1.394,1.5877,0.9034,1.3828,1.1518,0.9468,1.1459,1.2352,0.6258,0.5062,0.3098,0.349,0.2472,0.3819,1.0067
0.8257,1.12,0.5011,1.121,0.7202,0.616,0.3567,-0.0558,-0.0363,0.2993,0.2592,0.1718,0.5283,0.7059,1.1241,1.3565,1.545,0.8054,1.3609,1.1531,0.9785,1.1791,1.275,0.7121,0.6018,0.4144,0.4627,0.3594,0.324,0.9415
0.7736,1.0763,0.4291,1.1016,0.7661,0.6395,0.4417,-0.0536,-0.0373,0.3744,0.3036,0.2333,0.6188,0.7562,1.0932,1.2943,1.464,0.6935,1.3029,1.1327,0.9968,1.1828,1.2745,0.7789,0.6755,0.4973,0.5668,0.4538,0.2608,0.8492
0.7239,1.0162,0.3615,1.0704,0.816,0.6597,0.5276,-0.0457,-0.0349,0.4506,0.3392,0.2867,0.7051,0.8059,1.0459,1.2248,1.3636,0.5848,1.2267,1.1028,1.0114,1.1708,1.2454,0.8299,0.725,0.5555,0.6601,0.5275,0.2005,0.7431
0.6844,0.9514,0.3102,1.0368,0.8738,0.6796,0.6143,-0.031,-0.0287,0.526,0.366,0.3323,0.7903,0.8631,0.9932,1.166,1.266,0.4961,1.1535,1.0769,1.0332,1.1591,1.203,0.8719,0.7512,0.5901,0.7431,0.5818,0.1493,0.6379
0.66,0.8959,0.2836,1.0117,0.9424,0.7027,0.7023,-0.009,-0.0186,0.5987,0.3846,0.3722,0.8783,0.9356,0.946,1.1337,1.1918,0.4406,1.1032,1.0683,1.072,1.1629,1.1631,0.9123,0.7579,0.6061,0.817,0.6198,0.1103,0.5471
0.6531,0.8635,0.2858,1.0055,1.022,0.7317,0.7909,0.0194,-0.0053,0.6666,0.3961,0.4083,0.9721,1.0275,0.9142,1.1388,1.1567,0.4255,1.0913,1.0865,1.1338,1.193,1.1384,0.9564,0.751,0.61,0.882,0.6457,0.0829,0.4813
0.6633,0.8651,0.3162,1.0259,1.1096,0.7681,0.8778,0.0521,0.0095,0.7259,0.4012,0.4414,1.0708,1.1378,0.904,1.1851,1.1676,0.4499,1.1249,1.1353,1.219,1.2529,1.1359,1.0055,0.7362,0.6079,0.9363,0.6623,0.0645,0.4458
0.6879,0.9055,0.3702,1.0753,1.1986,0.8116,0.9575,0.0861,0.0236,0.7717,0.3995,0.4704,1.169,1.2586,0.917,1.2683,1.2206,0.5052,1.2015,1.2117,1.3215,1.3378,1.1553,1.0555,0.7183,0.6042,0.9762,0.6702,0.0513,0.4404
0.7222,0.9819,0.4401,1.15,1.2794,0.8594,1.0226,0.1175,0.0347,0.798,0.3906,0.4925,1.257,1.376,0.9495,1.3761,1.3023,0.5762,1.309,1.3056,1.4287,1.4352,1.1893,1.0982,0.7,0.5998,0.9958,0.668,0.0403,0.4594
0.7595,1.0836,0.5159,1.24,1.3407,0.9061,1.0643,0.1424,0.0404,0.7992,0.3734,0.5038,1.3221,1.4729,0.9928,1.49,1.392,0.6449,1.428,1.4018,1.5239,1.5274,1.226,1.123,0.6814,0.5928,0.9891,0.6529,0.0301,0.4925
0.7916,1.1931,0.5864,1.3302,1.3719,0.9443,1.0744,0.1571,0.0388,0.7714,0.3467,0.501,1.3521,1.5327,1.0348,1.5891,1.4661,0.6942,1.5359,1.4832,1.5898,1.5961,1.2517,1.1203,0.6613,0.5794,0.9516,0.6218,0.0209,0.5273
0.8096,1.2893,0.6407,1.4034,1.3651,0.9651,1.0469,0.1583,0.028,0.7137,0.3098,0.4815,1.3377,1.543,1.0628,1.6539,1.5029,0.7113,1.6111,1.534,1.6116,1.6257,1.2547,1.0839,0.6373,0.5553,0.8821,0.5731,0.0135,0.5511
0.8055,1.3522,0.6699,1.444,1.3173,0.9605,0.98,0.1439,0.0064,0.6289,0.2619,0.4452,1.2761,1.499,1.0675,1.6709,1.4878,0.6902,1.6377,1.5436,1.5813,1.6077,1.2279,1.013,0.6082,0.518,0.7843,0.508,0.0083,0.5541
0.7745,1.3676,0.669,1.442,1.2327,0.9256,0.8774,0.1128,-0.027,0.5237,0.203,0.3941,1.1715,1.4055,1.046,1.6357,1.4165,0.6334,1.6093,1.5093,1.4993,1.5421,1.1709,0.9129,0.5741,0.4679,0.6668,0.4307,0.004,0.5322
0.7175,1.3318,0.6388,1.3959,1.1226,0.8614,0.7482,0.0662,-0.0721,0.4083,0.1339,0.3323,1.0359,1.276,1.0045,1.5552,1.2978,0.5516,1.5307,1.4376,1.3759,1.4386,1.0903,0.7945,0.5382,0.4098,0.5429,0.3491,-0.002,0.488
0.6424,1.2537,0.5869,1.3152,1.0049,0.7765,0.6066,0.0077,-0.1273,0.2949,0.0575,0.266,0.8874,1.1317,0.9577,1.4471,1.1525,0.4623,1.4185,1.3441,1.2301,1.3155,0.9995,0.6729,0.5057,0.3516,0.4284,0.2732,-0.013,0.4319
0.564,1.155,0.5274,1.2191,0.9025,0.6873,0.4706,-0.0564,-0.1882,0.1966,-0.0212,0.2022,0.7471,0.9974,0.9266,1.3369,1.0111,0.3881,1.2986,1.2507,1.0875,1.1968,0.9166,0.5651,0.4835,0.3039,0.3394,0.2139,-0.0306,0.3803
0.5021,1.0663,0.479,1.1342,0.8398,0.6167,0.36,-0.1175,-0.248,0.1261,-0.0945,0.1483,0.6367,0.8988,0.9331,1.2543,0.9085,0.3534,1.2025,1.1832,0.9761,1.1091,0.8621,0.4882,0.479,0.2774,0.2895,0.1815,-0.054,0.3524
0.4772,1.0219,0.4623,1.0905,0.8394,0.5906,0.2944,-0.1651,-0.2973,0.0946,-0.1524,0.1118,0.5753,0.8581,0.995,1.2278,0.8786,0.3811,1.162,1.1664,0.9229,1.0777,0.8565,0.4569,0.4988,0.2818,0.2884,0.1835,-0.0782,0.366
0.5064,1.0528,0.4959,1.1154,0.9194,0.6337,0.291,-0.1885,-0.3246,0.111,-0.1837,0.0995,0.5775,0.892,1.1219,1.2802,0.9485,0.4888,1.2043,1.221,0.9497,1.123,0.9182,0.4826,0.5482,0.3239,0.3408,0.2243,-0.0944,0.4339
0.5998,1.1815,0.5935,1.2303,1.0904,0.765,0.3625,-0.178,-0.3186,0.181,-0.1775,0.1172,0.6521,1.0102,1.313,1.426,1.1349,0.686,1.348,1.3613,1.0707,1.2585,1.061,0.5724,0.6305,0.407,0.4463,0.3041,-0.0908,0.561
0.7599,1.4183,0.7615,1.4472,1.3559,0.995,0.5153,-0.1267,-0.2696,0.3071,-0.1256,0.1691,0.8016,1.2149,1.5582,1.6709,1.4423,0.9728,1.6016,1.5942,1.2916,1.4896,1.2935,0.729,0.7473,0.5305,0.6005,0.4199,-0.0546,0.7446
0.9826,1.7609,0.999,1.768,1.7122,1.3234,0.7489,-0.0322,-0.1726,0.4877,-0.0245,0.2565,1.0231,1.5019,1.842,2.0128,1.8637,1.3391,1.9637,1.9201,1.6104,1.8151,1.6177,0.9508,0.8982,0.6903,0.796,0.5659,0.0253,0.9758
1.2607,2.1966,1.2986,2.1851,2.1502,1.7399,1.0553,0.1021,-0.0286,0.7169,0.1231,0.3774,1.3088,1.8619,2.1466,2.4445,2.3831,1.767,2.4247,2.3342,2.0187,2.2274,2.0293,1.2322,1.0814,0.8794,1.0236,0.7342,0.1555,1.2418
1.5868,2.7062,1.648,2.6836,2.6568,2.2254,1.4193,0.2668,0.1535,0.9845,0.3082,0.5257,1.6471,2.2819,2.4559,2.9551,2.9779,2.2332,2.9691,2.8276,2.5034,2.7148,2.5172,1.5641,1.2928,1.0881,1.2732,0.9157,0.336,1.5292
1.9539,3.268,2.0315,3.2438,3.2154,2.7554,1.8207,0.447,0.3583,1.2759,0.5161,0.6918,2.0232,2.7459,2.7572,3.5319,3.6227,2.7126,3.5777,3.3879,3.0476,3.2619,3.0645,1.9337,1.5265,1.3054,1.5345,1.101,0.5595,1.8262
2.3554,3.8609,2.4313,3.8423,3.8063,3.3021,2.2349,0.6247,0.5653,1.5732,0.7291,0.8635,2.4204,3.2358,3.0413,4.1596,4.2914,3.182,4.2288,3.9987,3.6314,3.85,3.6489,2.325,1.7739,1.5196,1.7967,1.2806,0.8118,2.123
2.7827,4.4659,2.8281,4.4539,4.4061,3.837,2.6366,0.7814,0.7524,1.8571,0.9281,1.0273,2.8205,3.7315,3.3013,4.8194,4.96,3.622,4.899,4.6391,4.2318,4.4572,4.2443,2.7197,2.0243,1.7188,2.0493,1.4459,1.0746,2.4118
3.2222,5.0644,3.2018,5.0517,4.987,4.3323,3.0009,0.9014,0.8996,2.1083,1.0959,1.1704,3.2047,4.2116,3.5314,5.4877,5.6063,4.0177,5.5627,5.2833,4.8226,5.0578,4.8218,3.0978,2.265,1.8919,2.2813,1.5888,1.3276,2.6855
3.6542,5.6369,3.5318,5.6069,5.518,4.762,3.3062,0.9736,0.9925,2.31,1.2191,1.2821,3.5541,4.6537,3.7257,6.1352,6.2099,4.3574,6.1927,5.9005,5.3749,5.6232,5.3516,3.4385,2.4822,2.0292,2.4821,1.7026,1.5518,2.9356
4.0529,6.161,3.7987,6.09,5.966,5.1027,3.5356,0.9939,1.0242,2.4493,1.2889,1.355,3.8512,5.0357,3.8785,6.7278,6.7508,4.6314,6.7597,6.4571,5.8584,6.1225,5.8049,3.7219,2.662,2.1231,2.6413,1.7822,1.7322,3.1519
4.3895,6.6112,3.9866,6.4725,6.2997,5.3358,3.6781,0.9647,0.9963,2.519,1.3027,1.3863,4.0804,5.3367,3.9859,7.2296,7.2085,4.8315,7.2352,6.919,6.2437,6.5257,6.1571,3.9306,2.7925,2.169,2.75,1.8248,1.8594,3.3234
4.6375,6.9607,4.0849,6.7305,6.4944,5.4492,3.7293,0.8938,0.918,2.5186,1.2635,1.3776,4.2295,5.5397,4.048,7.6075,7.5624,4.951,7.5936,7.2569,6.506,6.807,6.3897,4.0518,2.8648,2.1659,2.802,1.8306,1.9298,3.4404
4.778,7.1855,4.0906,6.8482,6.5362,5.4397,3.6917,0.793,0.8042,2.4536,1.1799,1.335,4.2917,5.6332,4.0702,7.8364,7.7938,4.9865,7.8158,7.45,6.6289,6.9487,6.4936,4.079,2.8751,2.1172,2.7955,1.8028,1.9458,3.4972
4.8046,7.2686,4.0092,6.8215,6.4261,5.3149,3.5746,0.6757,0.6723,2.3358,1.0652,1.2683,4.2665,5.6142,4.0631,7.9037,7.8878,4.9393,7.8922,7.491,6.6085,6.9449,6.4697,4.0141,2.8255,2.0305,2.7339,1.748,1.9136,3.494
4.7255,7.2035,3.8549,6.6599,6.1808,5.0928,3.3934,0.5545,0.5399,2.181,0.9355,1.1899,4.1609,5.4899,4.0393,7.8122,7.8373,4.816,7.8249,7.3875,6.4557,6.8028,6.3286,3.8673,2.7235,1.9175,2.6263,1.6756,1.8421,3.4373
4.5632,6.9976,3.6482,6.3859,5.8314,4.7996,3.1682,0.4401,0.4219,2.0078,0.8081,1.1127,3.9895,5.2776,4.0103,7.5805,7.6452,4.6282,7.6271,7.1616,6.1951,6.5425,6.0893,3.6566,2.5817,1.7922,2.4865,1.5965,1.7418,3.3388
4.3508,6.6723,3.4133,6.0321,5.4186,4.4663,2.9215,0.3406,0.3296,1.8349,0.6996,1.0488,3.7724,5.0035,3.9819,7.2403,7.3264,4.3903,7.3222,6.8468,5.8621,6.1938,5.7755,3.4052,2.4149,1.6692,2.3317,1.522,1.6234,3.2136
4.1257,6.2616,3.1748,5.6363,4.986,4.1234,2.6761,0.2612,0.27,1.6796,0.6234,1.0077,3.5332,4.6983,3.9519,6.8321,6.9076,4.1182,6.9407,6.4822,5.4968,5.7918,5.4124,3.1385,2.2382,1.5609,2.1792,1.4619,1.4984,3.0772
3.9233,5.8082,2.9537,5.2363,4.5734,3.7967,2.4527,0.205,0.246,1.5557,0.5884,0.9951,3.2956,4.3932,3.9112,6.3996,6.4255,3.8273,6.5163,6.1065,5.1372,5.372,5.0239,2.8804,2.0643,1.4761,2.0441,1.4228,1.3776,2.9442
3.7697,5.3575,2.7655,4.8649,4.2113,3.5042,2.2676,0.1738,0.2576,1.4725,0.5976,1.0121,3.0803,4.1152,3.8468,5.9829,5.9226,3.5318,6.0828,5.7525,4.8134,4.9659,4.6312,2.6505,1.9023,1.418,1.9372,1.4077,1.2716,2.8255
3.6774,4.9513,2.618,4.5459,3.9182,3.2552,2.1321,0.1682,0.3018,1.4339,0.6486,1.0555,2.9034,3.8842,3.7472,5.6137,5.4418,3.2433,5.6698,5.4427,4.5443,4.5984,4.2517,2.4622,1.7569,1.3845,1.8638,1.4148,1.1894,2.7281
3.6431,4.6209,2.5114,4.2923,3.7,3.0513,2.0515,0.1888,0.3742,1.4392,0.7336,1.1184,2.7747,3.7119,3.607,5.3113,5.0198,2.9706,5.3007,5.1882,4.3367,4.2862,3.8999,2.3228,1.6293,1.3686,1.824,1.4385,1.1374,2.6534
3.649,4.382,2.4388,4.1063,3.5523,2.8885,2.0252,0.2347,0.4684,1.483,0.8411,1.191,2.6979,3.6019,3.4295,5.0809,4.6811,2.7193,4.9902,4.9893,4.1884,4.0385,3.5877,2.2336,1.5183,1.3612,1.8133,1.4705,1.1184,2.5977
3.6676,4.2332,2.3884,3.981,3.4642,2.7601,2.0479,0.304,0.5768,1.5559,0.9572,1.2623,2.6715,3.5518,3.2261,4.915,4.4348,2.4917,4.7443,4.8388,4.091,3.8578,3.3255,2.1915,1.4222,1.3525,1.8244,1.5011,1.1306,2.5526
3.6683,4.1572,2.3462,3.9031,3.4211,2.6589,2.1096,0.3921,0.6905,1.6455,1.067,1.321,2.6885,3.5541,3.0133,4.7959,4.2733,2.2875,4.5605,4.7246,4.0339,3.7413,3.1215,2.1894,1.3396,1.3347,1.8484,1.5212,1.1666,2.5067
3.6249,4.1247,2.2988,3.8555,3.4081,2.5785,2.1961,0.4919,0.7989,1.7367,1.1562,1.3568,2.7379,3.5977,2.8076,4.7004,4.1751,2.1049,4.4294,4.6332,4.0065,3.682,2.9814,2.2175,1.2701,1.3033,1.8756,1.5231,1.2141,2.4471
3.521,4.1006,2.2364,3.82,3.4111,2.5142,2.2903,0.5935,0.891,1.8135,1.2118,1.3608,2.8047,3.6675,2.6208,4.603,4.1096,1.9427,4.3361,4.5506,3.9981,3.6684,2.9066,2.2631,1.2139,1.2565,1.8959,1.5013,1.2569,2.3618
3.3522,4.0498,2.1539,3.779,3.417,2.4622,2.3732,0.6849,0.9555,1.8598,1.2231,1.3265,2.8708,3.7453,2.4566,4.4801,4.0427,1.8009,4.2615,4.4633,3.9974,3.6852,2.8926,2.3113,1.1708,1.1954,1.8996,1.4524,1.2772,2.2409
3.1245,3.9432,2.0512,3.7169,3.414,2.4188,2.4258,0.7544,0.9826,1.8619,1.1826,1.2503,2.9169,3.8101,2.3098,4.3124,3.9425,1.6807,4.1848,4.3574,3.9913,3.7141,2.9278,2.3463,1.1392,1.1222,1.8775,1.3756,1.2582,2.0782
2.8496,3.7611,1.9318,3.6204,3.3911,2.3797,2.4314,0.7915,0.9655,1.81,1.0871,1.1317,2.9249,3.8409,2.1674,4.0855,3.7842,1.5837,4.0851,4.219,3.9648,3.7347,2.9945,2.353,1.1163,1.0396,1.8222,1.2715,1.187,1.8709
2.5403,3.4951,1.7997,3.4797,3.338,2.3393,2.3779,0.7894,0.9013,1.7,0.9379,0.974,2.8806,3.8193,2.012,3.7915,3.5519,1.5101,3.9435,4.0353,3.9024,3.7274,3.0708,2.3196,1.0978,0.9498,1.7292,1.1431,1.0567,1.6197
2.2065,3.1478,1.6577,3.2888,3.2462,2.2901,2.2598,0.7459,0.7916,1.5341,0.741,0.7836,2.7764,3.7331,1.8257,3.4289,3.2401,1.4574,3.7456,3.7959,3.7905,3.6753,3.1331,2.2398,1.0791,0.8549,1.5982,0.9947,0.8672,1.3281
1.8538,2.7316,1.5057,3.0457,3.1101,2.2243,2.079,0.664,0.6426,1.3206,0.5069,0.5694,2.6128,3.5788,1.5944,3.0024,2.8531,1.4197,3.4836,3.4956,3.621,3.5671,3.1605,2.1135,1.0563,0.7566,1.4337,0.8324,0.6248,1.0017
1.484,2.266,1.3407,2.7537,2.9278,2.1343,1.8444,0.5513,0.4642,1.0722,0.249,0.342,2.3978,3.3627,1.3108,2.523,2.4039,1.3889,3.1574,3.1364,3.3931,3.3988,3.1374,1.9469,1.0269,0.6564,1.2445,0.6628,0.3415,0.6487
1.0973,1.775,1.1588,2.4205,2.7015,2.0144,1.5704,0.4185,0.2687,0.8043,-0.018,0.1117,2.1457,3.0992,0.9756,2.007,1.9119,1.3556,2.7753,2.7277,3.1142,3.1734,3.0559,1.7514,0.9902,0.5557,1.0422,0.4925,0.0321,0.2793
0.6938,1.2839,0.9568,2.0579,2.4379,1.8621,1.2743,0.2776,0.0691,0.5323,-0.2799,-0.1123,1.8738,2.8078,0.5979,1.474,1.3998,1.3108,2.3512,2.2856,2.7985,2.9003,2.9155,1.5402,0.9465,0.4554,0.8393,0.3272,-0.2872,-0.0943
0.2755,0.8162,0.7341,1.6803,2.1462,1.6786,0.9739,0.1404,-0.1224,0.2699,-0.5238,-0.3233,1.5995,2.5087,0.1928,0.9445,0.8906,1.2472,1.9028,1.83,2.4635,2.5922,2.7225,1.3264,0.8964,0.3558,0.6468,0.1704,-0.6011,-0.4586
-0.153,0.3902,0.4935,1.3021,1.8372,1.4685,0.6848,0.0165,-0.2948,0.0278,-0.7397,-0.5168,1.337,2.219,-0.2203,0.4367,0.4035,1.1589,1.4472,1.3809,2.1269,2.2627,2.487,1.1203,0.8403,0.2569,0.4722,0.0239,-0.8964,-0.8007
-0.5834,0.0164,0.2411,0.936,1.521,1.2393,0.4189,-0.0875,-0.4398,-0.1869,-0.9199,-0.6901,1.0954,1.9491,-0.6208,-0.0363,-0.0489,1.0416,0.9984,0.9544,1.8023,1.9235,2.2205,0.9284,0.7777,0.1583,0.3193,-0.1121,-1.1629,-1.1095
-1.0038,-0.3036,-0.0148,0.5906,1.2058,0.9995,0.1835,-0.1687,-0.5513,-0.3702,-1.0598,-0.8417,0.878,1.7017,-0.9897,-0.468,-0.462,0.8915,0.5651,0.5605,1.4971,1.5832,1.9341,0.7527,0.7078,0.0604,0.1878,-0.2381,-1.3936,-1.3773
-1.3991,-0.5767,-0.2645,0.2698,0.8971,0.7578,-0.0187,-0.2275,-0.6265,-0.5209,-1.1574,-0.9704,0.683,1.4726,-1.3112,-0.8584,-0.8386,0.7061,0.1506,0.2017,1.2125,1.2463,1.6368,0.5918,0.6294,-0.0356,0.0745,-0.3546,-1.5846,-1.6004
-1.7522,-0.8151,-0.4982,-0.026,0.598,0.5212,-0.1886,-0.2674,-0.6649,-0.6396,-1.2136,-1.0748,0.5043,1.2526,-1.574,-1.2116,-1.1861,0.4848,-0.2452,-0.1251,0.9442,0.915,1.3354,0.4418,0.5424,-0.1272,-0.0254,-0.461,-1.7344,-1.7784
-2.0463,-1.0318,-0.7064,-0.2984,0.311,0.2957,-0.3288,-0.2941,-0.6693,-0.7276,-1.2312,-1.1528,0.3347,1.0314,-1.7723,-1.5319,-1.5121,0.2306,-0.6232,-0.4254,0.6863,0.5906,1.0353,0.2984,0.448,-0.2108,-0.1162,-0.5552,-1.8432,-1.9127
-2.2658,-1.2351,-0.8805,-0.5476,0.0392,0.0862,-0.4427,-0.3142,-0.6446,-0.7867,-1.2152,-1.2023,0.1682,0.8011,-1.9051,-1.8207,-1.8193,-0.0488,-0.981,-0.7037,0.4344,0.2762,0.7421,0.1581,0.3495,-0.282,-0.2005,-0.6343,-1.912,-2.0045
-2.3985,-1.425,-1.0128,-0.7705,-0.212,-0.103,-0.5327,-0.3344,-0.5976,-0.8185,-1.1717,-1.2213,0.0023,0.56,-1.9761,-2.0733,-2.1027,-0.3398,-1.3111,-0.9595,0.189,-0.0216,0.4629,0.02,0.2517,-0.3364,-0.2784,-0.6943,-1.942,-2.0536
-2.436,-1.5925,-1.0974,-0.9592,-0.4341,-0.2671,-0.5998,-0.3596,-0.5362,-0.8239,-1.1072,-1.2085,-0.1612,0.313,-1.9922,-2.279,-2.3495,-0.6245,-1.6001,-1.1865,-0.0434,-0.2925,0.2062,-0.1144,0.1606,-0.3702,-0.3474,-0.7312,-1.9342,-2.0576
-2.3754,-1.7216,-1.1305,-1.1026,-0.6171,-0.4018,-0.6434,-0.393,-0.4684,-0.8043,-1.0282,-1.1646,-0.3164,0.0718,-1.9626,-2.4232,-2.5411,-0.8823,-1.8313,-1.373,-0.2511,-0.524,-0.0189,-0.2417,0.0815,-0.3816,-0.4035,-0.7423,-1.8897,-2.013
-2.2204,-1.7932,-1.1119,-1.189,-0.7508,-0.5033,-0.6625,-0.435,-0.402,-0.7615,-0.9406,-1.093,-0.4548,-0.1483,-1.8976,-2.4915,-2.6585,-1.0941,-1.988,-1.5056,-0.4203,-0.704,-0.2049,-0.3576,0.0174,-0.3718,-0.443,-0.7269,-1.8098,-1.9172
-1.9821,-1.7906,-1.0447,-1.2092,-0.8276,-0.569,-0.6569,-0.4836,-0.3431,-0.6986,-0.8499,-1.0001,-0.5679,-0.3319,-1.8067,-2.4743,-2.6874,-1.2458,-2.0588,-1.5728,-0.5384,-0.8245,-0.348,-0.4587,-0.032,-0.3455,-0.4647,-0.688,-1.6975,-1.7699
-1.679,-1.7044,-0.9358,-1.16,-0.8454,-0.599,-0.6277,-0.5346,-0.2959,-0.6205,-0.7612,-0.8953,-0.6496,-0.4676,-1.6982,-2.3699,-2.6229,-1.332,-2.0408,-1.569,-0.5986,-0.8842,-0.4501,-0.5435,-0.0708,-0.3108,-0.4704,-0.6315,-1.5572,-1.576
-1.3354,-1.5356,-0.7948,-1.0466,-0.8087,-0.5957,-0.5789,-0.5828,-0.2625,-0.5338,-0.6791,-0.7898,-0.6977,-0.5515,-1.579,-2.1874,-2.4717,-1.357,-1.9426,-1.4979,-0.6026,-0.8907,-0.5191,-0.613,-0.106,-0.2786,-0.4657,-0.5666,-1.3958,-1.3458
-0.9791,-1.2975,-0.6338,-0.8824,-0.7295,-0.5648,-0.5167,-0.6226,-0.2428,-0.4464,-0.6079,-0.6951,-0.7154,-0.5881,-1.4552,-1.9469,-2.2526,-1.3344,-1.7841,-1.3735,-0.5619,-0.8592,-0.568,-0.6707,-0.1461,-0.2597,-0.4588,-0.504,-1.2228,-1.096
-0.6383,-1.0144,-0.4662,-0.6885,-0.6257,-0.5151,-0.4499,-0.6496,-0.2349,-0.3667,-0.5513,-0.6211,-0.7101,-0.5901,-1.333,-1.678,-1.9946,-1.2846,-1.5941,-1.2195,-0.4971,-0.8112,-0.6125,-0.7217,-0.1989,-0.2636,-0.4583,-0.4538,-1.0503,-0.8476
-0.3389,-0.7195,-0.3057,-0.4912,-0.5197,-0.4575,-0.3885,-0.6607,-0.2354,-0.3028,-0.5112,-0.5743,-0.693,-0.5761,-1.2199,-1.4167,-1.7334,-1.2305,-1.4066,-1.0663,-0.4349,-0.7703,-0.668,-0.7715,-0.2693,-0.2954,-0.4718,-0.4243,-0.8921,-0.6242
-0.1021,-0.4497,-0.1653,-0.3184,-0.4345,-0.4043,-0.3426,-0.655,-0.241,-0.2611,-0.4881,-0.5573,-0.6766,-0.5671,-1.1252,-1.2002,-1.5068,-1.1939,-1.2555,-0.9466,-0.4038,-0.7584,-0.7472,-0.8248,-0.3585,-0.3555,-0.5035,-0.4197,-0.7623,-0.4485
0.0562,-0.2409,-0.0568,-0.1961,-0.3913,-0.3683,-0.3216,-0.6341,-0.2487,-0.2462,-0.4804,-0.5683,-0.6728,-0.5828,-1.0595,-1.0624,-1.3497,-1.1913,-1.17,-0.8909,-0.4295,-0.7924,-0.8574,-0.8845,-0.4636,-0.4388,-0.5537,-0.4401,-0.6736,-0.3394
0.1269,-0.123,0.0107,-0.1456,-0.4068,-0.3612,-0.3324,-0.6012,-0.257,-0.2605,-0.4848,-0.6023,-0.6919,-0.6393,-1.0337,-1.029,-1.2891,-1.2318,-1.1702,-0.923,-0.5312,-0.8819,-1.0003,-0.9517,-0.5787,-0.5365,-0.6195,-0.4816,-0.635,-0.3085
0.1076,-0.116,0.0307,-0.1813,-0.4916,-0.3932,-0.3797,-0.5607,-0.2656,-0.3037,-0.4976,-0.6527,-0.7409,-0.7465,-1.0569,-1.1142,-1.3405,-1.3168,-1.265,-1.0566,-0.719,-1.0283,-1.1725,-1.0259,-0.6967,-0.6377,-0.6952,-0.538,-0.6502,-0.3591
0.0021,-0.228,-0.0001,-0.3091,-0.6496,-0.4715,-0.465,-0.5172,-0.2751,-0.3739,-0.5154,-0.7126,-0.8236,-0.9083,-1.1355,-1.319,-1.5062,-1.4407,-1.4523,-1.2944,-0.993,-1.2261,-1.3665,-1.106,-0.811,-0.7324,-0.7751,-0.6021,-0.7166,-0.4855
-0.1812,-0.454,-0.0812,-0.5267,-0.8779,-0.5992,-0.5868,-0.4747,-0.2869,-0.4677,-0.5363,-0.7762,-0.9405,-1.1231,-1.2711,-1.6319,-1.7756,-1.5931,-1.7204,-1.628,-1.3445,-1.4647,-1.5734,-1.1909,-0.9173,-0.8135,-0.8541,-0.6679,-0.8257,-0.6746
-0.4306,-0.778,-0.2084,-0.8237,-1.1677,-0.7749,-0.7405,-0.4361,-0.3024,-0.5806,-0.5607,-0.84,-1.089,-1.3843,-1.4604,-2.0316,-2.1275,-1.7619,-2.0513,-2.0406,-1.7572,-1.7318,-1.7844,-1.2804,-1.0138,-0.8781,-0.9295,-0.7316,-0.9645,-0.9083
-0.7324,-1.1752,-0.3745,-1.1833,-1.5053,-0.992,-0.9191,-0.4024,-0.322,-0.7074,-0.5905,-0.9017,-1.2643,-1.6822,-1.6944,-2.4903,-2.5342,-1.9359,-2.4238,-2.5088,-2.2102,-2.0147,-1.9925,-1.375,-1.1011,-0.9278,-1.0006,-0.7914,-1.1173,-1.1665
-1.0715,-1.6163,-0.5693,-1.5842,-1.8734,-1.2388,-1.1129,-0.373,-0.345,-0.8426,-0.6284,-0.9604,-1.4594,-2.0048,-1.9597,-2.9783,-2.966,-2.1067,-2.8169,-3.0067,-2.6804,-2.303,-2.1925,-1.4756,-1.1817,-0.9672,-1.0685,-0.8473,-1.269,-1.43
-1.431,-2.0712,-0.7809,-2.0036,-2.2533,-1.5006,-1.3108,-0.3456,-0.3689,-0.9802,-0.6763,-1.0153,-1.666,-2.3393,-2.2399,-3.4674,-3.395,-2.269,-3.2117,-3.5088,-3.1453,-2.5892,-2.3819,-1.5832,-1.2586,-1.0025,-1.1347,-0.9004,-1.4062,-1.6828
-1.792,-2.5131,-0.9965,-2.4191,-2.6268,-1.7612,-1.5012,-0.3171,-0.3898,-1.1137,-0.7341,-1.0654,-1.8752,-2.6736,-2.5178,-3.9341,-3.798,-2.4213,-3.593,-3.992,-3.5855,-2.8687,-2.5598,-1.6987,-1.3348,-1.0395,-1.201,-0.9519,-1.5194,-1.9131
-2.134,-2.921,-1.2036,-2.8118,-2.9782,-2.0059,-1.6735,-0.2843,-0.4031,-1.237,-0.7993,-1.1096,-2.0788,-2.9968,-2.7781,-4.3608,-4.1584,-2.5642,-3.9494,-4.4381,-3.9859,-3.1392,-2.727,-1.8224,-1.4126,-1.0829,-1.2683,-1.0028,-1.6031,-2.1141
-2.4362,-3.2803,-1.391,-3.167,-3.2953,-2.2231,-1.8191,-0.2453,-0.4042,-1.3447,-0.8669,-1.1465,-2.2701,-3.3,-3.0089,-4.7356,-4.4661,-2.6995,-4.2728,-4.8337,-4.3371,-3.3997,-2.8855,-1.9542,-1.4931,-1.135,-1.3373,-1.0537,-1.6557,-2.2831
-2.6802,-3.5824,-1.5495,-3.4747,-3.5704,-2.4056,-1.9327,-0.2001,-0.3902,-1.4328,-0.931,-1.1754,-2.4441,-3.5766,-3.2024,-5.0518,-4.7159,-2.8278,-4.5574,-5.1699,-4.6341,-3.6489,-3.0368,-2.0928,-1.5761,-1.1962,-1.408,-1.1049,-1.6785,-2.4202
-2.8515,-3.8232,-1.6724,-3.7288,-3.7989,-2.55,-2.0125,-0.1515,-0.3607,-1.4992,-0.9854,-1.1964,-2.5981,-3.821,-3.3533,-5.3051,-4.9068,-2.9476,-4.798,-5.4409,-4.8748,-3.8836,-3.1819,-2.2358,-1.6596,-1.2647,-1.4799,-1.1566,-1.6749,-2.5263
-2.9424,-4.0007,-1.756,-3.9252,-3.978,-2.6559,-2.0597,-0.1042,-0.3179,-1.5438,-1.0256,-1.2105,-2.7309,-4.0282,-3.4576,-5.4918,-5.0391,-3.0536,-4.989,-5.6417,-5.0576,-4.0974,-3.3193,-2.3788,-1.7401,-1.3372,-1.5522,-1.2086,-1.6488,-2.6012
-2.9517,-4.1138,-1.7994,-4.0608,-4.1051,-2.7246,-2.0773,-0.0646,-0.2667,-1.5675,-1.0487,-1.2195,-2.8416,-4.1926,-3.5109,-5.6071,-5.1134,-3.1376,-5.1233,-5.7671,-5.1795,-4.2804,-3.4443,-2.5154,-1.8125,-1.4088,-1.6233,-1.2605,-1.6037,-2.6422
-2.8848,-4.161,-1.8037,-4.1321,-4.1768,-2.7578,-2.0694,-0.039,-0.2136,-1.5721,-1.0539,-1.2247,-2.9288,-4.3071,-3.509,-5.6447,-5.1295,-3.1887,-5.1922,-5.8102,-5.2347,-4.4193,-3.549,-2.637,-1.8702,-1.4739,-1.6904,-1.311,-1.5416,-2.6445
-2.7522,-4.1403,-1.7717,-4.1362,-4.1887,-2.7568,-2.0395,-0.0323,-0.165,-1.5593,-1.0421,-1.2267,-2.9897,-4.3632,-3.4489,-5.5972,-5.0854,-3.1967,-5.1862,-5.764,-5.2148,-4.4993,-3.6225,-2.7337,-1.9064,-1.5264,-1.7492,-1.3577,-1.4632,-2.6022
-2.5679,-4.0504,-1.7069,-4.0715,-4.1369,-2.7228,-1.9906,-0.0473,-0.1268,-1.5305,-1.0153,-1.2251,-3.0198,-4.3528,-3.3307,-5.4586,-4.9789,-3.1546,-5.0975,-5.6225,-5.1114,-4.5067,-3.6527,-2.7951,-1.9143,-1.56,-1.7945,-1.3968,-1.3682,-2.5109
-2.3468,-3.8923,-1.6137,-3.9398,-4.0198,-2.6574,-1.9246,-0.0841,-0.1028,-1.4868,-0.9768,-1.218,-3.0139,-4.2695,-3.1591,-5.2274,-4.8088,-3.0621,-4.9225,-5.3845,-4.9189,-4.432,-3.6294,-2.8125,-1.8888,-1.5696,-1.8202,-1.4236,-1.257,-2.3707
-2.1035,-3.6716,-1.4972,-3.7476,-3.8402,-2.5633,-1.8427,-0.1402,-0.0948,-1.4296,-0.9303,-1.2033,-2.9674,-4.1111,-2.9439,-4.9095,-4.5767,-2.9267,-4.6645,-5.0555,-4.6377,-4.2729,-3.5468,-2.7805,-1.8275,-1.5518,-1.8209,-1.4329,-1.1325,-2.1875
-1.8506,-3.3983,-1.3633,-3.5066,-3.6064,-2.4448,-1.746,-0.2111,-0.1028,-1.3609,-0.88,-1.1786,-2.8773,-3.8814,-2.6994,-4.5193,-4.2896,-2.7635,-4.3355,-4.6495,-4.2762,-4.0361,-3.4054,-2.6985,-1.7316,-1.5056,-1.7923,-1.4201,-1.0008,-1.9737
-1.5977,-3.0873,-1.2188,-3.2318,-3.3314,-2.3074,-1.6355,-0.2906,-0.1247,-1.2826,-0.8296,-1.1419,-2.7434,-3.5895,-2.4431,-4.0785,-3.959,-2.5914,-3.9548,-4.1877,-3.8505,-3.7366,-3.213,-2.5706,-1.6062,-1.4326,-1.7321,-1.3814,-0.8713,-1.7464
-1.3514,-2.7556,-1.0718,-2.94,-3.0313,-2.1576,-1.5119,-0.3716,-0.1569,-1.1964,-0.7813,-1.0917,-2.568,-3.249,-2.1938,-3.6134,-3.6007,-2.4291,-3.5467,-3.6962,-3.3826,-3.3955,-2.983,-2.4046,-1.4591,-1.3363,-1.6397,-1.3145,-0.7548,-1.524
-1.1158,-2.4204,-0.9306,-2.6461,-2.7223,-2.0015,-1.3758,-0.447,-0.1942,-1.1026,-0.7348,-1.0263,-2.3551,-2.8757,-1.9685,-3.1505,-3.232,-2.2903,-3.1361,-3.2015,-2.8968,-3.0357,-2.7314,-2.2099,-1.2997,-1.221,-1.5154,-1.2181,-0.6608,-1.3227
-0.8935,-2.097,-0.8038,-2.3616,-2.4185,-1.8443,-1.2276,-0.5105,-0.231,-1.0005,-0.6876,-0.9443,-2.1098,-2.4844,-1.779,-2.712,-2.869,-2.1814,-2.7443,-2.7269,-2.4157,-2.6784,-2.474,-1.9954,-1.1367,-1.0909,-1.3604,-1.0922,-0.596,-1.1537
-0.6857,-1.7976,-0.6987,-2.0932,-2.1297,-1.6902,-1.0682,-0.5575,-0.2617,-0.8879,-0.6351,-0.8444,-1.8374,-2.0877,-1.6296,-2.3132,-2.5243,-2.1006,-2.3862,-2.2895,-1.9576,-2.3395,-2.2236,-1.7681,-0.977,-0.9491,-1.1762,-0.9378,-0.5621,-1.0215
-0.4932,-1.5308,-0.6203,-1.8431,-1.8608,-1.5415,-0.8987,-0.586,-0.2818,-0.7627,-0.5724,-0.7259,-1.5431,-1.6944,-1.5159,-1.9613,-2.2066,-2.0402,-2.0686,-1.8986,-1.5345,-2.0283,-1.9885,-1.5322,-0.8252,-0.7977,-0.9654,-0.7579,-0.5566,-0.9243
-0.3166,-1.3014,-0.5707,-1.6109,-1.6128,-1.4,-0.7218,-0.5964,-0.2887,-0.6239,-0.4961,-0.5899,-1.2329,-1.3104,-1.4267,-1.6564,-1.9199,-1.9893,-1.791,-1.5563,-1.1521,-1.7477,-1.7725,-1.2905,-0.683,-0.6386,-0.7327,-0.5572,-0.574,-0.8555
-0.1579,-1.1108,-0.5478,-1.3945,-1.3837,-1.2661,-0.5413,-0.5914,-0.2822,-0.473,-0.4053,-0.4399,-0.914,-0.9403,-1.3476,-1.3939,-1.6653,-1.9366,-1.5484,-1.2596,-0.8114,-1.496,-1.5757,-1.0454,-0.5508,-0.4741,-0.4853,-0.3434,-0.6073,-0.8062
-0.0209,-0.9579,-0.5464,-1.1925,-1.1712,-1.1404,-0.3625,-0.5751,-0.264,-0.3147,-0.3032,-0.2823,-0.5954,-0.5887,-1.2656,-1.1679,-1.4422,-1.873,-1.334,-1.0028,-0.5111,-1.2692,-1.3964,-0.8008,-0.4285,-0.3084,-0.2339,-0.1273,-0.6504,-0.768
0.088,-0.839,-0.5583,-1.0051,-0.9739,-1.023,-0.1922,-0.5518,-0.2374,-0.1572,-0.1967,-0.1266,-0.2891,-0.2625,-1.173,-0.9732,-1.2499,-1.7928,-1.1426,-0.7808,-0.2497,-1.0638,-1.2322,-0.5628,-0.3163,-0.1477,0.0083,0.0778,-0.699,-0.7347
0.1617,-0.7495,-0.5741,-0.8344,-0.7932,-0.9147,-0.0384,-0.5251,-0.2066,-0.0111,-0.0957,0.0157,-0.0088,0.0288,-1.0699,-0.808,-1.0891,-1.6944,-0.9721,-0.5915,-0.0286,-0.8787,-1.0818,-0.3405,-0.2154,0,0.2263,0.2571,-0.7518,-0.7037
0.1935,-0.6845,-0.5849,-0.6851,-0.6338,-0.8168,0.0908,-0.4973,-0.1756,0.1115,-0.0113,0.1325,0.2302,0.2725,-0.964,-0.6742,-0.9628,-1.5808,-0.8253,-0.4368,0.1477,-0.7158,-0.945,-0.1441,-0.128,0.1251,0.4053,0.3956,-0.8093,-0.6765
0.1799,-0.6402,-0.5839,-0.5636,-0.503,-0.7312,0.1877,-0.469,-0.1482,0.1998,0.0457,0.2126,0.4131,0.4549,-0.8679,-0.5769,-0.8752,-1.4586,-0.709,-0.3234,0.2711,-0.5798,-0.823,0.0159,-0.0568,0.2186,0.533,0.4811,-0.873,-0.6575
0.1209,-0.6153,-0.5679,-0.4773,-0.4098,-0.6604,0.2459,-0.4399,-0.1269,0.2452,0.0675,0.2477,0.5272,0.5626,-0.7962,-0.5236,-0.8322,-1.3368,-0.6324,-0.2607,0.3318,-0.4774,-0.7181,0.1315,-0.0046,0.2733,0.601,0.5058,-0.944,-0.6527
0.0207,-0.6109,-0.5379,-0.4337,-0.3633,-0.6077,0.2611,-0.4093,-0.113,0.243,0.0496,0.2334,0.5639,0.585,-0.7616,-0.5216,-0.8388,-1.2258,-0.6054,-0.259,0.3202,-0.4161,-0.6332,0.1977,0.0268,0.285,0.6068,0.468,-1.0217,-0.668
-0.1133,-0.6299,-0.4989,-0.4386,-0.3706,-0.5762,0.2318,-0.3764,-0.1069,0.1928,-0.0078,0.1701,0.5195,0.517,-0.7729,-0.5765,-0.8982,-1.1347,-0.6355,-0.3261,0.2304,-0.4019,-0.5709,0.2136,0.0365,0.2535,0.553,0.3723,-1.1033,-0.707
-0.2705,-0.676,-0.4588,-0.4948,-0.4349,-0.5687,0.1594,-0.3413,-0.1076,0.0984,-0.1007,0.0627,0.3967,0.3602,-0.8331,-0.6895,-1.0094,-1.0698,-0.7253,-0.4642,0.0627,-0.4382,-0.5338,0.1815,0.0248,0.182,0.4468,0.2288,-1.1836,-0.7698
-0.4374,-0.7508,-0.4258,-0.5997,-0.5541,-0.586,0.0489,-0.3049,-0.1136,-0.0329,-0.2218,-0.0804,0.2037,0.1241,-0.9394,-0.8555,-1.166,-1.0327,-0.8708,-0.6671,-0.1742,-0.5249,-0.5231,0.1063,-0.0073,0.0766,0.2984,0.0509,-1.2554,-0.8524
-0.5985,-0.8524,-0.4058,-0.7447,-0.7195,-0.626,-0.0922,-0.2685,-0.1229,-0.1916,-0.3618,-0.2485,-0.0457,-0.1746,-1.0832,-1.0625,-1.3554,-1.02,-1.0605,-0.9202,-0.4632,-0.6572,-0.5387,-0.0062,-0.0587,-0.055,0.1193,-0.1469,-1.3104,-0.9463
-0.7387,-0.9737,-0.4006,-0.9153,-0.9163,-0.6836,-0.2532,-0.2335,-0.1337,-0.3664,-0.5102,-0.4296,-0.334,-0.5138,-1.2508,-1.2923,-1.5603,-1.0238,-1.2766,-1.2009,-0.7807,-0.8266,-0.5789,-0.1497,-0.1283,-0.2043,-0.0798,-0.3505,-1.3405,-1.0396
-0.8456,-1.1033,-0.4061,-1.0928,-1.1256,-0.7504,-0.4224,-0.2016,-0.1447,-0.5454,-0.6563,-0.612,-0.6417,-0.8686,-1.4249,-1.5225,-1.7607,-1.0333,-1.497,-1.4822,-1.0995,-1.021,-0.64,-0.3184,-0.2154,-0.3631,-0.2888,-0.5487,-1.3388,-1.1185
-0.9124,-1.227,-0.414,-1.2574,-1.3266,-0.8167,-0.5873,-0.174,-0.1552,-0.7172,-0.7897,-0.7846,-0.9493,-1.2143,-1.586,-1.7305,-1.9374,-1.0375,-1.6992,-1.7372,-1.3939,-1.2265,-0.7174,-0.5068,-0.3193,-0.5243,-0.4996,-0.7325,-1.3005,-1.1697
-0.9387,-1.3306,-0.413,-1.392,-1.5002,-0.8732,-0.7368,-0.1521,-0.1649,-0.8713,-0.9012,-0.9384,-1.2391,-1.5298,-1.7148,-1.897,-2.0749,-1.0274,-1.8639,-1.9436,-1.6431,-1.4285,-0.8053,-0.7089,-0.4386,-0.6816,-0.7051,-0.8961,-1.2243,-1.1825
-0.9305,-1.4027,-0.3923,-1.4849,-1.6316,-0.9125,-0.8622,-0.1373,-0.1739,-0.9992,-0.9834,-1.066,-1.4969,-1.7989,-1.7953,-2.009,-2.1641,-0.9978,-1.9779,-2.0873,-1.834,-1.6138,-0.8971,-0.9174,-0.5707,-0.8301,-0.899,-1.0359,-1.1125,-1.1507
-0.8974,-1.4366,-0.3441,-1.5319,-1.7125,-0.9309,-0.9583,-0.131,-0.1827,-1.0948,-1.0321,-1.163,-1.7123,-2.0118,-1.8172,-2.0616,-2.2029,-0.9475,-2.0356,-2.1635,-1.9622,-1.771,-0.986,-1.1234,-0.7114,-0.9656,-1.0754,-1.1497,-0.9718,-1.0737
-0.8497,-1.4311,-0.2654,-1.5349,-1.7407,-0.9276,-1.0233,-0.1348,-0.1914,-1.1553,-1.0462,-1.2274,-1.8787,-2.1643,-1.7786,-2.0571,-2.1944,-0.8786,-2.0388,-2.1765,-2.0301,-1.8915,-1.0655,-1.3167,-0.8549,-1.0845,-1.2286,-1.2364,-0.8121,-0.9569
-0.7959,-1.3883,-0.1585,-1.5004,-1.7193,-0.9046,-1.0584,-0.1498,-0.2006,-1.1807,-1.0284,-1.2599,-1.9933,-2.2565,-1.6863,-2.0029,-2.1452,-0.795,-1.9949,-2.1362,-2.0445,-1.97,-1.129,-1.4864,-0.9942,-1.1843,-1.3536,-1.2957,-0.6457,-0.8097
-0.7404,-1.3126,-0.0311,-1.4362,-1.6549,-0.8645,-1.0668,-0.1762,-0.2103,-1.1737,-0.9849,-1.2634,-2.0555,-2.2911,-1.5543,-1.9088,-2.0627,-0.701,-1.9143,-2.0553,-2.0134,-2.0043,-1.1714,-1.6222,-1.1215,-1.263,-1.4461,-1.3283,-0.4853,-0.6444
-0.6836,-1.2079,0.1058,-1.3494,-1.5553,-0.8102,-1.0527,-0.2132,-0.2204,-1.1387,-0.9242,-1.2428,-2.0667,-2.272,-1.4008,-1.784,-1.9526,-0.601,-1.8076,-1.9452,-1.9433,-1.9953,-1.189,-1.7159,-1.2299,-1.3195,-1.5037,-1.3357,-0.3419,-0.4738
-0.6219,-1.0773,0.2399,-1.2449,-1.4281,-0.7438,-1.0199,-0.2585,-0.2304,-1.0815,-0.856,-1.2038,-2.0297,-2.2035,-1.2447,-1.6358,-1.8185,-0.4989,-1.6837,-1.8146,-1.8387,-1.9462,-1.1801,-1.7625,-1.3137,-1.3534,-1.5255,-1.3205,-0.2232,-0.3091
-0.5501,-0.9233,0.3598,-1.1261,-1.2799,-0.6672,-0.9717,-0.3088,-0.2403,-1.0079,-0.7898,-1.1522,-1.9488,-2.0905,-1.102,-1.4695,-1.6614,-0.3986,-1.5483,-1.6687,-1.7019,-1.8617,-1.1453,-1.7603,-1.3691,-1.3646,-1.5126,-1.2859,-0.1327,-0.1587
-0.4634,-0.7489,0.4575,-0.9954,-1.1164,-0.5823,-0.9105,-0.3605,-0.2503,-0.924,-0.7333,-1.0932,-1.8298,-1.939,-0.9832,-1.2881,-1.4817,-0.303,-1.4038,-1.5097,-1.5353,-1.747,-1.0861,-1.7108,-1.3941,-1.3531,-1.4677,-1.2355,-0.0696,-0.0269
-0.3599,-0.5589,0.5287,-0.8552,-0.9428,-0.4919,-0.8386,-0.4108,-0.2618,-0.835,-0.6917,-1.0307,-1.6805,-1.7564,-0.8913,-1.0947,-1.28,-0.2143,-1.2501,-1.339,-1.3422,-1.6069,-1.0054,-1.6181,-1.389,-1.3185,-1.3942,-1.1722,-0.0306,0.086
-0.242,-0.3601,0.5729,-0.7092,-0.7639,-0.3998,-0.7586,-0.4579,-0.2772,-0.7462,-0.6671,-0.9676,-1.5099,-1.5518,-0.8221,-0.8928,-1.0591,-0.1329,-1.0861,-1.1583,-1.129,-1.4456,-0.906,-1.4885,-1.3554,-1.2608,-1.2964,-1.0985,-0.0109,0.1829
-0.1166,-0.1615,0.5915,-0.5621,-0.5852,-0.3111,-0.6738,-0.502,-0.3,-0.6621,-0.6587,-0.9057,-1.328,-1.3351,-0.7649,-0.6875,-0.8244,-0.0583,-0.9111,-0.9708,-0.904,-1.2665,-0.7911,-1.33,-1.2963,-1.1809,-1.1788,-1.0164,-0.0061,0.2689
0.0063,0.027,0.5863,-0.4196,-0.4123,-0.2315,-0.5882,-0.5449,-0.3333,-0.5866,-0.6636,-0.8465,-1.1441,-1.1159,-0.7058,-0.4853,-0.5842,0.0109,-0.7261,-0.7813,-0.6774,-1.0731,-0.6639,-1.1516,-1.216,-1.0811,-1.0464,-0.928,-0.0129,0.3495
0.115,0.1958,0.5589,-0.2876,-0.2509,-0.1665,-0.5064,-0.5895,-0.3796,-0.5223,-0.6774,-0.7918,-0.9659,-0.9021,-0.6313,-0.2933,-0.3475,0.0765,-0.5343,-0.5954,-0.4589,-0.869,-0.5284,-0.9626,-1.1193,-0.9658,-0.904,-0.8354,-0.0298,0.4286
0.1994,0.3373,0.5107,-0.1711,-0.1063,-0.1202,-0.4326,-0.6386,-0.4395,-0.4704,-0.6957,-0.7435,-0.7981,-0.6992,-0.5321,-0.1179,-0.1234,0.1398,-0.3409,-0.419,-0.2562,-0.6587,-0.389,-0.772,-1.0115,-0.841,-0.7561,-0.7415,-0.0564,0.5074
0.2526,0.4472,0.444,-0.0738,0.0174,-0.0945,-0.3697,-0.6936,-0.5114,-0.4304,-0.7143,-0.7036,-0.6429,-0.5097,-0.4069,0.0361,0.0813,0.2018,-0.1522,-0.2565,-0.0745,-0.4478,-0.2508,-0.5874,-0.8979,-0.7142,-0.6072,-0.649,-0.0936,0.5837
0.2732,0.5253,0.3634,0.0033,0.1177,-0.0881,-0.3186,-0.7538,-0.5909,-0.3997,-0.73,-0.6732,-0.4993,-0.3346,-0.262,0.1663,0.2622,0.2628,0.0249,-0.1113,0.0841,-0.2425,-0.1188,-0.4149,-0.7833,-0.593,-0.4608,-0.5607,-0.1424,0.6525
0.2652,0.5753,0.2759,0.0614,0.1943,-0.0968,-0.2777,-0.8158,-0.6715,-0.3739,-0.7404,-0.6524,-0.3647,-0.1736,-0.1104,0.2731,0.4173,0.322,0.184,0.015,0.2193,-0.0496,0.0027,-0.2586,-0.6721,-0.4844,-0.3203,-0.4786,-0.2033,0.7082
0.2369,0.6038,0.1905,0.1042,0.2489,-0.1141,-0.2435,-0.8735,-0.7449,-0.3482,-0.7435,-0.6393,-0.2368,-0.0272,0.0325,0.3586,0.5467,0.3773,0.3199,0.122,0.3322,0.1247,0.111,-0.1209,-0.5674,-0.3935,-0.1882,-0.4039,-0.2756,0.7458
0.1992,0.619,0.1167,0.1367,0.2847,-0.1329,-0.2117,-0.9197,-0.8027,-0.3179,-0.7375,-0.6306,-0.114,0.1029,0.1532,0.426,0.6512,0.4256,0.4294,0.2101,0.4242,0.2753,0.2056,-0.0026,-0.4712,-0.3227,-0.0664,-0.3367,-0.3557,0.7636
0.1626,0.6282,0.0625,0.1642,0.3054,-0.1469,-0.1779,-0.9468,-0.8376,-0.28,-0.7209,-0.6216,0.0026,0.2134,0.2427,0.4789,0.732,0.4628,0.5113,0.2807,0.4962,0.3986,0.288,0.0962,-0.3846,-0.2714,0.0436,-0.2764,-0.4379,0.7636
0.1363,0.6372,0.0332,0.1916,0.3148,-0.1517,-0.1392,-0.9491,-0.8445,-0.2333,-0.6926,-0.6072,0.1097,0.3008,0.298,0.5209,0.7901,0.4852,0.567,0.3355,0.5493,0.4931,0.361,0.1766,-0.3073,-0.2364,0.1404,-0.2219,-0.5142,0.7515
0.1273,0.6494,0.0307,0.2225,0.3162,-0.1457,-0.0945,-0.9232,-0.8215,-0.1793,-0.6521,-0.5831,0.2026,0.3619,0.322,0.5555,0.8266,0.4906,0.6001,0.3775,0.5852,0.5591,0.4277,0.2393,-0.239,-0.2127,0.223,-0.1719,-0.5761,0.7352
0.1413,0.6661,0.0543,0.2598,0.3124,-0.1289,-0.0447,-0.8687,-0.7698,-0.121,-0.5992,-0.546,0.2766,0.396,0.3214,0.5868,0.8436,0.4789,0.6161,0.4104,0.6066,0.5982,0.49,0.2852,-0.1795,-0.1949,0.2902,-0.1252,-0.616,0.7229
0.1825,0.6876,0.102,0.3055,0.3059,-0.1023,0.0083,-0.7879,-0.6931,-0.0623,-0.5347,-0.4944,0.3283,0.4052,0.3057,0.6193,0.8445,0.4528,0.6217,0.4392,0.6174,0.6133,0.5479,0.315,-0.1291,-0.1785,0.3406,-0.0811,-0.6282,0.7214
0.2542,0.7142,0.1714,0.3614,0.2991,-0.0666,0.0619,-0.6853,-0.5974,-0.007,-0.4601,-0.4293,0.357,0.3945,0.2852,0.6584,0.8346,0.4175,0.6245,0.4689,0.6226,0.6083,0.5996,0.3291,-0.089,-0.1608,0.3729,-0.0396,-0.6105,0.7347
0.3572,0.7466,0.2608,0.4289,0.2945,-0.0218,0.1135,-0.5668,-0.4902,0.0417,-0.3784,-0.3541,0.3644,0.3701,0.2709,0.7085,0.821,0.3797,0.6316,0.504,0.6269,0.5878,0.6421,0.3279,-0.0608,-0.1415,0.3859,-0.0018,-0.5634,0.764
0.4894,0.7861,0.368,0.5087,0.2945,0.0329,0.161,-0.4396,-0.3797,0.0818,-0.2938,-0.2745,0.3539,0.3385,0.2724,0.7732,0.8114,0.3463,0.649,0.5472,0.6338,0.5569,0.6725,0.3114,-0.0466,-0.1229,0.3784,0.0301,-0.4904,0.8081
0.6449,0.8341,0.4903,0.5999,0.3009,0.098,0.2027,-0.3117,-0.2745,0.112,-0.2123,-0.198,0.3297,0.3041,0.2973,0.853,0.8131,0.3235,0.6802,0.5988,0.6444,0.521,0.6891,0.2798,-0.0478,-0.1094,0.3503,0.0529,-0.3966,0.8635
0.8137,0.8911,0.6233,0.6996,0.3148,0.1734,0.2367,-0.1909,-0.1828,0.1317,-0.1407,-0.1331,0.2954,0.2694,0.3492,0.9458,0.8311,0.3151,0.7259,0.6564,0.6578,0.4854,0.6923,0.2337,-0.0651,-0.106,0.302,0.0628,-0.2883,0.9253
0.9827,0.9566,0.7612,0.8028,0.336,0.2566,0.2616,-0.085,-0.1114,0.1403,-0.0859,-0.087,0.2537,0.2346,0.4267,1.0463,0.8671,0.3218,0.783,0.7151,0.6713,0.4546,0.6846,0.1744,-0.0975,-0.1175,0.2356,0.0569,-0.1721,0.9882
1.1369,1.0289,0.8968,0.9028,0.3632,0.3435,0.2753,-0.0011,-0.065,0.1376,-0.054,-0.0652,0.206,0.199,0.5244,1.1466,0.9187,0.34,0.8458,0.7691,0.6811,0.4318,0.6697,0.1044,-0.1421,-0.1466,0.1548,0.033,-0.0555,1.0469
1.262,1.1047,1.0231,0.9926,0.3942,0.4279,0.2764,0.0557,-0.0458,0.1235,-0.0491,-0.07,0.1532,0.1619,0.6339,1.2378,0.9796,0.3634,0.9059,0.8123,0.6839,0.4178,0.6518,0.0274,-0.1945,-0.1929,0.065,-0.0085,0.0531,1.097
1.3468,1.1805,1.1335,1.066,0.4267,0.5032,0.2637,0.0819,-0.0528,0.0984,-0.0723,-0.1002,0.0964,0.1237,0.7464,1.3119,1.0408,0.3837,0.9549,0.8402,0.6774,0.4117,0.6344,-0.0517,-0.2485,-0.2521,-0.0267,-0.0649,0.144,1.1362
1.3863,1.2527,1.2234,1.1193,0.459,0.5633,0.2377,0.0774,-0.0823,0.0636,-0.1211,-0.151,0.0375,0.0866,0.854,1.363,1.0929,0.3939,0.986,0.851,0.6614,0.4107,0.6199,-0.127,-0.298,-0.3172,-0.1126,-0.1307,0.2078,1.1643
1.3833,1.3187,1.2909,1.1521,0.491,0.6043,0.2009,0.0451,-0.1284,0.0223,-0.1894,-0.2153,-0.0199,0.0547,0.9512,1.389,1.1282,0.3905,0.9961,0.8463,0.6382,0.4117,0.6094,-0.1925,-0.3373,-0.379,-0.1849,-0.1986,0.2363,1.1833
1.3491,1.3773,1.337,1.1676,0.5247,0.6264,0.1582,-0.0086,-0.1838,-0.0206,-0.2681,-0.2843,-0.0702,0.0337,1.035,1.3925,1.1436,0.3758,0.9874,0.8315,0.6132,0.4128,0.6033,-0.2426,-0.3627,-0.4288,-0.2367,-0.2603,0.2257,1.197
1.3021,1.4291,1.3662,1.1729,0.5648,0.6345,0.1176,-0.0749,-0.2411,-0.0582,-0.3462,-0.3491,-0.1064,0.0306,1.1055,1.3811,1.1421,0.3583,0.9683,0.8159,0.5947,0.4153,0.6028,-0.2717,-0.3726,-0.4593,-0.263,-0.308,0.1779,1.2105
1.2642,1.4775,1.3849,1.1784,0.6186,0.6379,0.0888,-0.1435,-0.2933,-0.0829,-0.4127,-0.4017,-0.1201,0.0533,1.1655,1.3666,1.1336,0.3523,0.9529,0.812,0.5936,0.4248,0.6105,-0.2748,-0.3678,-0.466,-0.2608,-0.3351,0.1015,1.2291
1.2565,1.5282,1.4006,1.1962,0.695,0.6496,0.0827,-0.2038,-0.3347,-0.0869,-0.4589,-0.4363,-0.1026,0.1098,1.2211,1.3638,1.1335,0.3746,0.9589,0.8339,0.6225,0.4511,0.6315,-0.2472,-0.3502,-0.4477,-0.2291,-0.3377,0.0105,1.2578
1.294,1.5889,1.4198,1.2381,0.8023,0.6829,0.1088,-0.2474,-0.3618,-0.0645,-0.4797,-0.4498,-0.0468,0.2072,1.2808,1.3879,1.1599,0.441,1.0046,0.8951,0.6929,0.5066,0.6731,-0.1849,-0.3224,-0.4064,-0.1688,-0.3153,-0.0783,1.3004
1.3816,1.6672,1.4459,1.3132,0.9464,0.7488,0.1734,-0.2689,-0.3736,-0.0136,-0.4747,-0.4426,0.0516,0.35,1.3541,1.451,1.2285,0.5614,1.1043,1.0051,0.8131,0.6034,0.743,-0.0852,-0.2862,-0.347,-0.0825,-0.2704,-0.1491,1.3583
1.5127,1.7692,1.4789,1.4256,1.1278,0.8525,0.2772,-0.2675,-0.3713,0.0639,-0.4477,-0.4175,0.1927,0.5389,1.4489,1.5596,1.3479,0.737,1.265,1.1671,0.9856,0.7502,0.8479,0.0519,-0.2424,-0.2754,0.0259,-0.2082,-0.1912,1.4302
1.67,1.8974,1.5154,1.5726,1.3405,0.9919,0.4151,-0.2466,-0.3582,0.162,-0.4056,-0.3796,0.3718,0.7691,1.5684,1.7123,1.517,0.9587,1.4833,1.3759,1.2059,0.9489,0.9909,0.223,-0.1904,-0.198,0.1518,-0.1354,-0.2016,1.5114
1.8297,2.0495,1.5501,1.7451,1.572,1.1575,0.5766,-0.2135,-0.3387,0.2718,-0.3563,-0.3342,0.5798,1.031,1.71,1.8994,1.7241,1.2077,1.7457,1.6184,1.4621,1.1938,1.1703,0.4214,-0.1284,-0.1194,0.2898,-0.0585,-0.1859,1.5946
1.9681,2.2183,1.5781,1.9293,1.8052,1.3342,0.7476,-0.177,-0.3169,0.3838,-0.3064,-0.2855,0.8046,1.3105,1.8644,2.1056,1.9498,1.4596,2.0312,1.8757,1.7367,1.4715,1.3792,0.6371,-0.0546,-0.0422,0.4348,0.0175,-0.1564,1.6712
2.0672,2.3935,1.5958,2.109,2.0213,1.5044,0.9134,-0.146,-0.296,0.4894,-0.2601,-0.2363,1.0331,1.5916,2.0178,2.3128,2.1724,1.6887,2.3153,2.1266,2.0101,1.7634,1.6065,0.8585,0.0326,0.0336,0.5819,0.0897,-0.1286,1.7328
2.1196,2.5643,1.6024,2.2702,2.2042,1.6521,1.0615,-0.1274,-0.2778,0.5827,-0.2188,-0.1869,1.2532,1.8582,2.1549,2.5046,2.3731,1.8739,2.5756,2.3527,2.2634,2.0496,1.8389,1.0742,0.1333,0.1099,0.7272,0.1577,-0.117,1.7737
2.1301,2.722,1.5994,2.4036,2.3431,1.7662,1.1835,-0.1248,-0.2624,0.6612,-0.1814,-0.1358,1.4552,2.0971,2.2622,2.6699,2.5409,2.0025,2.7958,2.5413,2.4826,2.3125,2.064,1.2745,0.2462,0.1898,0.8674,0.2233,-0.1309,1.7921
2.1134,2.8617,1.5904,2.5065,2.435,1.8427,1.2764,-0.1382,-0.249,0.7251,-0.1454,-0.0805,1.633,2.2998,2.3303,2.8047,2.6743,2.0729,2.9681,2.6876,2.6604,2.5396,2.272,1.4528,0.3684,0.2761,1.0006,0.289,-0.1729,1.7905
2.0899,2.9832,1.5803,2.5831,2.4851,1.8851,1.342,-0.1644,-0.2362,0.7771,-0.1086,-0.0187,1.7841,2.4631,2.3556,2.9124,2.7803,2.0939,3.0944,2.7949,2.7968,2.7254,2.4571,1.6059,0.4959,0.3703,1.1256,0.3579,-0.2378,1.7752
2.0798,3.0895,1.575,2.6429,2.505,1.9038,1.386,-0.1979,-0.223,0.8206,-0.0698,0.0508,1.9093,2.5894,2.3414,3.0018,2.8719,2.0826,3.1842,2.8732,2.8988,2.8709,2.6182,1.7338,0.6245,0.4725,1.2418,0.4321,-0.315,1.7544
2.0981,3.1861,1.5801,2.6982,2.5108,1.9133,1.4167,-0.2321,-0.2087,0.859,-0.0295,0.1273,2.0119,2.6857,2.2976,3.085,2.9637,2.0608,3.2525,2.9362,2.9785,2.9827,2.7574,1.8387,0.7501,0.5804,1.3492,0.5124,-0.3907,1.7374
2.1521,3.2785,1.6006,2.7615,2.5198,1.9291,1.4428,-0.2607,-0.193,0.8953,0.0104,0.2082,2.0965,2.7624,2.2407,3.1744,3.0683,2.0504,3.3165,2.9996,3.0504,3.071,2.8793,1.9236,0.869,0.6899,1.4475,0.5978,-0.451,1.7325
2.2408,3.3714,1.64,2.8425,2.5473,1.9648,1.4723,-0.2779,-0.1757,0.9314,0.0474,0.2891,2.1683,2.8306,2.1921,3.2799,3.1937,2.0695,3.3917,3.0773,3.1283,3.1468,2.989,1.9919,0.9782,0.7955,1.5363,0.6858,-0.4844,1.7467
2.3571,3.467,1.6995,2.9461,2.6039,2.0291,1.5112,-0.2795,-0.156,0.9685,0.0794,0.3647,2.2311,2.8999,2.1745,3.4073,3.3415,2.1288,3.4894,3.179,3.2226,3.2199,3.0907,2.046,1.0753,0.891,1.6146,0.7719,-0.4837,1.7845
2.4903,3.566,1.7785,3.072,2.693,2.1248,1.5627,-0.263,-0.1327,1.0072,0.1057,0.43,2.2874,2.9756,2.2077,3.557,3.5074,2.2305,3.6143,3.3088,3.3376,3.297,3.1868,2.0873,1.1582,0.9702,1.6807,0.8508,-0.4467,1.8477
2.6291,3.6676,1.8749,3.2147,2.8105,2.2481,1.6264,-0.2282,-0.1042,1.0472,0.1273,0.4811,2.337,3.0582,2.3037,3.7243,3.6828,2.3683,3.7644,3.4639,3.4714,3.3807,3.2783,2.1159,1.2251,1.0282,1.732,0.9169,-0.3761,1.9356
2.7652,3.7708,1.9865,3.3652,2.946,2.39,1.6986,-0.1773,-0.0689,1.0874,0.1467,0.5158,2.378,3.1428,2.4626,3.9013,3.8572,2.5296,3.9317,3.6363,3.6162,3.4699,3.3645,2.1315,1.2746,1.0619,1.7659,0.9653,-0.2787,2.0451
2.8948,3.8756,2.1114,3.5139,3.0849,2.5385,1.7729,-0.1152,-0.026,1.1259,0.1672,0.5342,2.407,3.2218,2.6718,4.0788,4.0217,2.6983,4.1055,3.8146,3.7613,3.5612,3.4442,2.1336,1.3059,1.0708,1.7797,0.9929,-0.1637,2.1715
3.0196,3.9829,2.2478,3.6527,3.2121,2.6806,1.8413,-0.0482,0.0243,1.1603,0.1912,0.5379,2.4207,3.2869,2.9074,4.2488,4.1706,2.8589,4.2744,3.9874,3.8955,3.6501,3.5165,2.1228,1.319,1.057,1.7719,0.9987,-0.0404,2.3092
3.1455,4.0943,2.3934,3.7766,3.3154,2.8048,1.8958,0.0157,0.0799,1.1872,0.22,0.5304,2.4166,3.3321,3.1393,4.4059,4.3026,2.9988,4.4297,4.1457,4.0106,3.7331,3.5813,2.1009,1.3151,1.0245,1.743,0.9844,0.083,2.4522
3.2798,4.2107,2.5437,3.8843,3.3878,2.9028,1.9298,0.0689,0.1368,1.203,0.2522,0.5148,2.3941,3.3549,3.3379,4.5479,4.4197,3.1101,4.5664,4.2844,4.1021,3.8079,3.6392,2.0709,1.2965,0.9789,1.6949,0.9534,0.2008,2.5948
3.4271,4.3316,2.6916,3.9774,3.4284,2.9703,1.9391,0.1048,0.1892,1.2044,0.2838,0.4941,2.3543,3.3565,3.4803,4.6746,4.5252,3.19,4.6828,4.4024,4.1699,3.8736,3.6908,2.0368,1.2665,0.9261,1.6314,0.9103,0.3102,2.7319
3.5864,4.4536,2.8285,4.059,3.4418,3.0074,1.9227,0.119,0.2309,1.1886,0.3093,0.4697,2.2997,3.3415,3.5556,4.7872,4.6216,3.2393,4.7798,4.5017,4.2169,3.9302,3.7366,2.0023,1.2287,0.8717,1.5573,0.86,0.4101,2.8587
3.7505,4.5714,2.9453,4.1324,3.4366,3.0179,1.883,0.1105,0.2559,1.1546,0.3231,0.442,2.2339,3.3158,3.5662,4.8859,4.7089,3.2619,4.8589,4.5854,4.2479,3.9774,3.7757,1.9703,1.1871,0.8201,1.4775,0.8067,0.5001,2.9715
3.9071,4.6778,3.0346,4.2,3.4228,3.0088,1.8255,0.0817,0.2602,1.1034,0.3206,0.4106,2.1613,3.2855,3.5259,4.9702,4.7848,3.2625,4.9211,4.6565,4.2677,4.0144,3.8065,1.9425,1.1449,0.7741,1.3969,0.754,0.5795,3.067
4.0411,4.7653,3.0921,4.2626,3.4098,2.9883,1.7583,0.0381,0.243,1.039,0.3003,0.3753,2.087,3.2563,3.4559,5.0374,4.8442,3.2454,4.9661,4.7167,4.2807,4.0396,3.8267,1.92,1.1051,0.7357,1.32,0.7046,0.646,3.1422
4.1381,4.8272,3.1171,4.3186,3.4047,2.9646,1.6905,-0.0122,0.2067,0.9676,0.2642,0.3372,2.0172,3.233,3.3785,5.0836,4.8808,3.2141,4.9919,4.7657,4.2897,4.0511,3.834,1.9034,1.0699,0.7058,1.2515,0.6611,0.6962,3.1944
4.1862,4.8574,3.1112,4.3642,3.41,2.9435,1.6309,-0.0607,0.1573,0.8976,0.2179,0.2989,1.9581,3.2185,3.3117,5.1031,4.8871,3.1702,4.995,4.8002,4.2952,4.047,3.8266,1.8935,1.0412,0.6853,1.1958,0.6257,0.7252,3.2207
4.1782,4.8505,3.0773,4.3929,3.4237,2.9268,1.586,-0.0995,0.1028,0.8379,0.1698,0.2647,1.9161,3.2142,3.2653,5.0888,4.8553,3.1144,4.9708,4.8148,4.2957,4.0256,3.8031,1.8913,1.0201,0.6752,1.1577,0.6012,0.7275,3.2181
4.1113,4.8015,3.0176,4.3957,3.4386,2.9118,1.5592,-0.123,0.0518,0.7962,0.1295,0.2402,1.8961,3.2189,3.2386,5.0328,4.7786,3.0467,4.9142,4.8016,4.287,3.9853,3.7627,1.8975,1.0073,0.6763,1.141,0.59,0.6977,3.1832
3.9877,4.7052,2.9333,4.3624,3.4435,2.8913,1.5502,-0.1289,0.0125,0.778,0.1061,0.2306,1.9003,3.2292,3.2214,4.9277,4.6516,2.9679,4.8207,4.7523,4.263,3.9249,3.7045,1.9121,1.0026,0.6891,1.1481,0.5942,0.632,3.1132
3.8137,4.5578,2.8237,4.2834,3.4257,2.856,1.5554,-0.1178,-0.0092,0.7849,0.1067,0.2395,1.9279,3.2393,3.1975,4.7681,4.4722,2.8796,4.6878,4.6593,4.2171,3.8436,3.628,1.9335,1.0051,0.7136,1.1788,0.6145,0.5296,3.0064
3.5978,4.3583,2.6879,4.152,3.3731,2.7964,1.569,-0.0928,-0.0096,0.8147,0.1344,0.2678,1.9743,3.2423,3.1494,4.5525,4.2428,2.7842,4.5156,4.5179,4.1432,3.7413,3.5328,1.9585,1.0125,0.7479,1.2299,0.6495,0.3936,2.8632
3.3506,4.1094,2.5252,3.9663,3.277,2.7056,1.5842,-0.0587,0.0115,0.8617,0.1883,0.3131,2.0321,3.2313,3.0639,4.2844,3.9698,2.6849,4.3075,4.3279,4.0373,3.6184,3.4186,1.9819,1.0216,0.7885,1.2946,0.6956,0.231,2.6867
3.0824,3.8189,2.3365,3.7305,3.1345,2.5811,1.5947,-0.0208,0.0514,0.9177,0.263,0.3693,2.0918,3.2005,2.935,3.9727,3.6634,2.5836,4.0693,4.0939,3.8985,3.476,3.2858,1.9976,1.0279,0.83,1.3632,0.7464,0.0518,2.4824
2.8035,3.499,2.1253,3.4548,2.949,2.4253,1.595,0.0163,0.1047,0.9729,0.3493,0.4275,2.1432,3.1464,2.7652,3.6302,3.3359,2.4805,3.8086,3.825,3.7293,3.3155,3.1351,1.9988,1.0264,0.8656,1.4245,0.7938,-0.1327,2.2581
2.5226,3.1654,1.8977,3.1543,2.7303,2.2453,1.5811,0.0484,0.1638,1.018,0.4358,0.4773,2.1773,3.0682,2.5632,3.2722,2.9994,2.3732,3.5326,3.5337,3.5354,3.1385,2.9677,1.9794,1.0118,0.8878,1.4669,0.8286,-0.3119,2.0223
2.2475,2.8344,1.6623,2.8466,2.4925,2.0513,1.5505,0.0721,0.2197,1.045,0.5102,0.5081,2.1869,2.9676,2.3407,2.9137,2.6645,2.2569,3.2476,3.2332,3.3247,2.9466,2.7852,1.935,0.9791,0.8898,1.4807,0.8418,-0.4775,1.7837
1.9839,2.5208,1.4295,2.5487,2.2516,1.8544,1.5014,0.0845,0.2635,1.0478,0.5614,0.511,2.1669,2.8483,2.1083,2.5667,2.3386,2.1252,2.9579,2.9359,3.1058,2.7415,2.5891,1.8633,0.9246,0.8667,1.4593,0.826,-0.6246,1.5498
1.7357,2.2351,1.2101,2.2743,2.0221,1.6644,1.433,0.0833,0.2871,1.023,0.5801,0.4801,2.1153,2.7142,1.8739,2.2384,2.0258,1.9714,2.6657,2.6508,2.8867,2.5249,2.3807,1.7642,0.8457,0.8157,1.3999,0.7767,-0.7515,1.3264
1.5042,1.9817,1.0142,2.0311,1.8146,1.4881,1.3451,0.0668,0.2844,0.9695,0.5609,0.4132,2.0316,2.5685,1.6417,1.9305,1.7269,1.7903,2.3716,2.3823,2.6727,2.2989,2.1616,1.6397,0.7419,0.7372,1.3041,0.6929,-0.8592,1.1178
1.2884,1.7587,0.8489,1.8204,1.6337,1.3283,1.2383,0.0343,0.2526,0.8884,0.5021,0.3123,1.9171,2.4131,1.414,1.6398,1.4402,1.5796,2.0756,2.1301,2.4659,2.0664,1.9336,1.4935,0.6148,0.6341,1.1765,0.5775,-0.9509,0.9264
1.0862,1.5595,0.7171,1.6378,1.4784,1.1841,1.1141,-0.0135,0.192,0.7828,0.406,0.1834,1.7747,2.2485,1.1926,1.3604,1.163,1.3418,1.7783,1.8905,2.2659,1.8307,1.7001,1.33,0.4686,0.5116,1.0243,0.4371,-1.0307,0.7531
0.8961,1.3747,0.6172,1.4755,1.3425,1.052,0.9758,-0.0746,0.1064,0.6573,0.2779,0.0352,1.6081,2.0741,0.9804,1.0869,0.8935,1.0849,1.4823,1.6588,2.0705,1.5962,1.4662,1.1541,0.3098,0.3767,0.8562,0.2809,-1.1025,0.5982
0.7189,1.1954,0.5432,1.3251,1.2179,0.9279,0.8276,-0.1457,0.0022,0.5175,0.1258,-0.1216,1.4225,1.8899,0.782,0.8167,0.6319,0.8224,1.1926,1.4318,1.8779,1.3676,1.2386,0.9707,0.1471,0.2374,0.6804,0.1197,-1.1695,0.461
0.5584,1.0149,0.4865,1.1799,1.0963,0.8086,0.6753,-0.2225,-0.1124,0.3696,-0.0415,-0.2764,1.2239,1.697,0.6022,0.5522,0.3811,0.5713,0.9165,1.2095,1.6881,1.15,1.0245,0.784,-0.0098,0.1012,0.5046,-0.0361,-1.2336,0.34
0.4215,0.83,0.4383,1.0364,0.9715,0.693,0.5251,-0.3006,-0.2293,0.2196,-0.2156,-0.4199,1.0188,1.4981,0.445,0.2999,0.1458,0.3495,0.6626,0.9951,1.5034,0.9474,0.8307,0.5975,-0.1516,-0.0256,0.3344,-0.1777,-1.2949,0.2324
0.3153,0.6403,0.3909,0.894,0.8402,0.5819,0.3825,-0.3764,-0.3416,0.0722,-0.3893,-0.5453,0.8131,1.2969,0.312,0.0689,-0.069,0.1719,0.4384,0.794,1.3275,0.7619,0.6611,0.4133,-0.2711,-0.1387,0.1732,-0.2995,-1.3528,0.1342
0.2456,0.4479,0.3382,0.7538,0.7017,0.4771,0.2518,-0.4472,-0.445,-0.0694,-0.5581,-0.6496,0.6119,1.0973,0.2014,-0.133,-0.2603,0.0475,0.2485,0.6115,1.1647,0.5936,0.5167,0.2322,-0.3641,-0.2365,0.0222,-0.3993,-1.4064,0.0402
0.2136,0.2549,0.277,0.6172,0.5569,0.3805,0.1347,-0.512,-0.538,-0.2042,-0.7204,-0.7335,0.4176,0.9023,0.1083,-0.3017,-0.4285,-0.0228,0.0932,0.4506,1.0174,0.4402,0.395,0.054,-0.4304,-0.32,-0.12,-0.4787,-1.4551,-0.0551
0.2155,0.0631,0.2057,0.4847,0.4077,0.2922,0.0299,-0.5714,-0.6218,-0.3333,-0.877,-0.8011,0.2303,0.7127,0.0264,-0.4393,-0.5778,-0.0466,-0.033,0.3101,0.885,0.2972,0.2903,-0.1229,-0.4739,-0.3923,-0.2561,-0.5423,-1.4996,-0.1559
0.242,-0.1276,0.1252,0.3552,0.2553,0.2104,-0.0662,-0.627,-0.6995,-0.4591,-1.0304,-0.8586,0.0479,0.5272,-0.0509,-0.554,-0.7152,-0.0382,-0.1397,0.1847,0.7636,0.159,0.1953,-0.3005,-0.502,-0.4581,-0.39,-0.5964,-1.5413,-0.2643
0.2799,-0.3185,0.0378,0.2266,0.1003,0.1312,-0.1591,-0.6811,-0.7746,-0.5847,-1.1833,-0.913,-0.1334,0.3426,-0.1291,-0.6582,-0.8491,-0.0155,-0.2394,0.0658,0.6466,0.0202,0.1022,-0.4807,-0.5239,-0.5224,-0.5252,-0.6482,-1.5819,-0.3795
