FP1,F3,F7,FC3,C3,C5,P3,P7,PO7,PO3,O1,Oz,Pz,CPz,FP2,Fz,F4,F8,FC4,FCz,Cz,C4,C6,P4,P8,PO8,PO4,O2,(corr) HEOG,(corr) VEOG
1.2814,1.7418,0.9177,1.5756,1.0206,0.7501,0.3307,0.0814,0.0296,0.2432,0.0328,0.0697,0.4481,0.918,1.3113,2.0174,1.5667,0.8985,1.4181,1.8051,1.3539,0.9135,0.6818,0.4004,0.1256,0.1705,0.2208,0.2235,0.1538,-0.4395
1.2842,1.8693,0.913,1.6775,1.1013,0.7821,0.3768,0.0724,0.0536,0.2917,0.0838,0.1157,0.5261,1.033,1.3774,2.187,1.7219,0.9472,1.5658,1.9682,1.4959,1.0419,0.7901,0.5105,0.2179,0.28,0.3077,0.3151,0.1033,-0.548
1.2983,1.9661,0.9244,1.763,1.1803,0.8135,0.4265,0.062,0.0856,0.3407,0.1423,0.1662,0.6044,1.1462,1.4387,2.3433,1.8531,0.9838,1.6968,2.1185,1.6363,1.1602,0.8831,0.6162,0.3049,0.3906,0.3935,0.41,0.0586,-0.6418
1.3275,2.0199,0.9556,1.825,1.253,0.8433,0.4757,0.0509,0.122,0.3852,0.1988,0.2137,0.6754,1.249,1.4919,2.4741,1.9457,1.0082,1.7996,2.2469,1.7667,1.2577,0.9502,0.706,0.3764,0.4892,0.4676,0.496,0.0239,-0.7128
1.3738,2.0266,1.0091,1.8619,1.3178,0.8726,0.5224,0.0422,0.1602,0.4228,0.2458,0.2522,0.7341,1.3367,1.5373,2.5733,1.9938,1.0258,1.8701,2.3503,1.8823,1.3293,0.9869,0.7723,0.4245,0.5651,0.5226,0.5623,0.0004,-0.7574
1.4371,1.9927,1.0866,1.8786,1.3767,0.9047,0.5675,0.0407,0.1999,0.4544,0.2802,0.2794,0.7802,1.4091,1.5779,2.6418,2.0019,1.0457,1.9123,2.4314,1.9826,1.3773,0.9955,0.8135,0.4458,0.6121,0.5559,0.6028,-0.0142,-0.7771
1.5139,1.9335,1.1872,1.8845,1.4336,0.944,0.6148,0.0527,0.2434,0.4847,0.3036,0.2971,0.8181,1.4707,1.618,2.6868,1.9842,1.078,1.9369,2.4974,2.0708,1.4108,0.9851,0.835,0.4425,0.6305,0.5711,0.6173,-0.024,-0.7778
1.5965,1.8691,1.3053,1.8909,1.4932,0.994,0.6699,0.0842,0.2948,0.5213,0.322,0.3113,0.8559,1.5282,1.6597,2.7187,1.9607,1.1293,1.9579,2.5561,2.1509,1.4419,0.9691,0.8477,0.4214,0.627,0.5771,0.6118,-0.0324,-0.7694
1.6725,1.8193,1.429,1.906,1.5576,1.0553,0.7381,0.1391,0.358,0.572,0.3437,0.3303,0.9026,1.5877,1.7005,2.7458,1.9511,1.199,1.9871,2.6121,2.2247,1.4821,0.9611,0.8652,0.3921,0.6124,0.5864,0.597,-0.0403,-0.7637
1.7261,1.7971,1.5405,1.9322,1.6244,1.1242,0.8219,0.2175,0.4355,0.6426,0.3762,0.3621,0.9654,1.6521,1.7319,2.7715,1.9694,1.2779,2.0307,2.664,2.2896,1.5377,0.9709,0.8998,0.3649,0.5994,0.6108,0.5853,-0.0453,-0.772
1.7407,1.8061,1.619,1.9646,1.6867,1.1928,0.9197,0.3142,0.5258,0.7342,0.4244,0.4119,1.0464,1.7193,1.7413,2.7917,2.0197,1.3504,2.0865,2.7037,2.3385,1.6082,1.0026,0.9588,0.348,0.599,0.6588,0.588,-0.0428,-0.8028
1.7041,1.839,1.6455,1.9925,1.7343,1.2502,1.0246,0.4189,0.6232,0.8417,0.4882,0.48,1.1417,1.7829,1.7162,2.7966,2.0947,1.3982,2.1451,2.7195,2.3616,1.6859,1.0534,1.0426,0.3463,0.6179,0.733,0.6126,-0.0281,-0.8595
1.6116,1.8799,1.6076,2.0023,1.7561,1.2854,1.1258,0.5172,0.7178,0.9547,0.5624,0.5617,1.2421,1.8336,1.6483,2.7734,2.1771,1.4061,2.192,2.6988,2.3496,1.7591,1.1159,1.145,0.361,0.6575,0.8294,0.661,0.0001,-0.9391
1.467,1.9074,1.5024,1.981,1.7428,1.2888,1.2095,0.5934,0.7975,1.0582,0.6383,0.6478,1.3341,1.8615,1.5364,2.7094,2.2427,1.3654,2.2113,2.6319,2.2962,1.8141,1.1796,1.254,0.3905,0.7141,0.9385,0.7298,0.0383,-1.033
1.2815,1.8989,1.3362,1.9184,1.6886,1.2538,1.2617,0.6337,0.8504,1.1365,0.7048,0.7263,1.4033,1.8577,1.3866,2.5945,2.2654,1.2752,2.1887,2.514,2.1993,1.8385,1.2333,1.3552,0.4311,0.7798,1.0466,0.8106,0.0779,-1.1284
1.0702,1.8361,1.1225,1.809,1.5913,1.1774,1.2711,0.6292,0.8675,1.1756,0.7516,0.7856,1.4363,1.8162,1.2108,2.4239,2.2227,1.1423,2.1145,2.3459,2.0612,1.8233,1.2669,1.4338,0.4779,0.8447,1.1392,0.8919,0.1083,-1.2112
0.8483,1.709,0.8783,1.6529,1.4531,1.0604,1.2309,0.5783,0.8448,1.1668,0.7708,0.816,1.4233,1.7338,1.0233,2.1989,2.1017,0.9783,1.9856,2.1333,1.8876,1.7639,1.2725,1.4775,0.5254,0.8986,1.2028,0.9611,0.12,-1.2686
0.6293,1.5191,0.6223,1.456,1.28,0.9077,1.1408,0.4876,0.7844,1.1082,0.7589,0.8121,1.3596,1.6114,0.8377,1.9279,1.903,0.7977,1.8064,1.8864,1.6864,1.6606,1.2452,1.4782,0.5678,0.9321,1.227,1.0066,0.1086,-1.2916
0.4236,1.2801,0.3728,1.2295,1.0813,0.7284,1.0071,0.3703,0.6945,1.0053,0.7168,0.7732,1.2466,1.4534,0.6647,1.6261,1.6417,0.6152,1.5884,1.6189,1.4673,1.5188,1.1836,1.4326,0.5991,0.9381,1.2063,1.0196,0.0762,-1.2757
0.2391,1.0153,0.1463,0.9889,0.8692,0.5353,0.8421,0.2441,0.5871,0.8697,0.6491,0.7031,1.0914,1.2677,0.5112,1.3147,1.3453,0.4445,1.3491,1.3469,1.2412,1.3479,1.09,1.3428,0.6136,0.9122,1.1402,0.9949,0.0313,-1.2218
0.0819,0.7536,-0.0428,0.7524,0.6578,0.3437,0.6617,0.1271,0.4762,0.7172,0.5635,0.6087,0.9064,1.0659,0.3805,1.0186,1.0485,0.2967,1.1092,1.0882,1.0204,1.1603,0.9699,1.2155,0.6065,0.8529,1.0332,0.9321,-0.0139,-1.1357
-0.0424,0.5251,-0.1834,0.5392,0.4624,0.17,0.4836,0.0345,0.3746,0.5645,0.4689,0.4989,0.7074,0.8622,0.2741,0.7643,0.7874,0.1802,0.8903,0.8612,0.8184,0.9706,0.8317,1.0614,0.5746,0.7622,0.8941,0.8349,-0.0468,-1.0267
-0.1276,0.3556,-0.2684,0.3673,0.298,0.0292,0.324,-0.024,0.2924,0.4273,0.3745,0.3835,0.5126,0.6728,0.1933,0.5766,0.5928,0.0999,0.7117,0.6841,0.6497,0.7938,0.6854,0.8936,0.5175,0.6458,0.7354,0.7119,-0.0587,-0.9065
-0.1671,0.2641,-0.2945,0.2525,0.1782,-0.0671,0.1962,-0.0458,0.2353,0.3179,0.2889,0.2723,0.3399,0.5147,0.1412,0.4762,0.4866,0.0578,0.5893,0.5735,0.5291,0.6442,0.5416,0.727,0.4381,0.5133,0.5718,0.5755,-0.0468,-0.7873
-0.1539,0.2602,-0.2632,0.206,0.1134,-0.1121,0.1089,-0.0351,0.2047,0.2443,0.2199,0.175,0.2056,0.4036,0.1241,0.4766,0.4788,0.0529,0.5333,0.5425,0.4699,0.5339,0.4099,0.5768,0.3423,0.378,0.4192,0.441,-0.0147,-0.6805
-0.0824,0.3446,-0.1805,0.2338,0.1099,-0.1048,0.0661,-0.0005,0.1986,0.21,0.173,0.1001,0.122,0.3519,0.1501,0.5824,0.5677,0.0814,0.5481,0.5983,0.4817,0.4713,0.2983,0.4563,0.2384,0.2546,0.2927,0.3249,0.0286,-0.5954
0.0488,0.5093,-0.0566,0.3357,0.1686,-0.0499,0.0667,0.0471,0.2125,0.2142,0.1516,0.0545,0.0958,0.366,0.2278,0.7876,0.7409,0.1376,0.631,0.7405,0.5675,0.4597,0.2118,0.3758,0.1355,0.1574,0.2044,0.2421,0.0714,-0.539
0.235,0.7392,0.0939,0.5044,0.2841,0.0426,0.1057,0.0973,0.2405,0.2524,0.1562,0.0418,0.1268,0.4448,0.3618,1.0754,0.9781,0.2138,0.7731,0.9595,0.7226,0.4969,0.1524,0.3405,0.0416,0.0973,0.1617,0.203,0.1026,-0.5151
0.4639,1.0134,0.2535,0.7258,0.4448,0.1588,0.1742,0.1416,0.2765,0.3167,0.1841,0.0619,0.2076,0.5784,0.5499,1.4196,1.2534,0.301,0.9592,1.2369,0.9334,0.5748,0.119,0.3493,-0.0373,0.0792,0.1657,0.2111,0.1143,-0.5242
0.7162,1.3071,0.4028,0.9793,0.6336,0.2824,0.2609,0.1745,0.3147,0.397,0.2295,0.1098,0.3241,0.7492,0.7802,1.7872,1.5383,0.3892,1.1689,1.5463,1.1783,0.6807,0.1075,0.3953,-0.0978,0.1013,0.2105,0.2621,0.1039,-0.563
0.9681,1.5924,0.5244,1.2396,0.8299,0.397,0.3535,0.1934,0.3497,0.4817,0.2842,0.1763,0.4574,0.9342,1.0317,2.1419,1.8042,0.4689,1.3793,1.8567,1.4303,0.7984,0.1121,0.4665,-0.1389,0.1552,0.2847,0.3448,0.0736,-0.6241
1.1947,1.8411,0.605,1.479,1.012,0.4881,0.4398,0.1982,0.3772,0.5593,0.3388,0.2495,0.5868,1.108,1.2771,2.4483,2.0247,0.531,1.5665,2.1358,1.6605,0.9103,0.1259,0.5482,-0.1614,0.2277,0.3729,0.4429,0.0305,-0.6967
1.3728,2.0263,0.638,1.6708,1.1596,0.5455,0.5095,0.191,0.3943,0.6202,0.3846,0.3168,0.6926,1.2467,1.4869,2.6754,2.1769,0.5676,1.7081,2.354,1.8417,0.9998,0.1417,0.6249,-0.1671,0.3039,0.4581,0.5388,-0.0159,-0.7682
1.4845,2.1253,0.6235,1.7924,1.2569,0.5643,0.5552,0.1752,0.4001,0.6574,0.4149,0.3666,0.7584,1.3307,1.6338,2.8002,2.2432,0.5718,1.7859,2.4873,1.9517,1.0524,0.1523,0.6824,-0.1587,0.3689,0.5246,0.6162,-0.0551,-0.8259
1.518,2.1225,0.5672,1.8283,1.2937,0.5454,0.5721,0.1554,0.3955,0.6674,0.426,0.3905,0.7728,1.3462,1.6972,2.8087,2.2123,0.5384,1.7868,2.5194,1.9753,1.0573,0.1512,0.7088,-0.14,0.4109,0.559,0.663,-0.0775,-0.8591
1.469,2.0121,0.478,1.7724,1.2667,0.4952,0.5583,0.1364,0.3825,0.6495,0.4168,0.3833,0.7294,1.2863,1.6654,2.6974,2.0804,0.4646,1.7046,2.4438,1.9055,1.0078,0.1323,0.6957,-0.116,0.4217,0.5521,0.6723,-0.0758,-0.8608
1.3404,1.8001,0.366,1.629,1.1789,0.4239,0.5137,0.1221,0.3632,0.6053,0.3885,0.3435,0.6271,1.1511,1.5372,2.4732,1.8517,0.3508,1.5402,2.2635,1.7442,0.9023,0.0913,0.6379,-0.0929,0.3982,0.4992,0.6421,-0.0461,-0.8286
1.1423,1.5036,0.2415,1.4125,1.0394,0.3436,0.44,0.1148,0.3393,0.5373,0.3429,0.2721,0.4696,0.9472,1.3212,2.1523,1.5385,0.2018,1.3018,1.9911,1.501,0.7442,0.026,0.5346,-0.0772,0.3415,0.401,0.5756,0.0112,-0.7639
0.8913,1.1487,0.114,1.1447,0.8618,0.2659,0.3402,0.1141,0.3114,0.4491,0.2825,0.1733,0.2653,0.6867,1.0348,1.7578,1.1602,0.027,1.0046,1.6467,1.1927,0.5416,-0.0622,0.3894,-0.0748,0.2573,0.2636,0.4794,0.0912,-0.6719
0.6083,0.766,-0.0085,0.8513,0.6617,0.2003,0.219,0.1177,0.2789,0.3449,0.2103,0.0537,0.0272,0.3866,0.7014,1.317,0.7416,-0.1601,0.6686,1.2556,0.8411,0.307,-0.1688,0.2108,-0.0893,0.1547,0.098,0.3633,0.1844,-0.5594
0.3165,0.3849,-0.1203,0.5574,0.4549,0.1519,0.0829,0.1213,0.241,0.2301,0.1301,-0.0777,-0.2289,0.0665,0.347,0.8575,0.3088,-0.3441,0.3165,0.8446,0.47,0.0556,-0.2861,0.0112,-0.1214,0.0446,-0.0811,0.2386,0.2786,-0.4343
0.0378,0.0286,-0.2185,0.2828,0.2546,0.1214,-0.0602,0.1203,0.197,0.1113,0.0471,-0.21,-0.4851,-0.253,-0.0034,0.4033,-0.1134,-0.5104,-0.0295,0.4379,0.1028,-0.1968,-0.4052,-0.1946,-0.1687,-0.0613,-0.2573,0.1172,0.3602,-0.3041
-0.2106,-0.2899,-0.3029,0.0391,0.07,0.1048,-0.2012,0.111,0.147,-0.0042,-0.033,-0.3321,-0.724,-0.5532,-0.3293,-0.0283,-0.5064,-0.6479,-0.3516,0.0546,-0.2409,-0.4361,-0.5181,-0.3914,-0.226,-0.1532,-0.4153,0.0095,0.4177,-0.1757
-0.4191,-0.5681,-0.3758,-0.1716,-0.0945,0.0948,-0.3314,0.0916,0.0923,-0.1094,-0.1037,-0.4339,-0.931,-0.8193,-0.6172,-0.4284,-0.8595,-0.7518,-0.6385,-0.2944,-0.5472,-0.6519,-0.619,-0.5659,-0.2869,-0.2239,-0.5432,-0.0762,0.4431,-0.0545
-0.5868,-0.8133,-0.441,-0.3562,-0.2397,0.0822,-0.4437,0.0631,0.0355,-0.1983,-0.1596,-0.5079,-1.0968,-1.0423,-0.8619,-0.7962,-1.1719,-0.8241,-0.8872,-0.6065,-0.8092,-0.8393,-0.7063,-0.7092,-0.3445,-0.27,-0.634,-0.1356,0.4344,0.0557
-0.7215,-1.0384,-0.5031,-0.5269,-0.3699,0.0588,-0.5337,0.0291,-0.0196,-0.2669,-0.1969,-0.5505,-1.2183,-1.2201,-1.0654,-1.1376,-1.4505,-0.8739,-1.1023,-0.8861,-1.0272,-0.9989,-0.7819,-0.8177,-0.3934,-0.292,-0.687,-0.1679,0.3952,0.1525
-0.8362,-1.2572,-0.5668,-0.6977,-0.4914,0.0184,-0.6004,-0.0052,-0.0683,-0.3139,-0.2141,-0.5623,-1.2986,-1.3566,-1.2352,-1.4617,-1.7071,-0.9141,-1.2934,-1.1419,-1.2068,-1.1357,-0.8505,-0.8936,-0.43,-0.2939,-0.7068,-0.1763,0.3335,0.235
-0.9457,-1.4795,-0.6354,-0.879,-0.61,-0.0414,-0.6462,-0.034,-0.1061,-0.3408,-0.2122,-0.5481,-1.3459,-1.4599,-1.3815,-1.7762,-1.9535,-0.9588,-1.4716,-1.3831,-1.3566,-1.2564,-0.9172,-0.9432,-0.4536,-0.2823,-0.7026,-0.1673,0.26,0.3036
-1.0618,-1.7083,-0.71,-1.075,-0.7293,-0.1184,-0.6761,-0.0528,-0.1301,-0.3516,-0.1951,-0.5163,-1.371,-1.5397,-1.5142,-2.0848,-2.1975,-1.0187,-1.6447,-1.6158,-1.4851,-1.3674,-0.9854,-0.9754,-0.4655,-0.2649,-0.6856,-0.149,0.1851,0.3596
-1.1904,-1.9376,-0.7898,-1.281,-0.849,-0.207,-0.6963,-0.0595,-0.1395,-0.3521,-0.1686,-0.4766,-1.3847,-1.6041,-1.6408,-2.384,-2.4392,-1.099,-1.8149,-1.8404,-1.598,-1.4718,-1.0551,-0.999,-0.4686,-0.249,-0.6668,-0.1294,0.1166,0.4048
-1.3296,-2.1545,-0.8721,-1.4846,-0.9646,-0.2983,-0.7123,-0.0548,-0.136,-0.3485,-0.1395,-0.4387,-1.3949,-1.6576,-1.7646,-2.6635,-2.6703,-1.1977,-1.9772,-2.0507,-1.6967,-1.5683,-1.1223,-1.0205,-0.4659,-0.2401,-0.6546,-0.1145,0.0588,0.4406
-1.4711,-2.3423,-0.9534,-1.6678,-1.0682,-0.3824,-0.7274,-0.0416,-0.1234,-0.346,-0.1141,-0.4102,-1.4051,-1.6996,-1.8838,-2.9076,-2.8759,-1.3063,-2.1209,-2.235,-1.7782,-1.6518,-1.1798,-1.0423,-0.4596,-0.2405,-0.6532,-0.1073,0.0122,0.4669
-1.6023,-2.4842,-1.0287,-1.8119,-1.1501,-0.4499,-0.7417,-0.0236,-0.106,-0.3474,-0.0963,-0.3948,-1.4139,-1.7257,-1.9913,-3.0988,-3.0382,-1.4118,-2.2324,-2.3792,-1.836,-1.7144,-1.2194,-1.0627,-0.4504,-0.2499,-0.662,-0.1075,-0.0256,0.4822
-1.7106,-2.5681,-1.0919,-1.9014,-1.2007,-0.4938,-0.7521,-0.0044,-0.0878,-0.3526,-0.0872,-0.392,-1.4153,-1.7288,-2.0771,-3.2217,-3.1413,-1.4997,-2.299,-2.4699,-1.8623,-1.748,-1.2339,-1.0765,-0.4379,-0.2656,-0.6764,-0.1123,-0.0579,0.4836
-1.786,-2.5892,-1.1366,-1.9281,-1.2137,-0.5113,-0.7536,0.014,-0.0713,-0.3589,-0.0851,-0.3982,-1.4015,-1.7021,-2.131,-3.267,-3.1758,-1.5579,-2.3131,-2.4986,-1.8511,-1.747,-1.2196,-1.0769,-0.4208,-0.283,-0.6894,-0.1183,-0.087,0.4686
-1.8238,-2.5517,-1.1571,-1.8935,-1.1879,-0.5041,-0.7414,0.0311,-0.0577,-0.3623,-0.0866,-0.408,-1.3659,-1.6422,-2.1473,-3.2345,-3.1415,-1.5798,-2.2739,-2.4641,-1.8004,-1.7095,-1.1775,-1.0577,-0.3974,-0.2976,-0.6936,-0.1226,-0.1134,0.4361
-1.8257,-2.4683,-1.1517,-1.8092,-1.1281,-0.4788,-0.7128,0.0471,-0.0468,-0.359,-0.0881,-0.4165,-1.3053,-1.5505,-2.1276,-3.1338,-3.0481,-1.5663,-2.1885,-2.3736,-1.7135,-1.6388,-1.113,-1.0155,-0.3669,-0.3052,-0.6836,-0.1239,-0.135,0.3876
-1.7994,-2.3576,-1.1237,-1.6941,-1.0447,-0.445,-0.668,0.063,-0.0382,-0.3463,-0.087,-0.4201,-1.2216,-1.4338,-2.0812,-2.9832,-2.9135,-1.5259,-2.0705,-2.2419,-1.5997,-1.5426,-1.0346,-0.9508,-0.3292,-0.3028,-0.6571,-0.1223,-0.1486,0.3273
-1.7565,-2.24,-1.081,-1.5706,-0.9515,-0.4132,-0.6108,0.0794,-0.0311,-0.3237,-0.0826,-0.4178,-1.1211,-1.3032,-2.023,-2.8058,-2.76,-1.4725,-1.9369,-2.0878,-1.4719,-1.4315,-0.9522,-0.8676,-0.2854,-0.2893,-0.6149,-0.1188,-0.151,0.261
-1.7099,-2.1333,-1.0343,-1.4594,-0.8624,-0.3914,-0.547,0.0967,-0.0246,-0.2921,-0.0754,-0.41,-1.0128,-1.1711,-1.9692,-2.625,-2.609,-1.4221,-1.8047,-1.9309,-1.3439,-1.3164,-0.8745,-0.7725,-0.2374,-0.2653,-0.5606,-0.1146,-0.1401,0.1941
-1.6707,-2.0489,-0.9931,-1.3753,-0.7882,-0.384,-0.4823,0.1153,-0.0179,-0.2534,-0.0665,-0.3982,-0.9058,-1.0487,-1.9329,-2.4601,-2.4776,-1.3883,-1.6876,-1.787,-1.228,-1.207,-0.8074,-0.6725,-0.1878,-0.2329,-0.4988,-0.1097,-0.1162,0.1314
-1.6455,-1.9909,-0.9637,-1.3246,-0.7346,-0.39,-0.4216,0.1355,-0.0097,-0.2095,-0.0569,-0.3836,-0.8074,-0.9435,-1.9205,-2.3235,-2.3755,-1.3795,-1.5938,-1.6664,-1.1321,-1.1098,-0.7536,-0.574,-0.1391,-0.1958,-0.4345,-0.1033,-0.0818,0.0758
-1.6354,-1.9558,-0.9479,-1.3049,-0.7019,-0.4046,-0.3671,0.1582,0.0013,-0.1619,-0.0468,-0.3674,-0.7218,-0.8588,-1.9308,-2.2203,-2.3046,-1.3969,-1.5257,-1.5732,-1.0595,-1.0282,-0.7127,-0.4813,-0.0934,-0.1582,-0.3718,-0.094,-0.0413,0.0295
-1.6368,-1.9358,-0.9433,-1.3079,-0.6859,-0.4207,-0.3194,0.1843,0.0165,-0.1119,-0.0361,-0.3499,-0.6502,-0.794,-1.9557,-2.1486,-2.2602,-1.4345,-1.4812,-1.506,-1.0092,-0.963,-0.6827,-0.3975,-0.0528,-0.1242,-0.3139,-0.0808,0,-0.0064
-1.644,-1.9211,-0.9461,-1.3222,-0.6803,-0.4314,-0.277,0.2149,0.0373,-0.0604,-0.0241,-0.3316,-0.5913,-0.7459,-1.983,-2.1025,-2.2336,-1.4815,-1.4549,-1.4601,-0.9771,-0.913,-0.6614,-0.3242,-0.0186,-0.0971,-0.2631,-0.0634,0.0372,-0.0315
-1.6509,-1.9034,-0.9528,-1.3367,-0.6789,-0.4324,-0.2379,0.2507,0.0646,-0.0086,-0.0108,-0.3127,-0.5428,-0.7101,-2.0004,-2.0739,-2.2147,-1.5249,-1.4404,-1.4296,-0.9575,-0.8762,-0.6468,-0.2624,0.0081,-0.078,-0.2205,-0.043,0.0662,-0.0466
-1.6537,-1.8777,-0.9619,-1.3439,-0.6775,-0.4226,-0.2004,0.2915,0.0988,0.0429,0.0041,-0.2931,-0.5017,-0.6824,-1.999,-2.0556,-2.1947,-1.5537,-1.4319,-1.4094,-0.9455,-0.8507,-0.6379,-0.2123,0.0266,-0.0658,-0.1863,-0.0209,0.0847,-0.0528
-1.6512,-1.8442,-0.9748,-1.3408,-0.6748,-0.4056,-0.1633,0.3359,0.1394,0.0933,0.021,-0.2722,-0.4656,-0.6601,-1.9762,-2.043,-2.1685,-1.561,-1.4258,-1.397,-0.9378,-0.8344,-0.6344,-0.1738,0.0375,-0.0574,-0.1596,0.0015,0.0924,-0.051
-1.6452,-1.808,-0.9956,-1.3303,-0.6733,-0.3883,-0.1269,0.3813,0.185,0.1422,0.0404,-0.2489,-0.4328,-0.6423,-1.9367,-2.0353,-2.1357,-1.5467,-1.4212,-1.3928,-0.934,-0.8267,-0.6364,-0.1464,0.0422,-0.0482,-0.1383,0.0238,0.0902,-0.0415
-1.6393,-1.7785,-1.0296,-1.3194,-0.6778,-0.3803,-0.0928,0.424,0.2334,0.189,0.063,-0.2221,-0.4029,-0.6305,-1.8913,-2.0355,-2.1015,-1.5169,-1.4206,-1.4001,-0.9362,-0.8277,-0.6439,-0.1289,0.0428,-0.0338,-0.1199,0.0465,0.0807,-0.0235
-1.6375,-1.7665,-1.0815,-1.3176,-0.6941,-0.3908,-0.0633,0.4596,0.2814,0.233,0.0892,-0.1914,-0.3765,-0.6271,-1.8539,-2.0488,-2.0748,-1.4826,-1.4288,-1.424,-0.9489,-0.8385,-0.6573,-0.1197,0.0422,-0.0114,-0.1017,0.0706,0.0673,0.0044
-1.6437,-1.7809,-1.1531,-1.3338,-0.7267,-0.4267,-0.041,0.484,0.3251,0.2731,0.1184,-0.1578,-0.3553,-0.6347,-1.8377,-2.0811,-2.0663,-1.4574,-1.451,-1.469,-0.9765,-0.8608,-0.6768,-0.1169,0.043,0.0188,-0.0823,0.0969,0.0542,0.0426
-1.6605,-1.8259,-1.2415,-1.3734,-0.7773,-0.4897,-0.0277,0.4944,0.3609,0.3076,0.149,-0.1241,-0.3409,-0.6547,-1.8517,-2.1365,-2.0858,-1.4536,-1.4921,-1.5377,-1.0222,-0.8956,-0.7027,-0.1188,0.0469,0.0536,-0.0609,0.1247,0.0458,0.0904
-1.6891,-1.8993,-1.3387,-1.4372,-0.8436,-0.5758,-0.0238,0.4896,0.3854,0.3349,0.178,-0.0943,-0.3343,-0.6864,-1.8987,-2.2162,-2.1395,-1.4797,-1.5544,-1.629,-1.0865,-0.9432,-0.7351,-0.1234,0.0548,0.088,-0.0381,0.1524,0.0464,0.1449
-1.7286,-1.9931,-1.4339,-1.521,-0.9201,-0.6764,-0.0282,0.4707,0.3966,0.3538,0.2018,-0.0728,-0.3357,-0.7271,-1.9747,-2.3179,-2.2289,-1.5381,-1.6372,-1.739,-1.1669,-1.0021,-0.7735,-0.1288,0.0667,0.1172,-0.0148,0.1777,0.0593,0.2023
-1.777,-2.0957,-1.5158,-1.6171,-0.9995,-0.7797,-0.0382,0.4409,0.3944,0.3641,0.2176,-0.0626,-0.3433,-0.7725,-2.0707,-2.4364,-2.3502,-1.6245,-1.7371,-1.8611,-1.2584,-1.0693,-0.8171,-0.1332,0.0823,0.138,0.0081,0.1987,0.0857,0.2586
-1.8318,-2.1946,-1.5767,-1.7159,-1.0738,-0.8739,-0.0499,0.4053,0.3808,0.3672,0.2235,-0.0647,-0.3546,-0.8178,-2.1752,-2.5648,-2.4947,-1.7291,-1.8482,-1.9884,-1.3548,-1.1406,-0.8639,-0.135,0.1014,0.1504,0.0305,0.2147,0.1247,0.3101
-1.8905,-2.2795,-1.6141,-1.8086,-1.1364,-0.9488,-0.0593,0.3697,0.3597,0.3657,0.2197,-0.0772,-0.3656,-0.8589,-2.2766,-2.6955,-2.6503,-1.8382,-1.9631,-2.1138,-1.45,-1.2112,-0.911,-0.133,0.1236,0.1568,0.0528,0.2264,0.1726,0.3543
-1.9513,-2.3438,-1.631,-1.8885,-1.1825,-0.9983,-0.0625,0.3397,0.3366,0.3634,0.2083,-0.0957,-0.3722,-0.8925,-2.3658,-2.8217,-2.8028,-1.9384,-2.0739,-2.2319,-1.5386,-1.2763,-0.9552,-0.1264,0.1485,0.1614,0.0755,0.2354,0.2241,0.3895
-2.0129,-2.385,-1.6347,-1.9512,-1.2101,-1.0204,-0.0569,0.32,0.3175,0.3641,0.1929,-0.1145,-0.3709,-0.9171,-2.4376,-2.9374,-2.9384,-2.0183,-2.1735,-2.3385,-1.6163,-1.3321,-0.9932,-0.1154,0.1753,0.1679,0.0992,0.2434,0.2729,0.4151
-2.0746,-2.4047,-1.6337,-1.9956,-1.2193,-1.0174,-0.041,0.3137,0.3079,0.371,0.1784,-0.1277,-0.3588,-0.9318,-2.4905,-3.038,-3.0456,-2.0712,-2.2559,-2.4307,-1.6802,-1.3758,-1.0224,-0.1,0.2025,0.1786,0.1241,0.2514,0.3136,0.4309
-2.135,-2.4074,-1.6349,-2.0226,-1.2123,-0.9953,-0.0152,0.3211,0.3117,0.386,0.1695,-0.1305,-0.3346,-0.9368,-2.5259,-3.1204,-3.1171,-2.0954,-2.3172,-2.5065,-1.7284,-1.406,-1.0417,-0.0807,0.2283,0.1942,0.1501,0.2597,0.3424,0.4371
-2.1924,-2.3991,-1.6416,-2.0348,-1.1929,-0.9622,0.0186,0.34,0.3298,0.4092,0.1704,-0.1199,-0.2988,-0.933,-2.5473,-3.183,-3.1509,-2.0939,-2.3563,-2.5648,-1.7603,-1.4228,-1.0512,-0.0577,0.2513,0.2141,0.1775,0.2682,0.3582,0.4341
-2.2445,-2.3858,-1.6527,-2.0358,-1.1656,-0.927,0.0568,0.3653,0.3598,0.4387,0.183,-0.0954,-0.2537,-0.9219,-2.5592,-3.2255,-3.1499,-2.0736,-2.3745,-2.6053,-1.7761,-1.4278,-1.0528,-0.0308,0.2705,0.2378,0.2069,0.2769,0.3628,0.4231
-2.2885,-2.3724,-1.663,-2.0293,-1.1358,-0.898,0.0949,0.3894,0.3959,0.4706,0.2069,-0.0591,-0.2037,-0.9057,-2.5673,-3.2494,-3.1219,-2.0434,-2.3754,-2.6289,-1.7778,-1.4234,-1.0492,-0.0001,0.286,0.2653,0.2392,0.2869,0.3601,0.4063
-2.3214,-2.3623,-1.6662,-2.0189,-1.1086,-0.8815,0.1279,0.4044,0.4302,0.4998,0.2388,-0.0151,-0.1543,-0.8873,-2.5772,-3.257,-3.0767,-2.013,-2.3642,-2.6379,-1.7683,-1.4131,-1.0436,0.0337,0.299,0.2969,0.2753,0.2992,0.3552,0.3873
-2.3411,-2.3571,-1.6569,-2.0078,-1.0884,-0.8808,0.151,0.4037,0.4548,0.5211,0.2735,0.0307,-0.1114,-0.8699,-2.5938,-3.2518,-3.0249,-1.991,-2.3465,-2.6355,-1.7514,-1.4001,-1.0392,0.0693,0.3108,0.3332,0.315,0.315,0.3528,0.3703
-2.3473,-2.3572,-1.6334,-1.9989,-1.0787,-0.8964,0.1609,0.3845,0.4637,0.5301,0.3054,0.0725,-0.0805,-0.857,-2.6196,-3.2376,-2.9757,-1.9833,-2.3275,-2.6255,-1.7311,-1.3876,-1.0383,0.1041,0.323,0.3744,0.3572,0.3349,0.3561,0.3588
-2.3425,-2.3618,-1.5984,-1.9942,-1.0813,-0.9255,0.1555,0.3479,0.4547,0.5243,0.3291,0.1048,-0.0656,-0.8514,-2.6534,-3.2178,-2.9353,-1.9923,-2.311,-2.6118,-1.7112,-1.3778,-1.0427,0.1347,0.3362,0.419,0.3992,0.3579,0.3661,0.3544
-2.3314,-2.3696,-1.5597,-1.9953,-1.0968,-0.964,0.1343,0.2989,0.4288,0.5029,0.3411,0.1237,-0.069,-0.8556,-2.6899,-3.195,-2.9069,-2.0169,-2.2994,-2.5979,-1.6949,-1.373,-1.0534,0.1568,0.3494,0.464,0.4365,0.382,0.3813,0.3553
-2.3205,-2.3786,-1.5276,-2.0029,-1.1247,-1.0073,0.0977,0.2443,0.3898,0.4665,0.339,0.127,-0.091,-0.8715,-2.7212,-3.1712,-2.8909,-2.0527,-2.2939,-2.5863,-1.6847,-1.3751,-1.0714,0.1657,0.3595,0.5041,0.4637,0.4032,0.398,0.3572
-2.316,-2.3874,-1.513,-2.0169,-1.1637,-1.0517,0.0465,0.1912,0.3422,0.4165,0.3222,0.1138,-0.131,-0.9003,-2.7394,-3.1476,-2.8858,-2.0935,-2.295,-2.579,-1.6826,-1.3859,-1.0977,0.1569,0.3621,0.5322,0.4748,0.4172,0.4117,0.3553
-2.3209,-2.3948,-1.5233,-2.0365,-1.2121,-1.095,-0.0177,0.1448,0.2904,0.3551,0.2915,0.0853,-0.187,-0.9424,-2.7388,-3.1248,-2.8893,-2.1325,-2.3024,-2.5769,-1.69,-1.4068,-1.1328,0.1276,0.352,0.5415,0.4649,0.4195,0.418,0.3464
-2.3342,-2.3997,-1.5602,-2.0597,-1.2676,-1.1358,-0.0929,0.1079,0.2382,0.2853,0.2493,0.044,-0.2567,-0.9968,-2.718,-3.1028,-2.8984,-2.1636,-2.3153,-2.58,-1.7071,-1.4379,-1.176,0.0768,0.3255,0.5267,0.4316,0.4077,0.4138,0.3311
-2.3503,-2.4016,-1.6181,-2.0835,-1.3272,-1.1733,-0.1759,0.0811,0.1885,0.2112,0.1998,-0.0055,-0.3363,-1.0615,-2.6791,-3.0805,-2.9098,-2.1821,-2.3315,-2.5869,-1.7332,-1.4774,-1.2247,0.007,0.2815,0.4863,0.3761,0.382,0.3979,0.3137
-2.3604,-2.3997,-1.6851,-2.1044,-1.3874,-1.2069,-0.262,0.0635,0.144,0.1383,0.149,-0.0574,-0.4217,-1.1326,-2.6268,-3.0561,-2.92,-2.1844,-2.348,-2.5953,-1.7662,-1.5214,-1.2742,-0.0766,0.222,0.4235,0.3032,0.3455,0.3709,0.3014
-2.3558,-2.3937,-1.7452,-2.1185,-1.4446,-1.2354,-0.3454,0.0536,0.1073,0.0728,0.1037,-0.1047,-0.5072,-1.2053,-2.5661,-3.0271,-2.9243,-2.1682,-2.3605,-2.6015,-1.8032,-1.5643,-1.3182,-0.1665,0.1523,0.3458,0.2211,0.3044,0.3348,0.3016
-2.3299,-2.3838,-1.7818,-2.1233,-1.4951,-1.2577,-0.4199,0.0498,0.0806,0.0206,0.0707,-0.1415,-0.5873,-1.2744,-2.5019,-2.9911,-2.9182,-2.1329,-2.3648,-2.6018,-1.841,-1.5998,-1.3501,-0.2543,0.079,0.2632,0.1391,0.2656,0.293,0.3192
-2.2806,-2.3703,-1.7817,-2.1176,-1.5358,-1.2724,-0.4794,0.0506,0.065,-0.0138,0.0546,-0.1631,-0.6565,-1.3345,-2.4371,-2.9461,-2.8972,-2.0795,-2.357,-2.593,-1.8762,-1.6225,-1.3647,-0.333,0.0089,0.1863,0.0658,0.2356,0.2491,0.3555
-2.2099,-2.3536,-1.7377,-2.1017,-1.5643,-1.2784,-0.5194,0.0544,0.0605,-0.0285,0.0572,-0.1681,-0.7104,-1.3817,-2.373,-2.8913,-2.858,-2.0109,-2.335,-2.5728,-1.9061,-1.6291,-1.3598,-0.3976,-0.0527,0.1235,0.0076,0.2178,0.207,0.4075
-2.1236,-2.3334,-1.6507,-2.0769,-1.5789,-1.2746,-0.5377,0.0601,0.0656,-0.0248,0.0766,-0.1578,-0.7471,-1.4137,-2.309,-2.8267,-2.7997,-1.9314,-2.2985,-2.5405,-1.9285,-1.6195,-1.3368,-0.4461,-0.103,0.0792,-0.033,0.2121,0.1704,0.4682
-2.0291,-2.3081,-1.5293,-2.0446,-1.579,-1.2599,-0.5348,0.0665,0.0778,-0.0067,0.1085,-0.136,-0.7668,-1.4303,-2.2428,-2.7533,-2.7236,-1.8454,-2.2497,-2.4967,-1.9421,-1.5967,-1.3005,-0.4794,-0.1413,0.0541,-0.0567,0.2152,0.1419,0.5293
-1.9332,-2.2746,-1.3875,-2.005,-1.5647,-1.2338,-0.5145,0.0724,0.0936,0.0196,0.1462,-0.1082,-0.7726,-1.4337,-2.1715,-2.6719,-2.6337,-1.7561,-2.1923,-2.4428,-1.9463,-1.5663,-1.2582,-0.5002,-0.1689,0.0451,-0.0668,0.2216,0.1233,0.5827
-1.8413,-2.2284,-1.2417,-1.9573,-1.537,-1.1963,-0.4829,0.0767,0.1093,0.0471,0.1828,-0.0801,-0.7689,-1.4275,-2.0927,-2.5833,-2.5352,-1.6654,-2.1307,-2.3806,-1.9409,-1.5347,-1.2178,-0.5127,-0.1881,0.0471,-0.0681,0.2256,0.1148,0.6226
-1.7559,-2.1657,-1.1064,-1.8999,-1.4979,-1.1487,-0.4479,0.0775,0.1212,0.0688,0.2113,-0.0569,-0.7614,-1.4159,-2.0054,-2.4881,-2.4344,-1.5744,-2.0696,-2.3114,-1.926,-1.5077,-1.1864,-0.5206,-0.2015,0.0541,-0.0654,0.2227,0.1158,0.6467
-1.6772,-2.0833,-0.9915,-1.8311,-1.4496,-1.0934,-0.4174,0.0736,0.1258,0.079,0.2264,-0.0423,-0.7546,-1.4024,-1.9109,-2.3866,-2.3365,-1.4845,-2.012,-2.2362,-1.9017,-1.489,-1.1686,-0.527,-0.2114,0.0612,-0.0624,0.2107,0.1241,0.6558
-1.6032,-1.9806,-0.901,-1.7497,-1.3945,-1.0337,-0.3975,0.0639,0.1208,0.0746,0.2244,-0.0383,-0.7514,-1.3886,-1.8121,-2.279,-2.2448,-1.398,-1.9587,-2.1549,-1.8672,-1.4787,-1.1653,-0.5331,-0.2192,0.0646,-0.0611,0.1901,0.1369,0.6533
-1.5299,-1.8583,-0.8329,-1.6553,-1.3338,-0.973,-0.3913,0.0487,0.1052,0.0553,0.2043,-0.045,-0.752,-1.3734,-1.7125,-2.1646,-2.159,-1.3181,-1.9077,-2.0662,-1.8209,-1.4733,-1.1729,-0.5383,-0.2251,0.0628,-0.0619,0.1638,0.1509,0.6439
-1.4526,-1.719,-0.7806,-1.548,-1.2682,-0.9141,-0.398,0.0298,0.0796,0.0241,0.1679,-0.0605,-0.7542,-1.3531,-1.6152,-2.0419,-2.0746,-1.2474,-1.8535,-1.9673,-1.7602,-1.4657,-1.1843,-0.5407,-0.2289,0.0556,-0.0636,0.1357,0.1628,0.632
-1.3659,-1.5659,-0.735,-1.4287,-1.1967,-0.8585,-0.4131,0.0104,0.0468,-0.0135,0.1193,-0.082,-0.754,-1.3225,-1.5211,-1.9081,-1.9831,-1.1872,-1.7885,-1.8546,-1.6818,-1.4472,-1.1899,-0.5374,-0.2295,0.0441,-0.0649,0.1101,0.1698,0.6208
-1.2656,-1.4026,-0.6863,-1.2981,-1.118,-0.806,-0.4295,-0.0055,0.0112,-0.0501,0.0653,-0.106,-0.7468,-1.2761,-1.4289,-1.7597,-1.8747,-1.1358,-1.7047,-1.7241,-1.5828,-1.409,-1.1797,-0.5261,-0.2263,0.0295,-0.0646,0.09,0.1704,0.6116
-1.1489,-1.2336,-0.6267,-1.1578,-1.0307,-0.7553,-0.4394,-0.014,-0.0218,-0.0782,0.0137,-0.1284,-0.7287,-1.2103,-1.3355,-1.594,-1.7404,-1.0891,-1.5956,-1.5729,-1.462,-1.3449,-1.1457,-0.5052,-0.219,0.0132,-0.0624,0.0767,0.165,0.6036
-1.0158,-1.0633,-0.5515,-1.0095,-0.934,-0.7037,-0.4353,-0.0119,-0.0465,-0.091,-0.027,-0.1457,-0.6973,-1.1238,-1.2366,-1.4098,-1.5756,-1.0412,-1.4588,-1.4003,-1.3203,-1.2523,-1.0835,-0.4747,-0.2081,-0.0033,-0.0588,0.0701,0.1556,0.5943
-0.8694,-0.8961,-0.4596,-0.8557,-0.8282,-0.6486,-0.4122,0.0021,-0.0577,-0.0841,-0.0492,-0.1547,-0.652,-1.0183,-1.128,-1.2085,-1.3816,-0.9862,-1.2965,-1.2085,-1.1611,-1.1334,-0.9938,-0.4358,-0.1948,-0.0185,-0.0544,0.0695,0.1455,0.5797
-0.7151,-0.7358,-0.3534,-0.6991,-0.7144,-0.5873,-0.3677,0.0275,-0.052,-0.0559,-0.0479,-0.1535,-0.5942,-0.8979,-1.0065,-0.9947,-1.166,-0.9201,-1.1154,-1.0027,-0.99,-0.9941,-0.8815,-0.3905,-0.1806,-0.0305,-0.0499,0.0737,0.1387,0.5555
-0.5597,-0.5849,-0.2375,-0.543,-0.5946,-0.5182,-0.303,0.0622,-0.0282,-0.0083,-0.0215,-0.1414,-0.5261,-0.768,-0.8711,-0.7748,-0.9409,-0.8411,-0.9251,-0.7902,-0.8138,-0.843,-0.7547,-0.3408,-0.1669,-0.0373,-0.0453,0.0822,0.1384,0.5186
-0.4102,-0.4442,-0.1173,-0.3907,-0.4709,-0.4407,-0.2219,0.1028,0.0124,0.0545,0.0278,-0.1191,-0.4505,-0.6344,-0.7239,-0.5573,-0.72,-0.7509,-0.7363,-0.5797,-0.6395,-0.6893,-0.6228,-0.2885,-0.1543,-0.0372,-0.0398,0.0946,0.1467,0.4681
-0.2728,-0.3135,0.0022,-0.2458,-0.346,-0.3554,-0.1307,0.1456,0.0661,0.1261,0.0946,-0.0888,-0.3702,-0.5025,-0.5704,-0.3509,-0.5167,-0.6541,-0.5591,-0.3803,-0.4738,-0.5414,-0.4951,-0.2347,-0.143,-0.0296,-0.0324,0.1107,0.1638,0.4062
-0.1524,-0.1918,0.1167,-0.112,-0.223,-0.2646,-0.0368,0.1874,0.1272,0.1993,0.1704,-0.0543,-0.2883,-0.377,-0.4192,-0.1648,-0.3416,-0.5574,-0.4016,-0.2009,-0.3228,-0.4063,-0.3795,-0.1807,-0.1327,-0.0154,-0.0226,0.1291,0.1885,0.3381
-0.0529,-0.0791,0.2233,0.007,-0.1058,-0.1717,0.0522,0.2252,0.189,0.2667,0.2454,-0.0205,-0.2077,-0.2623,-0.2809,-0.0068,-0.2019,-0.4686,-0.27,-0.0489,-0.1916,-0.2893,-0.2819,-0.128,-0.1226,0.0028,-0.0104,0.1476,0.2189,0.2706
0.0231,0.0238,0.3195,0.1077,0.0014,-0.0813,0.1293,0.2571,0.2445,0.3223,0.3093,0.0072,-0.132,-0.1623,-0.1656,0.1166,-0.1008,-0.3947,-0.1681,0.0699,-0.0842,-0.1942,-0.206,-0.0787,-0.1122,0.021,0.0028,0.1629,0.2525,0.2113
0.0746,0.1142,0.4031,0.1873,0.0945,0.0013,0.1891,0.2816,0.2878,0.3612,0.3536,0.0235,-0.0652,-0.0802,-0.0813,0.2016,-0.0377,-0.3402,-0.0974,0.152,-0.0036,-0.1226,-0.1529,-0.0355,-0.1007,0.0351,0.0149,0.1712,0.2869,0.1668
0.1027,0.1888,0.472,0.2446,0.1694,0.0708,0.228,0.2978,0.3143,0.381,0.3725,0.0245,-0.0112,-0.0185,-0.0312,0.2475,-0.0083,-0.3064,-0.0569,0.1971,0.0495,-0.0747,-0.121,-0.0013,-0.0879,0.0417,0.024,0.17,0.3191,0.1414
0.1108,0.2443,0.5237,0.2799,0.2231,0.1224,0.2448,0.3052,0.322,0.3816,0.3645,0.0089,0.0265,0.0217,-0.0127,0.2574,-0.0055,-0.2901,-0.0429,0.2076,0.0761,-0.0484,-0.1062,0.022,-0.0737,0.039,0.0283,0.1583,0.3451,0.1369
0.1048,0.2788,0.5554,0.2954,0.2542,0.1526,0.2403,0.3036,0.3111,0.365,0.3321,-0.0218,0.0456,0.0411,-0.0177,0.2376,-0.0196,-0.2846,-0.0494,0.1892,0.0796,-0.0397,-0.1026,0.0332,-0.0587,0.027,0.0274,0.1377,0.3593,0.1519
0.0927,0.293,0.5645,0.2952,0.263,0.1597,0.2174,0.2934,0.2844,0.3351,0.2819,-0.0634,0.046,0.0423,-0.0334,0.198,-0.0395,-0.2803,-0.0679,0.1503,0.0656,-0.0432,-0.1036,0.0325,-0.0442,0.0069,0.0221,0.1112,0.3552,0.1826
0.0835,0.2906,0.5495,0.2846,0.2518,0.1448,0.1804,0.2754,0.2461,0.2971,0.2228,-0.1097,0.0298,0.03,-0.0449,0.1505,-0.0537,-0.2669,-0.0881,0.1016,0.0417,-0.0525,-0.1027,0.0216,-0.0319,-0.0192,0.0139,0.083,0.3268,0.223
0.0853,0.2784,0.5113,0.2703,0.2251,0.1119,0.1346,0.2507,0.2014,0.2564,0.1646,-0.1535,0.0016,0.0103,-0.0386,0.1085,-0.0513,-0.2351,-0.0996,0.0548,0.016,-0.0607,-0.095,0.0032,-0.024,-0.0486,0.0048,0.0571,0.2699,0.2656
0.1035,0.2654,0.4547,0.2589,0.1892,0.0678,0.086,0.2204,0.1555,0.2183,0.1157,-0.1883,-0.0325,-0.0104,-0.0044,0.0849,-0.023,-0.1784,-0.0924,0.0214,-0.0033,-0.0611,-0.0769,-0.019,-0.0219,-0.078,-0.0032,0.0378,0.1842,0.3021
0.1395,0.2607,0.3886,0.2561,0.1507,0.0215,0.0399,0.1855,0.1125,0.1868,0.0822,-0.2092,-0.0658,-0.0257,0.0619,0.09,0.0371,-0.0942,-0.0592,0.0112,-0.0095,-0.0482,-0.0464,-0.0412,-0.0258,-0.1036,-0.0083,0.0283,0.0741,0.3246
0.1907,0.272,0.3258,0.2658,0.1163,-0.0177,0.0004,0.1473,0.075,0.1641,0.0669,-0.2138,-0.0924,-0.0311,0.1577,0.1303,0.131,0.0149,0.0041,0.0303,0.0015,-0.0178,-0.0028,-0.0596,-0.0341,-0.1211,-0.0088,0.0311,-0.0515,0.3272
0.252,0.3036,0.2803,0.2896,0.0913,-0.0422,-0.03,0.1074,0.044,0.1508,0.0693,-0.2023,-0.1087,-0.0239,0.2745,0.2069,0.2556,0.1422,0.0968,0.0807,0.031,0.0318,0.0531,-0.071,-0.044,-0.1269,-0.0043,0.0471,-0.1792,0.3079
0.3185,0.3565,0.2649,0.3268,0.0793,-0.0469,-0.0502,0.0681,0.0195,0.1459,0.0862,-0.1777,-0.1133,-0.0037,0.3996,0.3158,0.4031,0.2773,0.2138,0.1602,0.0778,0.0994,0.1187,-0.0737,-0.0517,-0.1186,0.0052,0.0753,-0.2937,0.2694
0.3875,0.4295,0.2883,0.3762,0.0828,-0.03,-0.0603,0.0324,0.0008,0.1477,0.1128,-0.1451,-0.1075,0.0282,0.5191,0.4491,0.5619,0.408,0.3464,0.2631,0.1388,0.1813,0.1897,-0.0671,-0.0538,-0.0962,0.0187,0.1121,-0.3796,0.2195
0.4589,0.5203,0.3539,0.4366,0.1031,0.0078,-0.0609,0.0039,-0.0123,0.1545,0.1435,-0.1103,-0.0939,0.0694,0.6203,0.5969,0.7184,0.5226,0.4834,0.3823,0.2105,0.2711,0.2603,-0.0521,-0.048,-0.063,0.0343,0.1525,-0.424,0.169
0.535,0.6267,0.4593,0.5079,0.1411,0.0641,-0.0521,-0.0135,-0.0196,0.1655,0.1738,-0.0785,-0.0752,0.1174,0.694,0.7489,0.8592,0.6116,0.6132,0.5101,0.2895,0.3609,0.3239,-0.0308,-0.0346,-0.0244,0.0498,0.1904,-0.4187,0.1291
0.6186,0.7469,0.5963,0.5902,0.1972,0.1355,-0.0338,-0.0168,-0.0202,0.1808,0.2002,-0.0535,-0.0534,0.17,0.7355,0.8962,0.9735,0.67,0.7256,0.6393,0.3731,0.4426,0.3741,-0.0059,-0.0157,0.0121,0.0635,0.2203,-0.3621,0.1085
0.7109,0.8788,0.7516,0.6837,0.2709,0.2182,-0.0055,-0.0048,-0.0133,0.2004,0.2209,-0.0368,-0.0294,0.2259,0.7462,1.0322,1.0547,0.6977,0.8137,0.7641,0.459,0.5091,0.4063,0.0196,0.0047,0.039,0.0737,0.2385,-0.2594,0.1101
0.8105,1.0196,0.9082,0.7878,0.3606,0.3079,0.0332,0.0217,0.0011,0.2246,0.2352,-0.0281,-0.002,0.2839,0.7328,1.1535,1.1012,0.6995,0.8748,0.8804,0.5455,0.5564,0.4186,0.0433,0.0222,0.0506,0.0803,0.244,-0.1226,0.1306
0.9127,1.1652,1.0485,0.9001,0.4627,0.4002,0.0818,0.0596,0.0221,0.2529,0.2438,-0.0252,0.0307,0.3439,0.7066,1.2595,1.1172,0.684,0.9108,0.9858,0.6309,0.5839,0.4122,0.0643,0.0333,0.044,0.0843,0.2391,0.0317,0.1604
1.0111,1.3108,1.1574,1.0171,0.5727,0.4908,0.1388,0.1041,0.0477,0.2841,0.2482,-0.0245,0.0714,0.4059,0.6819,1.3526,1.1114,0.6622,0.9282,1.0799,0.714,0.5953,0.3923,0.0832,0.0365,0.0206,0.0882,0.2288,0.185,0.1864
1.0994,1.4506,1.2263,1.1343,0.6851,0.5756,0.2023,0.1502,0.0762,0.3175,0.251,-0.0217,0.1227,0.4706,0.673,1.4369,1.0954,0.6453,0.9365,1.1643,0.7943,0.5978,0.3666,0.1032,0.0328,-0.0141,0.0957,0.2203,0.3196,0.1955
1.1736,1.5782,1.2544,1.2472,0.7947,0.6516,0.2705,0.1941,0.1062,0.353,0.2563,-0.0124,0.1863,0.5392,0.6916,1.517,1.0814,0.6424,0.9464,1.2419,0.8722,0.6007,0.3445,0.1284,0.0252,-0.052,0.1112,0.2209,0.4216,0.1782
1.2327,1.6872,1.2497,1.3515,0.8971,0.7171,0.3416,0.2336,0.1375,0.3918,0.2681,0.0072,0.2622,0.6127,0.7436,1.5969,1.0794,0.659,0.9673,1.3166,0.9488,0.6131,0.3352,0.1631,0.0176,-0.0837,0.1381,0.2361,0.4835,0.1303
1.279,1.7713,1.2262,1.4437,0.989,0.7717,0.4141,0.2686,0.1707,0.4357,0.2901,0.0386,0.3484,0.6918,0.828,1.6789,1.0958,0.6952,1.0057,1.3922,1.0257,0.6416,0.3452,0.2103,0.0139,-0.1013,0.1783,0.2685,0.5048,0.0542
1.3164,1.8261,1.2007,1.5212,1.0683,0.8158,0.4862,0.3002,0.206,0.4861,0.3236,0.0811,0.4406,0.7757,0.9365,1.7629,1.1319,0.7463,1.0631,1.4712,1.104,0.689,0.3778,0.27,0.0168,-0.1001,0.2305,0.316,0.4917,-0.042
1.3492,1.8501,1.1892,1.5827,1.1339,0.8501,0.5557,0.3296,0.2429,0.5432,0.367,0.1306,0.5328,0.8623,1.0552,1.8476,1.1847,0.8037,1.1367,1.5548,1.1837,0.753,0.4311,0.3395,0.0272,-0.0797,0.2904,0.3729,0.4555,-0.1462
1.3814,1.8464,1.2028,1.6284,1.1859,0.8758,0.6202,0.3576,0.2796,0.6056,0.4163,0.1816,0.6184,0.9482,1.1675,1.9304,1.2482,0.8573,1.2198,1.6424,1.2636,0.8277,0.4992,0.4133,0.0446,-0.0433,0.3522,0.4311,0.41,-0.2447
1.4157,1.8222,1.2456,1.66,1.2252,0.8938,0.6775,0.3839,0.3141,0.6704,0.4662,0.2282,0.692,1.0296,1.2576,2.0093,1.3149,0.8976,1.3041,1.7318,1.3417,0.9043,0.5729,0.4854,0.0669,0.0038,0.4099,0.483,0.3684,-0.3251
1.4533,1.7888,1.3134,1.6803,1.254,0.9057,0.7264,0.4079,0.3449,0.7346,0.5124,0.2669,0.7506,1.1033,1.3141,2.0829,1.378,0.9174,1.3811,1.82,1.4157,0.974,0.6414,0.5508,0.0919,0.0564,0.4595,0.5243,0.3416,-0.3787
1.4936,1.7583,1.395,1.6931,1.2751,0.9131,0.7673,0.4288,0.3722,0.7955,0.5524,0.2972,0.7946,1.1673,1.3311,2.1502,1.4325,0.9132,1.4439,1.9029,1.4834,1.0297,0.6946,0.6069,0.1175,0.1109,0.5005,0.5551,0.3355,-0.4023
1.5334,1.741,1.4744,1.7012,1.2913,0.918,0.802,0.4465,0.3976,0.8512,0.5868,0.3216,0.827,1.2212,1.3098,2.21,1.4753,0.8853,1.4886,1.9763,1.543,1.0674,0.7257,0.6542,0.1423,0.1662,0.5355,0.5794,0.3508,-0.3989
1.5677,1.7421,1.5343,1.7065,1.3049,0.9219,0.8332,0.4613,0.4237,0.9009,0.6176,0.3445,0.8527,1.2657,1.257,2.2601,1.5059,0.8381,1.5144,2.0357,1.5932,1.0868,0.7324,0.6955,0.1658,0.2224,0.569,0.6034,0.383,-0.3771
1.5898,1.761,1.5606,1.7092,1.317,0.9257,0.8632,0.4743,0.4528,0.9443,0.6474,0.3701,0.8768,1.3021,1.1844,2.2977,1.5259,0.7789,1.5235,2.0773,1.6333,1.0915,0.7178,0.7348,0.1879,0.2796,0.6054,0.632,0.4233,-0.3499
1.5927,1.7915,1.5449,1.708,1.3274,0.9297,0.8937,0.4866,0.4863,0.9815,0.6777,0.401,0.903,1.3318,1.1063,2.3195,1.5381,0.7174,1.521,2.0993,1.663,1.088,0.6903,0.7757,0.2091,0.3367,0.6478,0.6676,0.461,-0.3321
1.5701,1.8241,1.4876,1.7013,1.335,0.9331,0.9245,0.4992,0.5236,1.0121,0.7079,0.437,0.9329,1.3561,1.0373,2.3233,1.546,0.6637,1.5132,2.1017,1.683,1.084,0.661,0.8207,0.2304,0.3908,0.6964,0.7087,0.4856,-0.3373
1.5183,1.848,1.3967,1.6872,1.3383,0.9345,0.954,0.5122,0.5623,1.0357,0.7355,0.4756,0.9658,1.3754,0.9892,2.308,1.5516,0.6263,1.5056,2.087,1.6943,1.086,0.6409,0.8703,0.2529,0.4382,0.7488,0.7506,0.4895,-0.3746
1.4368,1.8543,1.2862,1.6645,1.3352,0.9317,0.9788,0.525,0.599,1.0513,0.7564,0.512,0.9985,1.3897,0.9682,2.2743,1.5552,0.6096,1.5014,2.0593,1.6982,1.0978,0.6377,0.9225,0.2772,0.4749,0.8007,0.7873,0.4697,-0.4463
1.3296,1.8371,1.1721,1.6326,1.3241,0.9218,0.9953,0.5361,0.6297,1.058,0.7663,0.541,1.0268,1.3985,0.9728,2.224,1.554,0.6128,1.5006,2.023,1.6959,1.1194,0.654,0.9741,0.3036,0.4987,0.8472,0.8136,0.4288,-0.5469
1.2042,1.7944,1.0681,1.5917,1.3041,0.9021,1.0005,0.5437,0.6511,1.0557,0.7622,0.5586,1.0471,1.4012,0.9937,2.1601,1.544,0.6296,1.5001,1.9822,1.6886,1.1471,0.6864,1.0211,0.3317,0.5097,0.8847,0.8268,0.3742,-0.6642
1.0714,1.7285,0.9823,1.543,1.2759,0.8709,0.9937,0.5468,0.6621,1.0461,0.7441,0.5631,1.0573,1.3982,1.0158,2.0862,1.5212,0.6502,1.4954,1.9402,1.6777,1.1752,0.7275,1.0606,0.3606,0.5114,0.9118,0.8285,0.3162,-0.7819
0.9433,1.6446,0.9166,1.4886,1.242,0.8285,0.9771,0.5453,0.664,1.0326,0.7153,0.5563,1.0583,1.3907,1.0216,2.0065,1.4833,0.6636,1.4821,1.8989,1.6648,1.1972,0.7678,1.0914,0.3894,0.5097,0.9303,0.8238,0.2651,-0.883
0.8309,1.5499,0.867,1.4311,1.2065,0.7778,0.9558,0.5407,0.6608,1.0206,0.6825,0.5432,1.0535,1.3811,0.9964,1.9249,1.4306,0.6604,1.4569,1.8591,1.6511,1.2081,0.7983,1.1147,0.4175,0.5116,0.9444,0.8201,0.229,-0.9536
0.7423,1.4527,0.8263,1.3737,1.1739,0.7241,0.9365,0.5358,0.658,1.0162,0.6545,0.5305,1.0483,1.372,0.9325,1.8447,1.3661,0.6354,1.4189,1.8202,1.6376,1.2047,0.8122,1.1332,0.4445,0.5237,0.9598,0.8251,0.2122,-0.986
0.6801,1.3609,0.7878,1.3195,1.1488,0.6736,0.9256,0.534,0.6618,1.0245,0.6396,0.5251,1.0482,1.3661,0.8322,1.7686,1.2951,0.5887,1.3695,1.7813,1.6245,1.1865,0.8064,1.1505,0.4703,0.5503,0.9813,0.8435,0.2147,-0.98
0.6419,1.2818,0.7479,1.2717,1.1344,0.6328,0.9278,0.5384,0.6766,1.0481,0.6439,0.5313,1.0578,1.3652,0.7077,1.6984,1.2238,0.526,1.3122,1.7412,1.6119,1.1558,0.7818,1.1699,0.4942,0.592,1.0112,0.8762,0.2323,-0.9429
0.6206,1.2216,0.707,1.2331,1.1318,0.6061,0.9447,0.5508,0.7042,1.0861,0.6688,0.5502,1.0792,1.3703,0.5782,1.6359,1.1592,0.4567,1.2523,1.6997,1.5997,1.1172,0.7432,1.193,0.5153,0.6452,1.0485,0.9192,0.2587,-0.8878
0.6065,1.1846,0.6688,1.2058,1.1398,0.5951,0.9744,0.5712,0.7432,1.134,0.7115,0.579,1.1113,1.3806,0.465,1.5819,1.1066,0.3919,1.1957,1.6573,1.5874,1.0763,0.6974,1.2193,0.5316,0.703,1.0888,0.9652,0.2863,-0.8303
0.5903,1.1716,0.6374,1.1901,1.1549,0.5981,1.0126,0.5978,0.7893,1.185,0.765,0.6122,1.1506,1.3941,0.3852,1.5365,1.0692,0.3411,1.1475,1.6149,1.5745,1.0385,0.6518,1.2465,0.5411,0.7565,1.126,1.0059,0.3088,-0.7848
0.565,1.1792,0.6144,1.1835,1.1715,0.6103,1.053,0.6271,0.8366,1.232,0.8209,0.6437,1.1914,1.4075,0.347,1.4986,1.0463,0.3093,1.1102,1.5732,1.5598,1.0075,0.6123,1.2706,0.542,0.7974,1.1539,1.0343,0.322,-0.7605
0.5275,1.1998,0.5978,1.1809,1.1831,0.6243,1.089,0.6547,0.8787,1.2686,0.871,0.6685,1.2275,1.4168,0.3468,1.4652,1.0331,0.296,1.0834,1.5317,1.5412,0.9839,0.5818,1.2878,0.534,0.8201,1.1679,1.0473,0.3243,-0.7597
0.4788,1.2226,0.5814,1.1749,1.1827,0.6317,1.1146,0.6756,0.9095,1.2907,0.9092,0.6837,1.2531,1.4181,0.3699,1.4319,1.0219,0.2949,1.0632,1.4883,1.516,0.9658,0.5598,1.2945,0.5183,0.8227,1.1665,1.0458,0.317,-0.7769
0.4232,1.2361,0.5577,1.1577,1.1646,0.6247,1.1251,0.6852,0.9246,1.2969,0.9322,0.689,1.264,1.4082,0.3949,1.3935,1.0035,0.296,1.0434,1.4399,1.4816,0.9485,0.5426,1.2888,0.4974,0.8073,1.151,1.0343,0.303,-0.8005
0.3669,1.2309,0.52,1.123,1.1256,0.5972,1.1177,0.6807,0.9218,1.2876,0.9397,0.6861,1.2581,1.3854,0.3997,1.3454,0.9696,0.2885,1.0169,1.3831,1.4362,0.9266,0.5251,1.2703,0.4747,0.7785,1.1245,1.0189,0.2858,-0.8161
0.3159,1.2021,0.4656,1.0679,1.0654,0.5468,1.0916,0.6616,0.9015,1.265,0.934,0.6776,1.2353,1.3495,0.368,1.285,0.9151,0.2637,0.9782,1.3159,1.3794,0.8955,0.5017,1.24,0.4531,0.7421,1.091,1.0057,0.2684,-0.8106
0.2744,1.1505,0.3963,0.9936,0.9874,0.4754,1.0474,0.63,0.867,1.2319,0.9182,0.6662,1.1969,1.3019,0.294,1.2127,0.8392,0.2179,0.9247,1.2388,1.3125,0.8521,0.4686,1.1995,0.4342,0.7033,1.0536,0.9988,0.2528,-0.7761
0.2437,1.0813,0.3181,0.9056,0.8977,0.3887,0.9877,0.5906,0.8234,1.1908,0.8953,0.6529,1.1449,1.2447,0.1838,1.132,0.7458,0.1526,0.8576,1.155,1.2384,0.7962,0.424,1.1505,0.4181,0.6655,1.0139,0.9988,0.2396,-0.7123
0.2217,1.0026,0.2392,0.8119,0.804,0.2955,0.9158,0.5491,0.7768,1.1436,0.8673,0.6372,1.0816,1.1802,0.0536,1.0487,0.6427,0.0745,0.7815,1.0702,1.1609,0.7299,0.369,1.0943,0.4033,0.6297,0.9713,1.0029,0.2281,-0.6267
0.2043,0.9222,0.1675,0.7211,0.7138,0.2053,0.8356,0.5115,0.7327,1.0915,0.835,0.6176,1.0084,1.1105,-0.0746,0.9696,0.5398,-0.007,0.7027,0.9906,1.084,0.6568,0.3068,1.0313,0.3872,0.5951,0.924,1.0057,0.2165,-0.5326
0.186,0.8459,0.1085,0.6401,0.6333,0.1266,0.7513,0.4823,0.6954,1.0357,0.7988,0.5918,0.9266,1.0367,-0.1796,0.9007,0.4462,-0.0821,0.6276,0.9217,1.0104,0.5812,0.2418,0.9616,0.3672,0.5596,0.8696,1.0009,0.2029,-0.4451
0.1629,0.7754,0.0644,0.5731,0.5665,0.0656,0.6668,0.4644,0.6674,0.9775,0.7587,0.5585,0.8371,0.9594,-0.2457,0.845,0.3684,-0.143,0.5607,0.8665,0.9419,0.5062,0.1784,0.8856,0.3411,0.5212,0.8071,0.9833,0.1853,-0.3766
0.1333,0.71,0.0344,0.5213,0.5151,0.0252,0.5862,0.4579,0.6489,0.919,0.7154,0.5176,0.7417,0.879,-0.2668,0.8029,0.309,-0.1851,0.5035,0.8248,0.8787,0.4339,0.1198,0.8042,0.3084,0.479,0.7369,0.9509,0.1627,-0.3337
0.0988,0.6466,0.0151,0.4831,0.4784,0.0054,0.5127,0.4607,0.6386,0.8632,0.6702,0.4705,0.6426,0.7956,-0.2476,0.7712,0.2659,-0.2076,0.4544,0.7938,0.82,0.3646,0.0671,0.719,0.2699,0.4333,0.6614,0.9047,0.1351,-0.3154
0.063,0.5817,0.0017,0.4552,0.4541,0.0035,0.4487,0.469,0.6335,0.8128,0.6247,0.4201,0.5428,0.7094,-0.2019,0.7444,0.2338,-0.2137,0.4094,0.7686,0.7638,0.2967,0.0194,0.6323,0.2276,0.3858,0.5845,0.8487,0.1037,-0.3143
0.0299,0.5117,-0.0118,0.4324,0.4379,0.0146,0.3951,0.4776,0.6296,0.7701,0.5803,0.3693,0.445,0.6201,-0.1492,0.7148,0.2044,-0.2092,0.363,0.7426,0.7073,0.2278,-0.0262,0.5463,0.1842,0.3392,0.51,0.7884,0.0706,-0.3188
0.0019,0.4331,-0.0315,0.4082,0.4243,0.0324,0.351,0.4812,0.6231,0.7354,0.5381,0.3207,0.3509,0.5267,-0.1103,0.6735,0.1685,-0.2019,0.3088,0.7086,0.6464,0.1544,-0.0741,0.4622,0.1421,0.2961,0.4412,0.7292,0.0389,-0.3173
-0.0221,0.343,-0.0625,0.3754,0.4065,0.0495,0.3138,0.4752,0.6099,0.707,0.4986,0.276,0.2606,0.4277,-0.1028,0.6114,0.1169,-0.2006,0.2411,0.6594,0.5765,0.0731,-0.1287,0.3803,0.1034,0.2588,0.3796,0.6753,0.0121,-0.301
-0.0474,0.239,-0.1083,0.3272,0.3778,0.0585,0.2799,0.457,0.5875,0.6815,0.4615,0.2355,0.1727,0.321,-0.137,0.5212,0.0423,-0.2128,0.1557,0.5888,0.493,-0.0189,-0.1933,0.2997,0.0691,0.2283,0.3254,0.6294,-0.0065,-0.2671
-0.0819,0.1203,-0.1693,0.2582,0.333,0.0539,0.246,0.4263,0.555,0.6546,0.4269,0.1991,0.0855,0.2057,-0.2144,0.3986,-0.0594,-0.2441,0.0511,0.4933,0.3926,-0.1222,-0.2687,0.2192,0.0392,0.2044,0.277,0.5922,-0.015,-0.219
-0.1339,-0.0117,-0.2431,0.1667,0.27,0.0332,0.2099,0.3861,0.514,0.6232,0.3957,0.1665,-0.0025,0.0825,-0.3276,0.2439,-0.188,-0.2969,-0.0709,0.3729,0.2747,-0.2354,-0.3531,0.1376,0.0125,0.1855,0.2323,0.5629,-0.0124,-0.1652
-0.2095,-0.1533,-0.3249,0.0546,0.19,-0.0022,0.1715,0.3422,0.4685,0.586,0.37,0.1378,-0.0911,-0.0454,-0.4637,0.0624,-0.3395,-0.3707,-0.2057,0.2312,0.1423,-0.3547,-0.4416,0.0545,-0.0127,0.1692,0.1894,0.5403,0.0001,-0.1164
-0.3101,-0.2989,-0.4085,-0.0722,0.0973,-0.0474,0.1324,0.3017,0.4243,0.5442,0.3526,0.1137,-0.179,-0.1733,-0.6078,-0.1372,-0.5069,-0.462,-0.3469,0.075,0.0011,-0.4746,-0.5282,-0.0294,-0.0387,0.1529,0.1468,0.5227,0.0203,-0.0815
-0.4328,-0.4425,-0.4875,-0.2063,-0.0018,-0.0957,0.0947,0.2718,0.3872,0.5009,0.3463,0.0952,-0.2635,-0.2959,-0.7476,-0.3441,-0.6816,-0.5657,-0.4873,-0.0881,-0.1418,-0.5891,-0.6062,-0.1123,-0.0667,0.1353,0.1043,0.5089,0.0447,-0.0654
-0.5706,-0.5792,-0.5567,-0.3396,-0.1012,-0.1404,0.0599,0.2571,0.3615,0.4596,0.3525,0.0827,-0.342,-0.4086,-0.8754,-0.548,-0.8552,-0.6754,-0.6211,-0.2511,-0.2796,-0.6929,-0.6707,-0.1919,-0.097,0.116,0.0625,0.4978,0.0699,-0.067
-0.7145,-0.7062,-0.6133,-0.4661,-0.1963,-0.1768,0.0284,0.2587,0.3488,0.4227,0.3699,0.0755,-0.4129,-0.5088,-0.9901,-0.7409,-1.0212,-0.785,-0.744,-0.4088,-0.4072,-0.7822,-0.7187,-0.2652,-0.1281,0.0962,0.0229,0.488,0.0924,-0.0803
-0.8556,-0.8232,-0.6575,-0.5823,-0.2845,-0.2034,-0.0014,0.2738,0.3475,0.3907,0.3944,0.0713,-0.4759,-0.5963,-1.0952,-0.9185,-1.1757,-0.8894,-0.8545,-0.5591,-0.5225,-0.8551,-0.7502,-0.3297,-0.1573,0.0772,-0.0129,0.4776,0.1099,-0.0962
-0.9864,-0.9333,-0.6921,-0.6882,-0.3653,-0.2218,-0.0323,0.2964,0.353,0.3621,0.4191,0.0663,-0.5322,-0.6733,-1.1982,-1.0809,-1.3184,-0.9853,-0.954,-0.7024,-0.626,-0.913,-0.7683,-0.3837,-0.1815,0.0603,-0.0443,0.4641,0.1214,-0.1045
-1.102,-1.0415,-0.7225,-0.7866,-0.44,-0.2367,-0.0671,0.3192,0.3593,0.3338,0.436,0.0559,-0.5842,-0.7434,-1.3079,-1.2322,-1.453,-1.0727,-1.0464,-0.8412,-0.7206,-0.96,-0.779,-0.427,-0.1977,0.0457,-0.0714,0.4447,0.1281,-0.0966
-1.2005,-1.1542,-0.7557,-0.8824,-0.5109,-0.254,-0.1075,0.3359,0.3605,0.3025,0.4374,0.0357,-0.6348,-0.8109,-1.4329,-1.3795,-1.5861,-1.155,-1.1379,-0.9796,-0.8105,-1.0031,-0.7906,-0.4611,-0.2048,0.0319,-0.0962,0.4163,0.1337,-0.0662
-1.2822,-1.278,-0.7993,-0.9812,-0.5802,-0.2798,-0.1538,0.3423,0.3522,0.2656,0.4178,0.0019,-0.687,-0.8802,-1.5798,-1.532,-1.7266,-1.2389,-1.2357,-1.1221,-0.9002,-1.0505,-0.8126,-0.4892,-0.2036,0.0164,-0.1215,0.3766,0.1436,-0.011
-1.3497,-1.4179,-0.8598,-1.0879,-0.6498,-0.3185,-0.2046,0.3366,0.3321,0.222,0.3745,-0.0474,-0.7432,-0.9546,-1.7521,-1.6983,-1.8829,-1.3328,-1.3466,-1.2728,-0.994,-1.111,-0.8537,-0.5156,-0.1969,-0.0044,-0.1514,0.3237,0.1638,0.0682
-1.4065,-1.5769,-0.9416,-1.2062,-0.7211,-0.3721,-0.2578,0.32,0.3003,0.1715,0.3081,-0.1126,-0.8051,-1.0366,-1.9497,-1.8853,-2.0617,-1.4441,-1.4757,-1.4349,-1.0949,-1.1907,-0.92,-0.5448,-0.1883,-0.0339,-0.1895,0.2569,0.1992,0.1676
-1.4571,-1.7551,-1.0454,-1.3376,-0.7953,-0.4402,-0.3114,0.2949,0.2583,0.115,0.222,-0.192,-0.8735,-1.1271,-2.1695,-2.0958,-2.2656,-1.5771,-1.6249,-1.6098,-1.2047,-1.2924,-1.0128,-0.5804,-0.1814,-0.0738,-0.2378,0.177,0.2517,0.2819
-1.5059,-1.9495,-1.1677,-1.481,-0.8728,-0.52,-0.3647,0.2643,0.209,0.0537,0.1219,-0.282,-0.9479,-1.2254,-2.4056,-2.3281,-2.4922,-1.7305,-1.7921,-1.7969,-1.3233,-1.4137,-1.1281,-0.6232,-0.1778,-0.1235,-0.296,0.0867,0.3193,0.4051
-1.5568,-2.1546,-1.3014,-1.6331,-0.9536,-0.6069,-0.4177,0.2312,0.1558,-0.0106,0.015,-0.3777,-1.0268,-1.3294,-2.6511,-2.5755,-2.7342,-1.8976,-1.9711,-1.9929,-1.4487,-1.5477,-1.2569,-0.6718,-0.1772,-0.1794,-0.3607,-0.0095,0.3961,0.5311
