FP1,F3,F7,FC3,C3,C5,P3,P7,PO7,PO3,O1,Oz,Pz,CPz,FP2,Fz,F4,F8,FC4,FCz,Cz,C4,C6,P4,P8,PO8,PO4,O2,(corr) HEOG,(corr) VEOG
1.2844,1.3037,0.9911,0.9405,0.9339,0.8263,0.4052,0.3061,0.1901,0.1854,0.0013,-0.1121,0.5609,1.2164,1.3605,1.5534,1.6726,1.1397,1.4203,1.3978,1.2895,1.2554,0.9975,0.5848,0.3565,0.3289,0.3711,0.2976,0.0075,-0.2556
1.2527,1.3619,1.0187,0.98,1.0027,0.8915,0.4904,0.3615,0.2666,0.2741,0.0523,-0.0613,0.6864,1.3475,1.4601,1.6635,1.7984,1.1938,1.5193,1.5276,1.4236,1.341,1.0535,0.6621,0.3537,0.3564,0.4403,0.3557,0.041,-0.3707
1.1937,1.3764,1.0136,0.9949,1.0584,0.9574,0.5879,0.4249,0.3607,0.383,0.134,0.0262,0.8097,1.4539,1.5095,1.7162,1.8558,1.1974,1.5629,1.6107,1.5208,1.3903,1.0774,0.7422,0.3599,0.3999,0.5285,0.4391,0.0731,-0.4729
1.1315,1.3419,0.9817,0.9866,1.1012,1.0245,0.6919,0.4926,0.4671,0.5067,0.2398,0.1443,0.9211,1.5275,1.5038,1.7078,1.8406,1.1514,1.5493,1.6404,1.5738,1.4012,1.0711,0.8196,0.3763,0.4585,0.6293,0.541,0.1021,-0.5468
1.0936,1.2603,0.9353,0.9606,1.134,1.0941,0.7956,0.5615,0.5792,0.6382,0.3603,0.2826,1.0124,1.5644,1.4485,1.6435,1.759,1.066,1.4855,1.6179,1.5821,1.3765,1.04,0.8887,0.4013,0.5278,0.7329,0.6508,0.1268,-0.5822
1.1038,1.1429,0.8917,0.9265,1.162,1.1681,0.8933,0.6298,0.6903,0.769,0.4852,0.4276,1.0784,1.5661,1.3593,1.5375,1.6277,0.96,1.3866,1.5532,1.552,1.325,0.9931,0.9445,0.4309,0.6005,0.8282,0.7569,0.1465,-0.5753
1.1763,1.0097,0.8701,0.8965,1.1925,1.2487,0.9808,0.6972,0.7951,0.8911,0.6048,0.5659,1.1179,1.5388,1.2586,1.4117,1.4721,0.8582,1.2747,1.4638,1.497,1.2603,0.9429,0.9849,0.4604,0.6691,0.9063,0.8485,0.1607,-0.5297
1.3107,0.8875,0.8882,0.8843,1.2336,1.3369,1.0572,0.7648,0.89,0.9982,0.7123,0.6863,1.1343,1.4931,1.1711,1.2924,1.3236,0.7873,1.1752,1.3724,1.4349,1.2001,0.904,1.0117,0.486,0.7275,0.9626,0.9184,0.169,-0.4546
1.491,0.8048,0.9578,0.9022,1.2923,1.4326,1.1238,0.834,0.9735,1.0869,0.8041,0.7818,1.1349,1.4419,1.118,1.2068,1.2146,0.7715,1.1134,1.3025,1.3855,1.1638,0.8921,1.0305,0.5057,0.7729,0.998,0.9642,0.1708,-0.3634
1.6887,0.7866,1.082,0.9587,1.3732,1.5336,1.1839,0.9052,1.0457,1.1568,0.8803,0.8507,1.1298,1.3984,1.1135,1.1774,1.1739,0.828,1.1101,1.2747,1.3665,1.1691,0.9208,1.0498,0.5202,0.8065,1.019,0.9893,0.1657,-0.2713
1.8699,0.8482,1.2529,1.057,1.4767,1.6352,1.2413,0.9763,1.1069,1.2097,0.9439,0.8963,1.1296,1.3749,1.1631,1.2188,1.221,0.9627,1.1778,1.3028,1.3904,1.2295,0.9998,1.0792,0.5327,0.8326,1.0353,1.0009,0.1539,-0.1932
2.0045,0.9912,1.4534,1.1932,1.5985,1.7306,1.2986,1.0428,1.1569,1.2492,0.9986,0.9254,1.1434,1.3806,1.2641,1.3351,1.3631,1.1697,1.3192,1.3915,1.4625,1.3516,1.1324,1.1277,0.548,0.8575,1.0574,1.0086,0.1366,-0.1425
2.0742,1.2028,1.6599,1.357,1.73,1.8115,1.3559,1.0978,1.1937,1.2786,1.0478,0.9458,1.1772,1.4208,1.4082,1.5192,1.5929,1.4315,1.526,1.5358,1.5802,1.5331,1.3144,1.2006,0.5715,0.8872,1.0938,1.0216,0.1159,-0.1285
2.077,1.457,1.8462,1.5319,1.858,1.8677,1.4097,1.1332,1.2132,1.2991,1.0921,0.9642,1.2313,1.4948,1.5831,1.7533,1.8894,1.7218,1.7798,1.7215,1.7331,1.7625,1.5336,1.2985,0.6078,0.9259,1.1481,1.0459,0.0947,-0.1554
2.0258,1.7187,1.9874,1.6968,1.9659,1.8879,1.452,1.1411,1.2093,1.3083,1.1284,0.9836,1.2993,1.5945,1.7743,2.0105,2.2196,2.0092,2.0537,1.9259,1.9031,2.0184,1.7702,1.4154,0.6595,0.9738,1.2179,1.0829,0.0761,-0.2201
1.9427,1.9491,2.0623,1.8273,2.0339,1.8598,1.4705,1.1139,1.1749,1.2995,1.15,1.002,1.3674,1.7032,1.9643,2.2573,2.5424,2.2607,2.3141,2.1195,2.0652,2.2708,1.9983,1.538,0.7257,1.0272,1.2944,1.1284,0.0619,-0.3116
1.8504,2.1114,2.0562,1.8986,2.0407,1.7714,1.4495,1.046,1.1026,1.2617,1.147,1.012,1.4148,1.7962,2.1322,2.4564,2.8134,2.4467,2.5246,2.2687,2.1894,2.4837,2.1877,1.6466,0.8018,1.0782,1.363,1.1732,0.0523,-0.4116
1.7649,2.1761,1.962,1.8886,1.9672,1.6129,1.3729,0.9342,0.9871,1.1821,1.109,1.0028,1.417,1.8437,2.2549,2.572,2.9908,2.5442,2.6501,2.3402,2.2448,2.6194,2.3084,1.7174,0.8791,1.116,1.4059,1.2043,0.0457,-0.4965
1.69,2.1255,1.7825,1.7819,1.7996,1.3796,1.2279,0.7783,0.8264,1.0493,1.027,0.962,1.3502,1.8159,2.3085,2.5751,3.0417,2.5396,2.6625,2.3065,2.2041,2.645,2.3347,1.7269,0.9456,1.1288,1.4054,1.2079,0.0389,-0.5423
1.6162,1.9566,1.5302,1.5737,1.534,1.0744,1.0091,0.5821,0.6239,0.8574,0.8972,0.8795,1.197,1.6898,2.2725,2.4492,2.948,2.4308,2.546,2.1514,2.0498,2.5386,2.2504,1.6561,0.9888,1.106,1.3471,1.1723,0.0283,-0.5292
1.524,1.6821,1.2257,1.2723,1.1794,0.7101,0.7219,0.3539,0.3889,0.6095,0.7226,0.7506,0.9515,1.4555,2.135,2.1946,2.7098,2.227,2.3003,1.8746,1.7792,2.2946,2.0526,1.4959,0.997,1.0406,1.2238,1.0905,0.0112,-0.4469
1.3907,1.3285,0.8951,0.8991,0.7582,0.3086,0.384,0.1066,0.1374,0.3196,0.5143,0.5786,0.623,1.1205,1.8966,1.8292,2.3473,1.9478,1.9424,1.4933,1.4067,1.9267,1.7529,1.2499,0.9628,0.9311,1.0379,0.9623,-0.0132,-0.2977
1.1986,0.9322,0.5648,0.4859,0.3043,-0.1011,0.0239,-0.1428,-0.1099,0.012,0.2907,0.3752,0.2361,0.7098,1.5731,1.3874,1.8982,1.6207,1.5045,1.0404,0.9633,1.4666,1.377,0.9358,0.8843,0.7821,0.8023,0.7955,-0.0433,-0.0973
0.9421,0.5327,0.2574,0.0697,-0.1427,-0.488,-0.3227,-0.3757,-0.33,-0.2816,0.0753,0.1596,-0.1718,0.2632,1.1943,0.9143,1.4126,1.2764,1.0297,0.5595,0.4914,0.9594,0.9604,0.5831,0.766,0.6049,0.5384,0.6044,-0.0752,0.1279
0.6312,0.1667,-0.012,-0.3137,-0.5437,-0.824,-0.6195,-0.5742,-0.5018,-0.5279,-0.108,-0.0448,-0.5564,-0.1721,0.7996,0.4582,0.9443,0.9449,0.5647,0.0975,0.0384,0.4569,0.5432,0.2288,0.6181,0.4152,0.2739,0.4085,-0.1035,0.3455
0.2893,-0.1383,-0.2379,-0.6359,-0.8675,-1.0898,-0.8359,-0.7243,-0.6094,-0.6979,-0.2384,-0.2144,-0.8744,-0.5494,0.4302,0.0629,0.5424,0.6504,0.1526,-0.3035,-0.352,0.0084,0.163,-0.0888,0.4543,0.2309,0.0371,0.2287,-0.1229,0.5232
-0.0522,-0.3676,-0.4237,-0.8803,-1.0952,-1.2778,-0.9526,-0.8181,-0.6458,-0.7724,-0.3033,-0.3304,-1.091,-0.8311,0.1218,-0.2401,0.2423,0.408,-0.1739,-0.6131,-0.6466,-0.3465,-0.1506,-0.3367,0.2897,0.0689,-0.1475,0.0836,-0.1294,0.6351
-0.3618,-0.5204,-0.58,-1.0431,-1.2229,-1.3927,-0.9649,-0.8553,-0.6138,-0.7462,-0.2992,-0.3818,-1.1864,-0.9946,-0.1031,-0.4354,0.0605,0.222,-0.3973,-0.816,-0.8272,-0.5835,-0.3801,-0.4927,0.1379,-0.0577,-0.2632,-0.0136,-0.1212,0.6655
-0.6144,-0.6074,-0.7212,-1.1322,-1.2598,-1.4491,-0.8826,-0.8429,-0.5252,-0.6281,-0.2332,-0.3682,-1.1581,-1.035,-0.2384,-0.5247,-0.0068,0.0863,-0.5155,-0.9128,-0.8918,-0.6958,-0.5213,-0.5478,0.0093,-0.1414,-0.3041,-0.0573,-0.099,0.6111
-0.7951,-0.6466,-0.8604,-1.1626,-1.2245,-1.4668,-0.7273,-0.793,-0.3989,-0.4398,-0.1203,-0.2985,-1.0212,-0.9636,-0.294,-0.5238,0.0193,-0.013,-0.5405,-0.9162,-0.8521,-0.6925,-0.5816,-0.507,-0.0896,-0.1807,-0.2743,-0.0499,-0.0654,0.4805
-0.901,-0.6576,-1.0061,-1.1516,-1.1397,-1.4642,-0.5275,-0.7209,-0.2563,-0.2114,0.0192,-0.1897,-0.8043,-0.8039,-0.2922,-0.4574,0.1066,-0.094,-0.4931,-0.8466,-0.7294,-0.5946,-0.5767,-0.3869,-0.1565,-0.1796,-0.1871,-0.0005,-0.0246,0.292
-0.9401,-0.6569,-1.1599,-1.1144,-1.027,-1.4545,-0.3136,-0.6415,-0.1181,0.0244,0.164,-0.0628,-0.5442,-0.5861,-0.262,-0.3531,0.2193,-0.1738,-0.3984,-0.7268,-0.5503,-0.4303,-0.5265,-0.2122,-0.1927,-0.1463,-0.062,0.0768,0.0187,0.0696
-0.9285,-0.6553,-1.3157,-1.0616,-0.9037,-1.4427,-0.1126,-0.5669,-0.0008,0.2371,0.2948,0.0606,-0.2795,-0.3416,-0.2323,-0.2362,0.3246,-0.2642,-0.2814,-0.5777,-0.3419,-0.23,-0.4514,-0.0119,-0.203,-0.0917,0.0789,0.1656,0.06,-0.1602
-0.8863,-0.6577,-1.4626,-0.9986,-0.7815,-1.4267,0.055,-0.5042,0.0857,0.403,0.3974,0.1616,-0.045,-0.099,-0.2271,-0.127,0.3974,-0.3699,-0.1637,-0.4173,-0.1294,-0.0224,-0.3696,0.1854,-0.1939,-0.0279,0.2138,0.2496,0.0958,-0.3729
-0.8335,-0.6649,-1.5878,-0.9281,-0.6676,-1.3997,0.1767,-0.4554,0.1384,0.5073,0.4638,0.2268,0.1326,0.1182,-0.2627,-0.0396,0.4226,-0.4878,-0.0626,-0.2598,0.0658,0.1679,-0.295,0.3547,-0.1734,0.0327,0.324,0.3144,0.1238,-0.5475
-0.7868,-0.6766,-1.6799,-0.8518,-0.566,-1.3543,0.2476,-0.4182,0.16,0.5451,0.4917,0.249,0.2375,0.2924,-0.3469,0.0177,0.3951,-0.6095,0.0097,-0.1172,0.2266,0.3221,-0.2369,0.4767,-0.1495,0.0794,0.3956,0.3494,0.1427,-0.6686
-0.7579,-0.6933,-1.7314,-0.7724,-0.4796,-1.2861,0.269,-0.3877,0.1567,0.5194,0.484,0.2274,0.265,0.4117,-0.4796,0.0409,0.3178,-0.7243,0.046,0.0003,0.3409,0.4275,-0.2002,0.5397,-0.1296,0.1034,0.4207,0.3485,0.1521,-0.7276
-0.7538,-0.7169,-1.7398,-0.6946,-0.4111,-1.1956,0.2462,-0.3587,0.1356,0.4395,0.4459,0.166,0.2201,0.4693,-0.6537,0.0295,0.1999,-0.8233,0.0436,0.0834,0.4012,0.4775,-0.1861,0.5392,-0.1196,0.0988,0.3971,0.3099,0.1524,-0.7233
-0.7786,-0.7503,-1.7086,-0.625,-0.3639,-1.0886,0.1864,-0.3276,0.1026,0.3179,0.3835,0.0721,0.1155,0.4629,-0.8571,-0.0152,0.0533,-0.9013,0.0031,0.1245,0.4045,0.4708,-0.1931,0.4775,-0.1242,0.0625,0.3277,0.236,0.1443,-0.6618
-0.8345,-0.7966,-1.6466,-0.571,-0.3415,-0.9754,0.0973,-0.2936,0.0606,0.1677,0.3022,-0.0457,-0.0325,0.3945,-1.0743,-0.0902,-0.11,-0.9588,-0.0721,0.1178,0.3525,0.4109,-0.2186,0.3621,-0.1462,-0.0056,0.2186,0.132,0.1296,-0.5561
-0.9225,-0.8579,-1.5669,-0.5396,-0.3467,-0.8684,-0.0144,-0.2587,0.0101,0.001,0.2058,-0.1789,-0.2065,0.2706,-1.2885,-0.192,-0.2801,-1.001,-0.1774,0.0611,0.2503,0.3046,-0.2594,0.2045,-0.1866,-0.1027,0.0783,0.005,0.1103,-0.4236
-1.0413,-0.9346,-1.4848,-0.5362,-0.381,-0.7799,-0.1431,-0.2272,-0.0507,-0.1725,0.0969,-0.3201,-0.3909,0.1017,-1.4846,-0.3166,-0.4507,-1.0364,-0.3075,-0.044,0.1068,0.1609,-0.3129,0.0183,-0.2443,-0.2236,-0.0841,-0.1369,0.0889,-0.2829
-1.1867,-1.0256,-1.4151,-0.5631,-0.4437,-0.7192,-0.2839,-0.2045,-0.1241,-0.3459,-0.0226,-0.4634,-0.5735,-0.0984,-1.6518,-0.4595,-0.619,-1.0744,-0.4573,-0.1914,-0.0668,-0.0101,-0.3774,-0.1824,-0.3161,-0.361,-0.2596,-0.2859,0.0679,-0.1505
-1.3506,-1.1278,-1.3688,-0.6196,-0.5315,-0.6919,-0.4326,-0.1957,-0.2115,-0.5146,-0.1502,-0.6042,-0.7464,-0.3137,-1.7853,-0.6163,-0.7849,-1.1235,-0.6216,-0.3716,-0.2576,-0.1983,-0.452,-0.3845,-0.3974,-0.5058,-0.4401,-0.4346,0.0492,-0.0378
-1.5208,-1.237,-1.3513,-0.7014,-0.6387,-0.6988,-0.585,-0.2036,-0.312,-0.6752,-0.2824,-0.7388,-0.9056,-0.5287,-1.8869,-0.7824,-0.95,-1.1895,-0.7953,-0.5722,-0.4527,-0.3942,-0.5362,-0.5769,-0.4821,-0.6485,-0.6185,-0.5769,0.0342,0.0504
-1.6821,-1.3486,-1.3613,-0.8021,-0.7577,-0.736,-0.736,-0.2284,-0.4218,-0.8245,-0.414,-0.8636,-1.0504,-0.7298,-1.9636,-0.954,-1.1166,-1.2752,-0.9732,-0.78,-0.64,-0.5894,-0.6295,-0.7516,-0.5641,-0.7803,-0.7883,-0.7081,0.0241,0.1155
-1.8188,-1.4578,-1.3912,-0.9142,-0.88,-0.7965,-0.8796,-0.267,-0.5338,-0.9584,-0.5379,-0.9749,-1.1815,-0.9069,-2.0254,-1.1272,-1.2864,-1.3797,-1.1501,-0.9827,-0.8097,-0.7773,-0.7302,-0.9033,-0.6381,-0.8939,-0.9439,-0.825,0.0192,0.1635
-1.9174,-1.5605,-1.43,-1.0297,-0.9972,-0.8708,-1.0087,-0.3128,-0.6386,-1.0714,-0.6464,-1.0682,-1.2993,-1.054,-2.0829,-1.299,-1.4599,-1.4988,-1.321,-1.1701,-0.9548,-0.9527,-0.8355,-1.0296,-0.7001,-0.9849,-1.08,-0.9257,0.0199,0.2031
-1.9695,-1.6534,-1.4656,-1.1415,-1.1018,-0.9488,-1.1155,-0.3576,-0.7259,-1.1572,-0.7316,-1.1391,-1.403,-1.1683,-2.1446,-1.4665,-1.6353,-1.6251,-1.4806,-1.3352,-1.0715,-1.1116,-0.9406,-1.13,-0.7483,-1.0514,-1.1919,-1.009,0.026,0.2432
-1.9746,-1.7339,-1.4882,-1.2432,-1.188,-1.0213,-1.1927,-0.3918,-0.7859,-1.2092,-0.7868,-1.1837,-1.49,-1.2497,-2.215,-1.6265,-1.808,-1.7484,-1.6239,-1.4742,-1.1592,-1.2503,-1.0397,-1.2052,-0.7824,-1.0942,-1.2756,-1.0741,0.0369,0.2905
-1.9397,-1.8004,-1.4916,-1.3295,-1.252,-1.0808,-1.2346,-0.4071,-0.8114,-1.2228,-0.808,-1.1995,-1.5561,-1.2999,-2.2941,-1.7755,-1.9708,-1.8565,-1.7456,-1.5864,-1.2197,-1.3656,-1.1257,-1.2565,-0.8032,-1.1155,-1.3284,-1.1202,0.0513,0.3481
-1.8775,-1.8516,-1.4737,-1.3966,-1.2921,-1.1222,-1.2379,-0.3979,-0.7986,-1.1961,-0.7941,-1.1862,-1.5971,-1.3215,-2.3768,-1.9095,-2.115,-1.9375,-1.841,-1.6733,-1.2569,-1.4543,-1.192,-1.2853,-0.8119,-1.1182,-1.3495,-1.1465,0.0673,0.4152
-1.8036,-1.8872,-1.4358,-1.4425,-1.3091,-1.1435,-1.2038,-0.3629,-0.7487,-1.1319,-0.7482,-1.1466,-1.6102,-1.3182,-2.4551,-2.0248,-2.2324,-1.9817,-1.9068,-1.7383,-1.2761,-1.5137,-1.2334,-1.2929,-0.809,-1.1047,-1.3399,-1.1527,0.0824,0.4876
-1.7332,-1.9073,-1.3815,-1.4669,-1.3056,-1.1451,-1.1377,-0.3057,-0.6679,-1.0378,-0.6776,-1.0862,-1.5953,-1.2947,-2.5195,-2.1179,-2.3163,-1.9843,-1.9417,-1.7857,-1.2833,-1.5429,-1.2474,-1.2804,-0.7944,-1.0768,-1.3031,-1.1395,0.0942,0.5594
-1.6787,-1.9126,-1.3152,-1.4712,-1.2862,-1.13,-1.0493,-0.2347,-0.5668,-0.9256,-0.5928,-1.0129,-1.556,-1.2567,-2.5619,-2.1861,-2.3629,-1.9461,-1.9465,-1.8204,-1.2847,-1.5429,-1.2343,-1.2496,-0.7675,-1.0358,-1.2445,-1.1087,0.1,0.6247
-1.6481,-1.9034,-1.2421,-1.4583,-1.2566,-1.1031,-0.9512,-0.1613,-0.4588,-0.8096,-0.5063,-0.9357,-1.4995,-1.2109,-2.5765,-2.2274,-2.3711,-1.8736,-1.924,-1.8466,-1.2863,-1.5171,-1.1972,-1.2031,-0.728,-0.9836,-1.1715,-1.0643,0.0979,0.6788
-1.6442,-1.8805,-1.1674,-1.4319,-1.2228,-1.0707,-0.8569,-0.0977,-0.3579,-0.7041,-0.4299,-0.8632,-1.4348,-1.1646,-2.5612,-2.241,-2.3434,-1.7774,-1.879,-1.8681,-1.293,-1.4713,-1.1418,-1.1446,-0.6769,-0.9227,-1.0925,-1.0115,0.087,0.7195
-1.6644,-1.8452,-1.0968,-1.3966,-1.1909,-1.0394,-0.7784,-0.0542,-0.276,-0.6206,-0.3728,-0.8018,-1.3716,-1.1249,-2.5166,-2.228,-2.285,-1.6695,-1.8174,-1.8873,-1.3085,-1.413,-1.0752,-1.0789,-0.617,-0.8573,-1.0164,-0.9563,0.0675,0.7473
-1.7005,-1.8005,-1.036,-1.3577,-1.166,-1.016,-0.7238,-0.0373,-0.2211,-0.5662,-0.3402,-0.7552,-1.3184,-1.0981,-2.4462,-2.1915,-2.2045,-1.5618,-1.7466,-1.906,-1.3353,-1.3506,-1.0055,-1.0122,-0.5538,-0.7929,-0.9512,-0.9052,0.0414,0.7644
-1.7406,-1.7511,-0.9903,-1.321,-1.152,-1.0057,-0.6973,-0.0488,-0.1966,-0.5428,-0.3321,-0.7239,-1.281,-1.0888,-2.3553,-2.1375,-2.1123,-1.4637,-1.6741,-1.9253,-1.3742,-1.2924,-0.9406,-0.9511,-0.495,-0.7362,-0.904,-0.8636,0.0121,0.7741
-1.7713,-1.703,-0.9635,-1.2921,-1.1517,-1.0124,-0.6983,-0.0859,-0.2014,-0.5475,-0.3448,-0.7065,-1.2618,-1.0996,-2.2505,-2.074,-2.0197,-1.3818,-1.6075,-1.9457,-1.4246,-1.2454,-0.8874,-0.902,-0.4494,-0.6939,-0.8795,-0.8358,-0.0164,0.7795
-1.7806,-1.6617,-0.9567,-1.2755,-1.1658,-1.0368,-0.7232,-0.1428,-0.2315,-0.5748,-0.3724,-0.7006,-1.26,-1.1307,-2.1392,-2.0094,-1.9364,-1.3187,-1.5525,-1.9669,-1.4838,-1.2145,-0.8506,-0.8698,-0.4252,-0.6716,-0.8797,-0.8246,-0.0406,0.7835
-1.7602,-1.6305,-0.967,-1.2734,-1.1933,-1.0768,-0.7662,-0.2118,-0.2814,-0.6176,-0.4086,-0.7043,-1.2713,-1.1799,-2.0286,-1.9515,-1.8686,-1.2737,-1.512,-1.9878,-1.5478,-1.2015,-0.8321,-0.857,-0.4287,-0.6727,-0.9035,-0.8306,-0.058,0.7876
-1.7069,-1.6095,-0.9873,-1.2846,-1.2309,-1.1271,-0.8208,-0.2852,-0.3453,-0.6693,-0.4481,-0.716,-1.2891,-1.2434,-1.9249,-1.9053,-1.8183,-1.2425,-1.4859,-2.0066,-1.6105,-1.2052,-0.8306,-0.8631,-0.4623,-0.6974,-0.9466,-0.8527,-0.068,0.7931
-1.6223,-1.5953,-1.0075,-1.3048,-1.2741,-1.1801,-0.8807,-0.3564,-0.4182,-0.7247,-0.4877,-0.7349,-1.3053,-1.3158,-1.8322,-1.8724,-1.7833,-1.2183,-1.4712,-2.0205,-1.6655,-1.2219,-0.8423,-0.8842,-0.5236,-0.7427,-1.0018,-0.8879,-0.0722,0.8005
-1.5125,-1.5825,-1.0157,-1.3273,-1.3176,-1.2274,-0.9403,-0.4205,-0.4959,-0.7805,-0.5257,-0.7596,-1.3117,-1.3911,-1.7522,-1.8513,-1.7587,-1.1934,-1.4634,-2.027,-1.7066,-1.2463,-0.8614,-0.9141,-0.6062,-0.8023,-1.0604,-0.9317,-0.073,0.8106
-1.3859,-1.5653,-1.0015,-1.3451,-1.3565,-1.2613,-0.9951,-0.4748,-0.5746,-0.8348,-0.5616,-0.788,-1.3016,-1.4635,-1.684,-1.8379,-1.7387,-1.1608,-1.4582,-2.0244,-1.7296,-1.2731,-0.8818,-0.9452,-0.7002,-0.8681,-1.1128,-0.9784,-0.0739,0.8245
-1.2524,-1.5388,-0.9579,-1.3524,-1.3872,-1.2765,-1.0411,-0.5179,-0.6506,-0.8861,-0.5946,-0.8164,-1.2711,-1.5282,-1.6249,-1.8273,-1.7181,-1.1157,-1.4524,-2.0123,-1.7331,-1.2978,-0.8983,-0.9708,-0.7942,-0.9312,-1.1511,-1.0223,-0.0775,0.843
-1.1218,-1.5001,-0.8835,-1.3456,-1.4074,-1.2705,-1.0754,-0.5493,-0.7195,-0.9327,-0.6233,-0.8403,-1.22,-1.5811,-1.5712,-1.8153,-1.6937,-1.0568,-1.4446,-1.9917,-1.719,-1.3177,-0.9076,-0.9859,-0.8781,-0.9838,-1.1697,-1.0581,-0.0852,0.8663
-1.0039,-1.4489,-0.7831,-1.3243,-1.416,-1.2442,-1.0949,-0.5679,-0.7757,-0.9716,-0.6447,-0.8543,-1.1523,-1.62,-1.5186,-1.7986,-1.6638,-0.9859,-1.4348,-1.9652,-1.692,-1.3321,-0.9088,-0.989,-0.9444,-1.0208,-1.1669,-1.0824,-0.0967,0.8926
-0.9079,-1.3871,-0.6671,-1.2901,-1.4133,-1.2017,-1.0975,-0.5723,-0.8128,-0.9987,-0.6549,-0.8535,-1.0756,-1.6442,-1.4632,-1.7759,-1.6281,-0.9072,-1.4241,-1.936,-1.6588,-1.3421,-0.9031,-0.9819,-0.9898,-1.0405,-1.145,-1.0936,-0.1103,0.9179
-0.8405,-1.3187,-0.5498,-1.2469,-1.4006,-1.1489,-1.0821,-0.5606,-0.8246,-1.0095,-0.6498,-0.8344,-1.0003,-1.6553,-1.4019,-1.7478,-1.5869,-0.8262,-1.4136,-1.908,-1.6271,-1.35,-0.894,-0.9695,-1.0154,-1.0449,-1.1098,-1.0928,-0.1228,0.9368
-0.8055,-1.2495,-0.4469,-1.2001,-1.3814,-1.0935,-1.0495,-0.5314,-0.8065,-1.0002,-0.626,-0.7959,-0.9379,-1.6576,-1.3329,-1.7169,-1.5415,-0.7491,-1.4046,-1.8851,-1.6049,-1.3582,-0.8856,-0.9583,-1.0251,-1.0384,-1.0692,-1.0824,-0.1311,0.9433
-0.8017,-1.1868,-0.3722,-1.1562,-1.3609,-1.0431,-1.003,-0.4851,-0.7569,-0.9695,-0.5821,-0.7394,-0.8989,-1.6579,-1.257,-1.6875,-1.4938,-0.6819,-1.3981,-1.8716,-1.5992,-1.3693,-0.8822,-0.9547,-1.0247,-1.027,-1.0313,-1.0662,-0.1324,0.9334
-0.8233,-1.1379,-0.3353,-1.1226,-1.3459,-1.0049,-0.9478,-0.4243,-0.6778,-0.9187,-0.5192,-0.6686,-0.8914,-1.6647,-1.1775,-1.6654,-1.4471,-0.6306,-1.3953,-1.8719,-1.6158,-1.385,-0.8872,-0.9635,-1.0196,-1.0158,-1.0029,-1.0477,-0.1251,0.9067
-0.861,-1.1097,-0.3395,-1.1063,-1.3436,-0.9846,-0.8902,-0.3538,-0.575,-0.8518,-0.4403,-0.5889,-0.9185,-1.6865,-1.1002,-1.6566,-1.4056,-0.6005,-1.3977,-1.8895,-1.6577,-1.4057,-0.9025,-0.986,-1.0133,-1.0078,-0.987,-1.0291,-0.1093,0.8666
-0.9044,-1.1067,-0.3813,-1.113,-1.3595,-0.9852,-0.8362,-0.2797,-0.4573,-0.7743,-0.3499,-0.5057,-0.9777,-1.7292,-1.0324,-1.666,-1.3739,-0.5948,-1.4069,-1.9258,-1.7244,-1.4306,-0.928,-1.0195,-1.0063,-1.0025,-0.9827,-1.0108,-0.0863,0.8202
-0.9439,-1.13,-0.4518,-1.1453,-1.3958,-1.0072,-0.7897,-0.209,-0.3347,-0.6919,-0.2532,-0.4237,-1.0599,-1.7943,-0.9806,-1.6956,-1.356,-0.6134,-1.4238,-1.9793,-1.8108,-1.4573,-0.9609,-1.0572,-0.9962,-0.9959,-0.9849,-0.991,-0.0589,0.7759
-0.973,-1.1762,-0.5387,-1.2023,-1.4501,-1.0479,-0.7516,-0.1481,-0.2173,-0.6092,-0.1547,-0.3456,-1.1507,-1.8776,-0.9487,-1.7431,-1.3533,-0.6517,-1.4475,-2.0445,-1.9071,-1.4821,-0.9966,-1.0891,-0.9781,-0.9817,-0.9854,-0.9661,-0.0305,0.7413
-0.9894,-1.2379,-0.6293,-1.2785,-1.5156,-1.102,-0.7199,-0.102,-0.1135,-0.5295,-0.0583,-0.2726,-1.2331,-1.9693,-0.9373,-1.8018,-1.3641,-0.701,-1.4746,-2.1121,-2,-1.4999,-1.0289,-1.1045,-0.9461,-0.9521,-0.9751,-0.9321,-0.0042,0.7207
-0.9939,-1.3058,-0.713,-1.3654,-1.5818,-1.1629,-0.6904,-0.0739,-0.0295,-0.4542,0.0329,-0.204,-1.2901,-2.0558,-0.9429,-1.8614,-1.3832,-0.7499,-1.4994,-2.1702,-2.0745,-1.5056,-1.0513,-1.0935,-0.8951,-0.9011,-0.9463,-0.8859,0.0174,0.7133
-0.9897,-1.3702,-0.7826,-1.4524,-1.6374,-1.2236,-0.6583,-0.0649,0.0318,-0.384,0.116,-0.139,-1.309,-2.1224,-0.9587,-1.9098,-1.4027,-0.7867,-1.515,-2.2067,-2.1169,-1.4947,-1.0588,-1.0506,-0.8219,-0.8254,-0.895,-0.8266,0.0333,0.7141
-0.9796,-1.4237,-0.8342,-1.5286,-1.672,-1.2783,-0.6202,-0.0743,0.07,-0.3195,0.1882,-0.0771,-1.284,-2.1563,-0.9758,-1.9363,-1.414,-0.802,-1.5149,-2.2118,-2.1179,-1.4647,-1.0492,-0.9753,-0.7272,-0.7269,-0.8218,-0.7563,0.0436,0.7148
-0.9651,-1.4621,-0.8667,-1.585,-1.6788,-1.3228,-0.575,-0.0998,0.0868,-0.2619,0.246,-0.0192,-1.2172,-2.1491,-0.9849,-1.9339,-1.4099,-0.7906,-1.4948,-2.1801,-2.0742,-1.4155,-1.0233,-0.8731,-0.6156,-0.6118,-0.7324,-0.6799,0.0496,0.7061
-0.9453,-1.4842,-0.8809,-1.6149,-1.6551,-1.355,-0.5247,-0.1381,0.0853,-0.2134,0.2861,0.0325,-1.1183,-2.0985,-0.9779,-1.9005,-1.3858,-0.7523,-1.4535,-2.1119,-1.9888,-1.3495,-0.9843,-0.7541,-0.4948,-0.4903,-0.6361,-0.6038,0.0532,0.6807
-0.9182,-1.4908,-0.8777,-1.615,-1.603,-1.3738,-0.4734,-0.1845,0.0696,-0.1765,0.3061,0.0749,-1.0018,-2.0079,-0.9492,-1.8388,-1.34,-0.6914,-1.3923,-2.0125,-1.87,-1.2701,-0.9365,-0.6303,-0.3747,-0.3739,-0.5437,-0.5347,0.0563,0.6344
-0.8816,-1.4832,-0.8585,-1.5853,-1.5276,-1.379,-0.4262,-0.2338,0.0442,-0.1537,0.3054,0.1053,-0.8838,-1.8861,-0.897,-1.7555,-1.274,-0.6152,-1.3149,-1.891,-1.7294,-1.1812,-0.8833,-0.5132,-0.2651,-0.2735,-0.4647,-0.4775,0.0608,0.568
-0.8345,-1.4629,-0.8253,-1.5292,-1.4366,-1.3706,-0.3878,-0.2803,0.0136,-0.1466,0.2859,0.1217,-0.7789,-1.7452,-0.8241,-1.6595,-1.1918,-0.5326,-1.2264,-1.7587,-1.5797,-1.087,-0.8269,-0.4114,-0.1745,-0.1971,-0.4058,-0.4352,0.0673,0.4868
-0.7789,-1.4313,-0.7816,-1.4526,-1.3383,-1.3489,-0.3617,-0.3185,-0.0179,-0.1552,0.2517,0.1235,-0.6986,-1.5993,-0.7379,-1.5608,-1.1003,-0.4526,-1.1335,-1.6276,-1.4332,-0.9914,-0.7683,-0.3301,-0.1087,-0.1494,-0.3701,-0.4082,0.0758,0.3999
-0.7195,-1.391,-0.7331,-1.3641,-1.2408,-1.315,-0.3493,-0.344,-0.0468,-0.178,0.2082,0.1112,-0.6499,-1.4625,-0.6501,-1.4696,-1.0089,-0.3834,-1.0442,-1.5089,-1.3009,-0.8996,-0.7085,-0.2709,-0.0706,-0.1313,-0.357,-0.3954,0.0856,0.3182
-0.6643,-1.3453,-0.6877,-1.2735,-1.1512,-1.2713,-0.3504,-0.3543,-0.07,-0.2123,0.1612,0.0864,-0.6352,-1.347,-0.5749,-1.3949,-0.9287,-0.332,-0.968,-1.4119,-1.1919,-0.818,-0.6498,-0.2334,-0.0601,-0.1408,-0.3632,-0.3948,0.0952,0.2527
-0.6235,-1.2989,-0.6546,-1.1905,-1.0752,-1.221,-0.3632,-0.3483,-0.0857,-0.2543,0.1157,0.0512,-0.6526,-1.262,-0.5262,-1.3435,-0.8711,-0.3039,-0.9141,-1.3434,-1.1126,-0.754,-0.5963,-0.2155,-0.0744,-0.173,-0.3838,-0.4042,0.1029,0.2115
-0.6078,-1.2566,-0.6421,-1.1234,-1.0164,-1.1689,-0.3843,-0.3272,-0.0928,-0.2989,0.0756,0.0089,-0.6964,-1.2116,-0.5144,-1.3194,-0.8451,-0.3019,-0.8904,-1.3067,-1.0662,-0.7148,-0.5536,-0.2147,-0.1081,-0.221,-0.4126,-0.421,0.1074,0.1984
-0.6252,-1.223,-0.6561,-1.0775,-0.9761,-1.1196,-0.4095,-0.2934,-0.0911,-0.3407,0.0439,-0.0362,-0.7572,-1.1942,-0.5441,-1.323,-0.8555,-0.3264,-0.9012,-1.3013,-1.052,-0.7055,-0.5278,-0.2278,-0.1543,-0.2766,-0.4434,-0.4417,0.1075,0.2118
-0.6781,-1.2014,-0.6978,-1.0539,-0.9531,-1.0779,-0.4336,-0.2502,-0.0807,-0.3733,0.0231,-0.0786,-0.8237,-1.2027,-0.6126,-1.351,-0.9013,-0.375,-0.9458,-1.3227,-1.0656,-0.7279,-0.5239,-0.251,-0.2043,-0.3303,-0.47,-0.462,0.1026,0.2456
-0.7605,-1.1927,-0.7633,-1.0498,-0.9442,-1.0469,-0.4511,-0.2015,-0.062,-0.3908,0.015,-0.1124,-0.8838,-1.2253,-0.7103,-1.3965,-0.9758,-0.4428,-1.0183,-1.3629,-1.0986,-0.7791,-0.5446,-0.2796,-0.2497,-0.3737,-0.4871,-0.4767,0.0925,0.2908
-0.8577,-1.1956,-0.8434,-1.0584,-0.9439,-1.0278,-0.4568,-0.1506,-0.0356,-0.3877,0.0214,-0.1322,-0.9266,-1.2484,-0.8224,-1.4506,-1.0684,-0.5235,-1.108,-1.4114,-1.1406,-0.8517,-0.589,-0.309,-0.2832,-0.4,-0.4913,-0.4807,0.0779,0.3378
-0.9497,-1.2066,-0.9247,-1.0713,-0.9463,-1.0194,-0.447,-0.0995,-0.0021,-0.361,0.043,-0.1344,-0.9441,-1.2593,-0.9321,-1.5034,-1.1662,-0.6098,-1.2018,-1.4573,-1.1806,-0.935,-0.6528,-0.3346,-0.3004,-0.4059,-0.4817,-0.4702,0.0599,0.3784
-1.0164,-1.2209,-0.9924,-1.0802,-0.9455,-1.0183,-0.4195,-0.0492,0.0379,-0.3106,0.0794,-0.1183,-0.9332,-1.2489,-1.0235,-1.5457,-1.2569,-0.6951,-1.2866,-1.4905,-1.2087,-1.017,-0.7286,-0.3532,-0.3003,-0.3926,-0.4606,-0.444,0.04,0.4068
-1.044,-1.2333,-1.0335,-1.0786,-0.9369,-1.0196,-0.3749,0.0011,0.0832,-0.2396,0.1278,-0.0859,-0.8952,-1.214,-1.0846,-1.5704,-1.3309,-0.7734,-1.3516,-1.5037,-1.2182,-1.0868,-0.8076,-0.3631,-0.286,-0.3653,-0.4329,-0.4042,0.0205,0.4198
-1.0283,-1.2388,-1.0394,-1.0622,-0.9178,-1.0181,-0.3157,0.053,0.1325,-0.1546,0.1836,-0.0422,-0.8361,-1.1571,-1.1092,-1.573,-1.382,-0.8398,-1.39,-1.4928,-1.2059,-1.1356,-0.8805,-0.3643,-0.2634,-0.332,-0.4056,-0.3558,0.0034,0.4172
-0.9751,-1.2334,-1.0076,-1.0299,-0.8873,-1.0085,-0.2463,0.1082,0.1838,-0.0641,0.2406,0.0066,-0.7642,-1.0853,-1.0971,-1.5519,-1.4076,-0.8902,-1.3991,-1.4565,-1.1718,-1.1583,-0.9384,-0.3582,-0.2397,-0.3015,-0.3853,-0.3058,-0.0091,0.401
-0.8972,-1.214,-0.9418,-0.9826,-0.8456,-0.9869,-0.1718,0.1677,0.2352,0.0231,0.2923,0.0543,-0.6878,-1.008,-1.0536,-1.5077,-1.4082,-0.9214,-1.3801,-1.3961,-1.1183,-1.1525,-0.9741,-0.346,-0.2206,-0.2805,-0.3761,-0.261,-0.0157,0.3747
-0.8098,-1.1796,-0.8514,-0.9228,-0.7945,-0.9513,-0.0973,0.2309,0.2846,0.0993,0.3329,0.0958,-0.6139,-0.9341,-0.9875,-1.4429,-1.3857,-0.9307,-1.3361,-1.3147,-1.0492,-1.1186,-0.9819,-0.3287,-0.2091,-0.2717,-0.3789,-0.2268,-0.0154,0.3428
-0.7265,-1.1312,-0.7496,-0.8545,-0.7362,-0.902,-0.0273,0.295,0.3298,0.1593,0.3588,0.1283,-0.5462,-0.8703,-0.9085,-1.3612,-1.3429,-0.9172,-1.2711,-1.2162,-0.9684,-1.0582,-0.9585,-0.306,-0.204,-0.2735,-0.3902,-0.2056,-0.0081,0.309
-0.6567,-1.0724,-0.651,-0.7828,-0.6743,-0.842,0.0345,0.3555,0.3682,0.2005,0.369,0.1507,-0.4856,-0.8195,-0.8259,-1.2674,-1.2823,-0.882,-1.1888,-1.1058,-0.8801,-0.974,-0.9033,-0.2766,-0.2012,-0.2802,-0.4033,-0.1963,0.0059,0.2756
-0.6055,-1.0082,-0.5693,-0.7135,-0.6129,-0.7769,0.0852,0.4058,0.397,0.223,0.3648,0.1638,-0.4314,-0.7816,-0.7467,-1.1672,-1.2065,-0.8289,-1.0927,-0.9897,-0.7881,-0.8696,-0.819,-0.2388,-0.1949,-0.2843,-0.4104,-0.1957,0.0255,0.2427
-0.5739,-0.9446,-0.5154,-0.6522,-0.557,-0.7135,0.1222,0.4388,0.4127,0.2284,0.3493,0.1693,-0.3816,-0.7535,-0.676,-1.0666,-1.1178,-0.7638,-0.9865,-0.8748,-0.6969,-0.7499,-0.7112,-0.1917,-0.1798,-0.2787,-0.4043,-0.1987,0.0487,0.2092
-0.56,-0.8867,-0.4955,-0.6038,-0.5115,-0.6597,0.1436,0.4479,0.4117,0.2193,0.3264,0.1693,-0.3354,-0.7308,-0.6171,-0.9713,-1.0192,-0.6937,-0.8739,-0.7686,-0.6108,-0.6211,-0.5887,-0.1356,-0.1523,-0.2585,-0.3808,-0.2001,0.0727,0.1732
-0.5602,-0.8378,-0.5101,-0.5712,-0.4805,-0.622,0.1482,0.4289,0.3908,0.1985,0.2998,0.1655,-0.2926,-0.7083,-0.5715,-0.8861,-0.9149,-0.625,-0.7598,-0.6779,-0.5346,-0.4908,-0.462,-0.073,-0.1121,-0.2224,-0.3386,-0.1957,0.0935,0.1343
-0.5701,-0.7988,-0.5533,-0.5546,-0.4662,-0.604,0.1363,0.3807,0.3483,0.1686,0.2723,0.1593,-0.2541,-0.6807,-0.5393,-0.8139,-0.8101,-0.5621,-0.6498,-0.6073,-0.4721,-0.3678,-0.3421,-0.0076,-0.0613,-0.1727,-0.2803,-0.183,0.1071,0.0935
-0.585,-0.7681,-0.6141,-0.5512,-0.4682,-0.6057,0.1096,0.3071,0.2849,0.132,0.2461,0.1517,-0.2214,-0.6437,-0.5191,-0.7557,-0.7111,-0.5065,-0.5496,-0.559,-0.4261,-0.2606,-0.239,0.0554,-0.0045,-0.1143,-0.2109,-0.1615,0.1098,0.0537
-0.5998,-0.743,-0.6778,-0.5563,-0.4831,-0.6229,0.0721,0.2159,0.204,0.0916,0.2226,0.1439,-0.1949,-0.5941,-0.5072,-0.7099,-0.6236,-0.4571,-0.4637,-0.5312,-0.3972,-0.1762,-0.1602,0.1112,0.0527,-0.0538,-0.1362,-0.1324,0.0995,0.0183
-0.6086,-0.7199,-0.7289,-0.5637,-0.505,-0.6478,0.029,0.1187,0.1123,0.05,0.2026,0.1365,-0.1735,-0.5298,-0.4982,-0.6728,-0.5515,-0.4111,-0.3947,-0.5191,-0.3833,-0.1188,-0.1095,0.1561,0.105,0.0026,-0.0623,-0.0984,0.076,-0.0096
-0.6044,-0.6947,-0.7543,-0.5666,-0.5259,-0.6711,-0.0133,0.0286,0.018,0.0104,0.1867,0.1302,-0.1545,-0.4501,-0.4853,-0.6387,-0.4955,-0.3656,-0.3414,-0.515,-0.3796,-0.0884,-0.0861,0.1884,0.1483,0.0496,0.0064,-0.0632,0.0415,-0.0285
-0.5806,-0.6634,-0.746,-0.5588,-0.5372,-0.683,-0.0485,-0.042,-0.0694,-0.0241,0.1747,0.1249,-0.1335,-0.3557,-0.4611,-0.6011,-0.4524,-0.3177,-0.2995,-0.5098,-0.3794,-0.0808,-0.0846,0.2087,0.1805,0.0844,0.0666,-0.0307,-0.0002,-0.0389
-0.5329,-0.6209,-0.7033,-0.5351,-0.5311,-0.6754,-0.0712,-0.0841,-0.1417,-0.0509,0.1653,0.1195,-0.1057,-0.2484,-0.4199,-0.5531,-0.4156,-0.2663,-0.2623,-0.4944,-0.3747,-0.0881,-0.096,0.2196,0.2016,0.1061,0.1166,-0.005,-0.0442,-0.0436
-0.4611,-0.5628,-0.6331,-0.4926,-0.5021,-0.6435,-0.0777,-0.0932,-0.1928,-0.0684,0.1564,0.112,-0.068,-0.1317,-0.358,-0.4896,-0.377,-0.2116,-0.222,-0.4618,-0.3583,-0.1005,-0.11,0.2247,0.2132,0.1156,0.1553,0.0103,-0.0852,-0.0473
-0.3705,-0.4855,-0.5481,-0.4309,-0.4481,-0.5865,-0.0672,-0.0705,-0.2198,-0.0769,0.1455,0.0998,-0.0194,-0.0103,-0.2751,-0.4078,-0.329,-0.1556,-0.1718,-0.4077,-0.3248,-0.1085,-0.1169,0.2277,0.2181,0.1149,0.1822,0.012,-0.1186,-0.0558
-0.2697,-0.3885,-0.4634,-0.3529,-0.3714,-0.5076,-0.0413,-0.0221,-0.2227,-0.0779,0.1301,0.0804,0.0374,0.11,-0.1742,-0.309,-0.2669,-0.1011,-0.1078,-0.3322,-0.2719,-0.1047,-0.1104,0.2315,0.2187,0.1059,0.1966,-0.0016,-0.1407,-0.0748
-0.1678,-0.2752,-0.3922,-0.2642,-0.2778,-0.4132,-0.0041,0.0425,-0.2043,-0.0743,0.1091,0.0521,0.0966,0.2226,-0.0613,-0.1982,-0.1907,-0.0521,-0.0302,-0.2396,-0.2013,-0.0854,-0.0882,0.2372,0.217,0.0906,0.1981,-0.0313,-0.1492,-0.1079
-0.072,-0.153,-0.3425,-0.1725,-0.1765,-0.3119,0.0385,0.1122,-0.1692,-0.0696,0.0827,0.0151,0.1499,0.3207,0.0551,-0.084,-0.1053,-0.0123,0.057,-0.1375,-0.1183,-0.0516,-0.053,0.244,0.2135,0.07,0.1862,-0.0758,-0.1432,-0.1549
0.0143,-0.0326,-0.3146,-0.0864,-0.0773,-0.2123,0.08,0.177,-0.1228,-0.0672,0.053,-0.0289,0.1882,0.3984,0.1656,0.0233,-0.0191,0.015,0.1468,-0.0358,-0.0306,-0.0077,-0.0107,0.2492,0.2075,0.0444,0.1608,-0.132,-0.1237,-0.2114
0.0908,0.0748,-0.3015,-0.0135,0.0104,-0.1215,0.1143,0.2293,-0.0704,-0.0696,0.0235,-0.076,0.2033,0.4511,0.2607,0.1136,0.0585,0.0283,0.2313,0.0563,0.0528,0.0391,0.0304,0.2488,0.1974,0.0143,0.1223,-0.1947,-0.0927,-0.2691
0.1588,0.1605,-0.2915,0.0412,0.0799,-0.0445,0.1366,0.2655,-0.0165,-0.0777,-0.0012,-0.121,0.1898,0.4763,0.3335,0.1796,0.1202,0.0288,0.3038,0.1315,0.1241,0.0817,0.0629,0.2387,0.1817,-0.0201,0.0719,-0.2573,-0.0538,-0.3178
0.2196,0.2208,-0.271,0.0765,0.1284,0.0171,0.1446,0.2862,0.0358,-0.0909,-0.0167,-0.1585,0.1464,0.4741,0.3802,0.2182,0.1632,0.0212,0.3606,0.1865,0.1778,0.1145,0.0818,0.2154,0.1595,-0.0579,0.0114,-0.3129,-0.0111,-0.3475
0.2738,0.2587,-0.2289,0.0958,0.1571,0.0645,0.1389,0.2951,0.0847,-0.1069,-0.0191,-0.1832,0.0766,0.4473,0.4015,0.2318,0.19,0.0135,0.4016,0.2222,0.2117,0.1353,0.086,0.1777,0.1308,-0.0977,-0.0563,-0.3551,0.0306,-0.3507
0.3216,0.2829,-0.1589,0.106,0.1707,0.1008,0.1227,0.2982,0.1293,-0.1219,-0.0065,-0.1918,-0.0118,0.4012,0.4022,0.2277,0.2075,0.0156,0.431,0.2435,0.2277,0.1455,0.079,0.1271,0.0968,-0.1374,-0.1276,-0.3794,0.0668,-0.3246
0.3635,0.3064,-0.0618,0.1163,0.1763,0.1307,0.1019,0.3014,0.1694,-0.1314,0.0209,-0.183,-0.1072,0.3434,0.3914,0.2171,0.2259,0.0373,0.4557,0.2581,0.2313,0.1505,0.0679,0.0687,0.0605,-0.1745,-0.1975,-0.3838,0.0936,-0.272
0.401,0.3423,0.0552,0.1354,0.1816,0.1581,0.084,0.3091,0.2048,-0.1306,0.0609,-0.1577,-0.196,0.2831,0.3799,0.2127,0.2559,0.0857,0.4848,0.2751,0.2303,0.1581,0.0621,0.0102,0.0258,-0.2059,-0.2604,-0.3686,0.1081,-0.2015
0.436,0.4001,0.1796,0.1691,0.1929,0.1853,0.0765,0.3235,0.2359,-0.1151,0.1098,-0.1186,-0.265,0.2302,0.379,0.2262,0.3067,0.164,0.5269,0.3027,0.2337,0.1768,0.071,-0.0388,-0.0029,-0.2284,-0.3104,-0.3361,0.1098,-0.1261
0.4711,0.4823,0.2963,0.2187,0.214,0.2123,0.0857,0.3447,0.2631,-0.0818,0.1636,-0.0693,-0.3035,0.1931,0.3976,0.2659,0.3838,0.2695,0.5885,0.3469,0.2494,0.2137,0.1015,-0.069,-0.0215,-0.2388,-0.3419,-0.2899,0.1,-0.0607
0.5083,0.5831,0.3908,0.2801,0.2453,0.2366,0.1151,0.3706,0.288,-0.0299,0.2188,-0.0139,-0.3054,0.1773,0.4398,0.3343,0.4878,0.3941,0.6718,0.4095,0.2821,0.2723,0.1559,-0.0736,-0.0273,-0.2351,-0.3513,-0.2338,0.0821,-0.0187
0.5493,0.6898,0.452,0.3451,0.284,0.2541,0.1642,0.3984,0.3122,0.039,0.2727,0.0442,-0.271,0.1836,0.5044,0.4271,0.6138,0.5247,0.7733,0.4874,0.3323,0.3514,0.2313,-0.0499,-0.0198,-0.2163,-0.3372,-0.1718,0.0608,-0.0085
0.5953,0.7857,0.4748,0.4036,0.3252,0.261,0.2292,0.4252,0.3377,0.1207,0.3242,0.1021,-0.2057,0.2084,0.5848,0.5341,0.752,0.6458,0.8844,0.5738,0.3959,0.4447,0.3198,-0.0001,-0.0005,-0.183,-0.3007,-0.1068,0.0412,-0.032
0.6465,0.856,0.4609,0.4468,0.3636,0.2557,0.3033,0.4485,0.3659,0.2092,0.373,0.1577,-0.1192,0.2458,0.6713,0.642,0.8897,0.743,0.9935,0.6597,0.4662,0.5431,0.411,0.0697,0.0275,-0.1373,-0.2448,-0.0413,0.0277,-0.0838
0.7016,0.8917,0.4185,0.4696,0.3954,0.2404,0.3786,0.4668,0.3969,0.2979,0.4194,0.2098,-0.022,0.2893,0.7534,0.7374,1.0142,0.8055,1.0887,0.7366,0.5357,0.6365,0.4941,0.1514,0.0607,-0.0822,-0.1739,0.0236,0.0229,-0.1535
0.7569,0.8929,0.361,0.4723,0.4192,0.2207,0.4475,0.4794,0.4294,0.3802,0.4636,0.2575,0.0762,0.3349,0.823,0.8108,1.1149,0.8293,1.1609,0.7988,0.5988,0.7164,0.5613,0.2364,0.0961,-0.0216,-0.0923,0.087,0.0277,-0.2285
0.8072,0.868,0.3038,0.4604,0.4367,0.2048,0.5044,0.4867,0.4608,0.4511,0.5049,0.3002,0.1687,0.382,0.8761,0.8582,1.1857,0.8173,1.2061,0.8448,0.6525,0.778,0.6089,0.3178,0.1317,0.0405,-0.0044,0.1483,0.0409,-0.2973
0.8471,0.8315,0.2613,0.4427,0.4516,0.2013,0.5467,0.4897,0.4877,0.5074,0.5418,0.3373,0.2526,0.4333,0.9132,0.8817,1.2258,0.7785,1.2257,0.877,0.6977,0.8203,0.6378,0.391,0.1662,0.1,0.0859,0.2066,0.0599,-0.3517
0.8724,0.7998,0.244,0.4292,0.4689,0.2172,0.5749,0.4901,0.5078,0.5486,0.5725,0.3683,0.3279,0.4931,0.9386,0.8889,1.2397,0.7263,1.2256,0.901,0.7376,0.8461,0.6525,0.4539,0.1988,0.153,0.1747,0.2607,0.0812,-0.3884
0.882,0.7871,0.2566,0.4284,0.4933,0.2558,0.5927,0.4902,0.5205,0.577,0.5958,0.3931,0.3967,0.5658,0.9584,0.89,1.2357,0.6745,1.2146,0.9231,0.7769,0.8604,0.6598,0.507,0.2291,0.1963,0.2587,0.309,0.1014,-0.4084
0.8785,0.8019,0.2984,0.4456,0.5287,0.3163,0.6061,0.4927,0.528,0.5972,0.6121,0.4123,0.4621,0.6533,0.9787,0.895,1.2239,0.6355,1.2022,0.9492,0.8203,0.8695,0.6668,0.552,0.2565,0.2282,0.3354,0.3504,0.1178,-0.4159
0.8678,0.8459,0.3634,0.4822,0.5772,0.3942,0.6221,0.4999,0.5346,0.6152,0.6232,0.4275,0.5266,0.7542,1.0033,0.912,1.2142,0.6174,1.1959,0.9829,0.8714,0.8792,0.679,0.592,0.2806,0.249,0.4036,0.3848,0.1287,-0.4168
0.8579,0.9135,0.4424,0.5349,0.6383,0.4824,0.6471,0.5137,0.546,0.6371,0.6329,0.4406,0.5916,0.8634,1.033,0.9447,1.2135,0.6225,1.2002,1.0252,0.9314,0.8939,0.6996,0.6304,0.3012,0.2606,0.4636,0.413,0.1338,-0.4165
0.8571,0.9931,0.5246,0.5971,0.7095,0.5725,0.6855,0.5348,0.5675,0.6676,0.6454,0.4539,0.6568,0.9729,1.0652,0.9919,1.2246,0.6481,1.216,1.0744,0.9993,0.916,0.7289,0.6705,0.319,0.2669,0.5173,0.4369,0.1341,-0.4189
0.8727,1.0703,0.5996,0.66,0.7859,0.6567,0.7388,0.5627,0.603,0.7092,0.6647,0.4699,0.7208,1.0735,1.0945,1.0484,1.2453,0.6865,1.2405,1.1265,1.0724,0.9455,0.7645,0.715,0.3353,0.2733,0.5679,0.4595,0.1311,-0.4255
0.9089,1.1307,0.6592,0.7142,0.8615,0.7287,0.8051,0.5962,0.6533,0.7615,0.694,0.4908,0.7817,1.1571,1.1152,1.1058,1.2695,0.7276,1.2683,1.1763,1.1462,0.9806,0.8017,0.7657,0.3523,0.2852,0.6192,0.4841,0.127,-0.4357
0.9658,1.1629,0.6987,0.7517,0.9297,0.7844,0.88,0.634,0.7166,0.8217,0.7343,0.5186,0.8378,1.2178,1.1228,1.1547,1.2884,0.7615,1.2931,1.2181,1.2157,1.018,0.8353,0.8229,0.3726,0.3079,0.6743,0.5144,0.1235,-0.4479
1.0388,1.1607,0.7179,0.7673,0.9846,0.8224,0.957,0.6749,0.7887,0.8853,0.7848,0.5545,0.8878,1.2529,1.1161,1.1866,1.2932,0.781,1.309,1.2471,1.276,1.0538,0.8605,0.8849,0.3988,0.3448,0.7346,0.5528,0.1219,-0.4601
1.1188,1.1244,0.7197,0.7595,1.0218,0.8431,1.0294,0.7184,0.8643,0.9474,0.8427,0.5989,0.9309,1.2624,1.0976,1.196,1.2782,0.7838,1.3123,1.2595,1.3222,1.084,0.8738,0.9484,0.432,0.3968,0.7986,0.6005,0.1226,-0.4707
1.1943,1.0605,0.7099,0.7306,1.0396,0.8491,1.0913,0.7646,0.9385,1.0044,0.9044,0.651,0.9669,1.2486,1.0729,1.1814,1.2419,0.7732,1.3016,1.2533,1.351,1.1054,0.8745,1.0084,0.4715,0.4611,0.8623,0.6563,0.1255,-0.4785
1.2535,0.9806,0.6955,0.6864,1.0389,0.8442,1.1389,0.8141,1.0079,1.0546,0.9659,0.7095,0.9959,1.215,1.0495,1.1455,1.1887,0.7571,1.2787,1.2292,1.3604,1.1163,0.8646,1.0592,0.5141,0.532,0.9192,0.7167,0.1303,-0.4831
1.2876,0.899,0.6829,0.6356,1.0235,0.833,1.1711,0.867,1.0716,1.0988,1.0244,0.7719,1.0176,1.1658,1.0348,1.0945,1.1272,0.7456,1.2483,1.1902,1.3505,1.1166,0.8483,1.0956,0.5544,0.6016,0.9624,0.7765,0.1366,-0.4846
1.2932,0.8303,0.6776,0.5874,0.9991,0.8203,1.1892,0.9227,1.1303,1.1394,1.0779,0.8354,1.0322,1.1059,1.0345,1.037,1.0691,0.7479,1.2163,1.1416,1.3238,1.1079,0.8312,1.1139,0.5857,0.661,0.9857,0.8298,0.1447,-0.4831
1.2733,0.7864,0.6834,0.551,0.9726,0.8106,1.1961,0.9798,1.1857,1.1799,1.1258,0.8968,1.0396,1.0404,1.0514,0.9821,1.026,0.7702,1.1896,1.0903,1.2851,1.0937,0.8192,1.1132,0.6018,0.7025,0.9855,0.8712,0.1548,-0.4791
1.2373,0.7745,0.7018,0.5331,0.9503,0.8072,1.1959,1.0354,1.2397,1.2228,1.1686,0.9529,1.0397,0.9744,1.0844,0.9378,1.0074,0.8141,1.1743,1.0436,1.2409,1.0789,0.8175,1.0953,0.5985,0.7209,0.9621,0.897,0.1673,-0.4724
1.1982,0.7961,0.7325,0.5377,0.937,0.8123,1.1921,1.0858,1.2926,1.2689,1.2066,1.0013,1.0329,0.913,1.1291,0.9102,1.0188,0.8769,1.1754,1.008,1.1986,1.0689,0.8293,1.0648,0.5744,0.7148,0.9192,0.9063,0.182,-0.4623
1.1687,0.8476,0.7726,0.5652,0.9347,0.8255,1.1872,1.1264,1.3426,1.317,1.2401,1.0404,1.0195,0.8598,1.1782,0.9026,1.0606,0.953,1.1951,0.9883,1.1651,1.0688,0.8558,1.0283,0.5322,0.6868,0.8638,0.9003,0.1981,-0.4481
1.1573,0.9215,0.8177,0.6125,0.9428,0.8446,1.1821,1.1526,1.3857,1.3637,1.2691,1.0699,1.0003,0.8173,1.2238,0.9156,1.1283,1.0359,1.2335,0.9868,1.1455,1.0824,0.8956,0.993,0.4777,0.6428,0.8044,0.8831,0.2136,-0.4293
1.1666,1.0079,0.8621,0.6732,0.9578,0.8652,1.1763,1.1603,1.4168,1.4044,1.293,1.0903,0.9764,0.7859,1.2601,0.9474,1.2137,1.1192,1.2874,1.0025,1.1418,1.1108,0.945,0.9652,0.4195,0.5915,0.75,0.86,0.2264,-0.4064
1.1929,1.0958,0.8999,0.7393,0.9741,0.8817,1.1678,1.1464,1.4304,1.4343,1.3109,1.1032,0.9491,0.7646,1.2849,0.9939,1.3066,1.1986,1.3517,1.0319,1.1531,1.1526,0.9989,0.9495,0.3666,0.542,0.7081,0.8365,0.2345,-0.3818
1.2283,1.1753,0.9263,0.8015,0.9853,0.888,1.1546,1.1099,1.4223,1.4497,1.3221,1.1103,0.92,0.7515,1.3009,1.0497,1.3966,1.2711,1.4201,1.0689,1.175,1.2033,1.0517,0.9478,0.3273,0.503,0.684,0.8174,0.2369,-0.359
1.2634,1.2375,0.9384,0.8513,0.9853,0.8785,1.1345,1.052,1.3909,1.4488,1.3259,1.1129,0.8905,0.744,1.3137,1.1086,1.4756,1.335,1.4855,1.1063,1.2013,1.2565,1.0982,0.9597,0.3075,0.4808,0.6803,0.8056,0.2334,-0.3418
1.2894,1.276,0.935,0.882,0.9694,0.8489,1.1061,0.9765,1.3371,1.4308,1.3216,1.1115,0.8617,0.7396,1.3297,1.1645,1.5385,1.3887,1.5419,1.1365,1.2247,1.3049,1.1345,0.9821,0.3101,0.4788,0.6963,0.8016,0.2248,-0.3331
1.2995,1.2865,0.9164,0.8892,0.935,0.7965,1.0688,0.8886,1.2646,1.3967,1.3087,1.1055,0.8335,0.7358,1.3523,1.2113,1.5838,1.4297,1.5842,1.153,1.2385,1.3417,1.1586,1.0107,0.3343,0.4971,0.7291,0.8039,0.2126,-0.3339
1.2893,1.2676,0.8833,0.8716,0.8816,0.7205,1.0226,0.7946,1.1787,1.348,1.2866,1.0937,0.8049,0.7305,1.3807,1.244,1.6126,1.4548,1.6088,1.151,1.2373,1.3618,1.1702,1.0401,0.3768,0.5327,0.7732,0.8098,0.1981,-0.3426
1.2571,1.2209,0.8359,0.8305,0.8108,0.6227,0.9683,0.7002,1.0855,1.2867,1.2551,1.0741,0.7738,0.7216,1.4085,1.2584,1.6269,1.46,1.6134,1.1283,1.2185,1.362,1.1704,1.0653,0.432,0.5804,0.8218,0.8159,0.1825,-0.3554
1.2028,1.1503,0.7736,0.7689,0.7255,0.5062,0.907,0.61,0.9908,1.215,1.2144,1.0454,0.7376,0.7071,1.4254,1.2517,1.6286,1.4419,1.5971,1.0846,1.1817,1.3417,1.1604,1.0818,0.4935,0.6332,0.8674,0.8192,0.1663,-0.3668
1.128,1.0618,0.6949,0.6904,0.6288,0.3754,0.8401,0.5268,0.8997,1.1355,1.1655,1.0065,0.6938,0.685,1.4198,1.2224,1.6179,1.3984,1.5603,1.0219,1.1285,1.3021,1.1411,1.0862,0.5548,0.684,0.9023,0.8173,0.1496,-0.3717
1.035,0.9618,0.5979,0.5985,0.5236,0.2347,0.7692,0.4514,0.8158,1.0513,1.1097,0.9576,0.6404,0.6528,1.3822,1.1705,1.594,1.3295,1.5043,0.9432,1.062,1.2458,1.1123,1.0766,0.6101,0.726,0.9201,0.8091,0.1324,-0.3662
0.9272,0.8563,0.4807,0.4959,0.4122,0.0879,0.6959,0.3833,0.7416,0.966,1.049,0.8997,0.577,0.6077,1.3078,1.0975,1.5548,1.2375,1.4316,0.8522,0.9861,1.1761,1.0731,1.0522,0.6545,0.7541,0.9162,0.7936,0.115,-0.3495
0.8092,0.7498,0.3427,0.3845,0.2957,-0.0621,0.6218,0.3208,0.6777,0.883,0.9856,0.8348,0.5044,0.5469,1.1978,1.0059,1.4982,1.1274,1.3451,0.7531,0.9047,1.0966,1.0224,1.0136,0.6842,0.7644,0.8885,0.7707,0.0983,-0.3232
0.6864,0.6438,0.1851,0.266,0.175,-0.2135,0.5476,0.2619,0.6239,0.8049,0.9217,0.7652,0.4243,0.4673,1.059,0.8991,1.4224,1.006,1.2479,0.6491,0.8208,1.0105,0.9592,0.9619,0.6961,0.7553,0.8372,0.7397,0.0838,-0.2918
0.5649,0.5373,0.011,0.1415,0.0499,-0.3646,0.4736,0.2046,0.5787,0.7326,0.8594,0.6929,0.339,0.3657,0.9024,0.7806,1.3259,0.8806,1.1425,0.5429,0.7366,0.9197,0.883,0.8983,0.6875,0.7259,0.7646,0.6996,0.0734,-0.261
0.4493,0.4269,-0.1743,0.0129,-0.0793,-0.514,0.3986,0.1475,0.5393,0.665,0.7999,0.6194,0.2506,0.2398,0.7393,0.6534,1.2081,0.7569,1.0301,0.4358,0.6523,0.8241,0.7933,0.8232,0.6563,0.6762,0.6739,0.649,0.0689,-0.2363
0.3418,0.3084,-0.3643,-0.1175,-0.2119,-0.6594,0.3208,0.0899,0.5023,0.599,0.7438,0.5451,0.1606,0.0884,0.579,0.5206,1.0693,0.6375,0.9107,0.3283,0.5668,0.7222,0.6892,0.736,0.601,0.6065,0.5686,0.5865,0.071,-0.2222
0.2408,0.1787,-0.5521,-0.246,-0.3459,-0.7979,0.2382,0.0318,0.4635,0.5305,0.6906,0.4697,0.07,-0.0872,0.4263,0.3849,0.9111,0.5203,0.7837,0.2204,0.4784,0.6112,0.5696,0.6359,0.5216,0.5175,0.452,0.511,0.0792,-0.2204
0.1417,0.0368,-0.7318,-0.369,-0.478,-0.9254,0.1497,-0.0263,0.4186,0.4557,0.6392,0.3923,-0.0205,-0.2825,0.2808,0.2488,0.7365,0.3998,0.6479,0.112,0.3852,0.4884,0.4335,0.5225,0.4203,0.4109,0.3277,0.4232,0.0912,-0.2302
0.0372,-0.1155,-0.8991,-0.4828,-0.6038,-1.038,0.0557,-0.0831,0.3644,0.3729,0.588,0.3121,-0.1099,-0.4895,0.1381,0.1145,0.5494,0.268,0.5026,0.0029,0.2861,0.3519,0.2808,0.397,0.3016,0.29,0.1992,0.325,0.1036,-0.2484
-0.0807,-0.2744,-1.0517,-0.5857,-0.7188,-1.1324,-0.0414,-0.1367,0.299,0.2829,0.5355,0.2294,-0.1971,-0.6975,-0.0085,-0.0173,0.354,0.117,0.3476,-0.1071,0.1806,0.202,0.1131,0.2623,0.1725,0.1598,0.0705,0.2204,0.1131,-0.2708
-0.2195,-0.4346,-1.1888,-0.6776,-0.8191,-1.2066,-0.1374,-0.1848,0.2231,0.1898,0.4809,0.1452,-0.2802,-0.8936,-0.1649,-0.1477,0.1536,-0.0583,0.1836,-0.219,0.0696,0.0412,-0.0655,0.1235,0.0416,0.0267,-0.0545,0.1142,0.1168,-0.293
-0.3847,-0.5904,-1.3114,-0.76,-0.9024,-1.2609,-0.2268,-0.2249,0.1397,0.1,0.4247,0.0622,-0.3575,-1.0653,-0.3352,-0.2788,-0.0489,-0.2591,0.0121,-0.3341,-0.0455,-0.126,-0.2484,-0.013,-0.0823,-0.1023,-0.1716,0.012,0.1133,-0.3119
-0.5775,-0.7365,-1.4212,-0.8356,-0.9678,-1.2972,-0.3042,-0.2547,0.0544,0.0213,0.3684,-0.0162,-0.4269,-1.2021,-0.5204,-0.4134,-0.251,-0.4812,-0.164,-0.4538,-0.1628,-0.2932,-0.427,-0.1404,-0.1912,-0.2198,-0.2772,-0.0812,0.1028,-0.3251
-0.7942,-0.8685,-1.5208,-0.9069,-1.0166,-1.3191,-0.3649,-0.2729,-0.0258,-0.0389,0.3152,-0.0854,-0.4867,-1.2965,-0.7191,-0.5534,-0.4504,-0.7152,-0.3412,-0.5787,-0.2792,-0.4532,-0.5918,-0.252,-0.2791,-0.3196,-0.368,-0.1609,0.0866,-0.3306
-1.0244,-0.9841,-1.6119,-0.9755,-1.0508,-1.3304,-0.4057,-0.2787,-0.0935,-0.0748,0.269,-0.141,-0.535,-1.3458,-0.9284,-0.6986,-0.6437,-0.9478,-0.5149,-0.7078,-0.3913,-0.5984,-0.7332,-0.3418,-0.3418,-0.3961,-0.4409,-0.2232,0.0667,-0.3255
-1.2522,-1.0827,-1.6959,-1.042,-1.0736,-1.3348,-0.4256,-0.2726,-0.1426,-0.0832,0.2339,-0.1793,-0.5706,-1.3513,-1.1444,-0.8468,-0.8271,-1.1642,-0.6794,-0.8382,-0.4947,-0.7218,-0.8429,-0.4052,-0.3773,-0.4453,-0.4927,-0.2657,0.0451,-0.3063
-1.4596,-1.1665,-1.7722,-1.1061,-1.0883,-1.3355,-0.4259,-0.256,-0.1697,-0.0649,0.2126,-0.1987,-0.5925,-1.3188,-1.363,-0.9933,-0.996,-1.35,-0.8291,-0.9653,-0.5851,-0.8173,-0.9148,-0.4394,-0.3857,-0.4651,-0.5207,-0.2871,0.0236,-0.2695
-1.6307,-1.2392,-1.8395,-1.1671,-1.0983,-1.3344,-0.4105,-0.2311,-0.1752,-0.0248,0.2055,-0.2002,-0.6009,-1.2576,-1.5795,-1.1326,-1.1463,-1.4947,-0.9585,-1.0837,-0.6586,-0.8812,-0.9461,-0.4441,-0.3688,-0.4553,-0.5233,-0.2883,0.0033,-0.2127
-1.7561,-1.3058,-1.8959,-1.2242,-1.1065,-1.3323,-0.3857,-0.2009,-0.1633,0.0281,0.2101,-0.1883,-0.5977,-1.1796,-1.7885,-1.2599,-1.2753,-1.5929,-1.0637,-1.1887,-0.713,-0.913,-0.9385,-0.4221,-0.3303,-0.4191,-0.5013,-0.2729,-0.0144,-0.1363
-1.836,-1.371,-1.9397,-1.277,-1.1154,-1.3289,-0.3593,-0.1684,-0.1414,0.082,0.2209,-0.17,-0.5872,-1.0981,-1.9836,-1.3718,-1.3825,-1.6454,-1.1436,-1.2768,-0.7486,-0.9158,-0.8983,-0.3797,-0.2762,-0.363,-0.459,-0.247,-0.0284,-0.0447
-1.8803,-1.4377,-1.9698,-1.3255,-1.1268,-1.3232,-0.3397,-0.1366,-0.1183,0.1237,0.2305,-0.1543,-0.5753,-1.0253,-2.1566,-1.4672,-1.4699,-1.6591,-1.1996,-1.3469,-0.7682,-0.8967,-0.8362,-0.3266,-0.2144,-0.2965,-0.4045,-0.2192,-0.0374,0.0535
-1.9056,-1.5066,-1.9853,-1.3699,-1.1417,-1.3139,-0.3349,-0.1078,-0.1025,0.1415,0.2309,-0.1502,-0.5697,-0.9714,-2.2984,-1.547,-1.5415,-1.6445,-1.2363,-1.4001,-0.7769,-0.8656,-0.7656,-0.2743,-0.1549,-0.2315,-0.3493,-0.1989,-0.0398,0.1468
-1.9306,-1.5756,-1.985,-1.4104,-1.1602,-1.3,-0.3507,-0.0841,-0.1004,0.1262,0.2149,-0.1656,-0.5782,-0.9434,-2.4,-1.6139,-1.6024,-1.6139,-1.2597,-1.4394,-0.7813,-0.8341,-0.7009,-0.2353,-0.1079,-0.1804,-0.3063,-0.1953,-0.0343,0.2228
-1.9695,-1.6408,-1.9682,-1.4471,-1.1824,-1.2821,-0.3908,-0.0676,-0.116,0.0734,0.1777,-0.2053,-0.6077,-0.9447,-2.455,-1.6713,-1.6574,-1.5791,-1.2768,-1.4693,-0.7883,-0.8138,-0.6547,-0.2211,-0.0832,-0.1547,-0.2883,-0.2156,-0.0201,0.272
-2.0274,-1.6977,-1.9348,-1.4802,-1.2084,-1.2623,-0.4557,-0.0599,-0.1499,-0.0162,0.1177,-0.2707,-0.6627,-0.9767,-2.4627,-1.7225,-1.7108,-1.5501,-1.2942,-1.4952,-0.8048,-0.8143,-0.6366,-0.2399,-0.0876,-0.1622,-0.3048,-0.2639,0.0018,0.2911
-2.0981,-1.7427,-1.8872,-1.5096,-1.2392,-1.245,-0.5435,-0.0628,-0.2003,-0.1371,0.0364,-0.3593,-0.7447,-1.0391,-2.4292,-1.7707,-1.7656,-1.5344,-1.3172,-1.5227,-0.8362,-0.8417,-0.6517,-0.2957,-0.1239,-0.206,-0.3604,-0.3402,0.0286,0.2841
-2.1657,-1.7742,-1.8309,-1.5345,-1.2765,-1.236,-0.6502,-0.0777,-0.2632,-0.2798,-0.0618,-0.4651,-0.8512,-1.1311,-2.3677,-1.8178,-1.8237,-1.5366,-1.3494,-1.5572,-0.8863,-0.8985,-0.7007,-0.3875,-0.1899,-0.2837,-0.4534,-0.4402,0.0555,0.2631
-2.2081,-1.7926,-1.7743,-1.5537,-1.3223,-1.2413,-0.7703,-0.1052,-0.3334,-0.4327,-0.1704,-0.5799,-0.9758,-1.2517,-2.2962,-1.8653,-1.8852,-1.5587,-1.3926,-1.603,-0.9569,-0.9835,-0.7805,-0.5092,-0.2787,-0.3875,-0.5763,-0.5562,0.0766,0.2449
-2.2019,-1.8001,-1.7281,-1.5654,-1.3787,-1.2666,-0.8982,-0.145,-0.4057,-0.584,-0.2819,-0.6944,-1.1097,-1.3997,-2.234,-1.9139,-1.9495,-1.6007,-1.4466,-1.663,-1.0483,-1.092,-0.8857,-0.6512,-0.3803,-0.5067,-0.7173,-0.6784,0.0856,0.2482
-2.1282,-1.8003,-1.702,-1.5678,-1.4471,-1.3153,-1.0291,-0.196,-0.4755,-0.7242,-0.39,-0.8004,-1.2434,-1.5734,-2.1978,-1.9635,-2.015,-1.6605,-1.5098,-1.7384,-1.1588,-1.2181,-1.0097,-0.8027,-0.4839,-0.6298,-0.8631,-0.7972,0.0774,0.2893
-1.9765,-1.7969,-1.7025,-1.5595,-1.5275,-1.388,-1.1592,-0.2563,-0.5396,-0.8475,-0.4899,-0.8923,-1.3691,-1.7697,-2.1977,-2.0139,-2.0796,-1.7349,-1.5798,-1.8284,-1.2857,-1.3551,-1.1457,-0.9539,-0.5806,-0.7473,-1.0023,-0.9054,0.0493,0.3781
-1.7486,-1.7932,-1.7308,-1.5404,-1.6186,-1.482,-1.2868,-0.3234,-0.597,-0.9527,-0.58,-0.9685,-1.4826,-1.9846,-2.2357,-2.0647,-2.1421,-1.8196,-1.6536,-1.9306,-1.4251,-1.4972,-1.2881,-1.0984,-0.6652,-0.8533,-1.128,-0.9995,0.0017,0.5157
-1.4596,-1.7912,-1.782,-1.5124,-1.7179,-1.5919,-1.4119,-0.3949,-0.6486,-1.0432,-0.6616,-1.0315,-1.584,-2.2127,-2.3055,-2.1157,-2.202,-1.9102,-1.7292,-2.0414,-1.5727,-1.6404,-1.4324,-1.2339,-0.737,-0.9471,-1.239,-1.0806,-0.0612,0.6937
-1.1359,-1.7919,-1.8464,-1.4798,-1.8216,-1.71,-1.5354,-0.4681,-0.6968,-1.1257,-0.7381,-1.0869,-1.6776,-2.4473,-2.3947,-2.167,-2.2605,-2.0022,-1.8046,-2.1564,-1.7236,-1.7819,-1.5753,-1.3621,-0.7997,-1.0318,-1.339,-1.1533,-0.1326,0.8959
