FP1,F3,F7,FC3,C3,C5,P3,P7,PO7,PO3,O1,Oz,Pz,CPz,FP2,Fz,F4,F8,FC4,FCz,Cz,C4,C6,P4,P8,PO8,PO4,O2,(corr) HEOG,(corr) VEOG
0.9973,1.3213,1.0608,1.3281,1.1556,0.998,0.7406,0.3563,0.1994,0.2848,-0.0563,0.0595,0.5673,0.9173,1.3777,1.4653,1.3161,0.914,1.1472,1.4083,1.1893,0.9352,1.005,0.5378,0.3952,0.0336,0.2395,-0.0224,-0.0269,-0.8027
1.06,1.4338,1.1353,1.4146,1.2037,0.9912,0.735,0.3533,0.2082,0.2884,-0.0774,0.0584,0.5946,0.9509,1.4515,1.5567,1.408,0.9455,1.2634,1.4896,1.2498,1.0275,1.0567,0.5858,0.4119,0.0587,0.2574,-0.0195,0.0079,-0.8904
1.1068,1.5332,1.1907,1.481,1.237,0.9765,0.7128,0.3433,0.2042,0.2873,-0.1005,0.0449,0.6141,0.9806,1.5043,1.627,1.4771,0.9652,1.3652,1.5549,1.3003,1.1108,1.1065,0.6226,0.4219,0.0706,0.2648,-0.0367,0.0499,-0.9553
1.1342,1.6106,1.2191,1.5217,1.2549,0.9564,0.6793,0.3281,0.1896,0.2808,-0.1216,0.0203,0.6276,1.0087,1.529,1.6722,1.516,0.9709,1.4409,1.6025,1.3402,1.1809,1.1518,0.6483,0.4277,0.0689,0.263,-0.0708,0.0954,-0.99
1.1432,1.663,1.2193,1.5378,1.2621,0.9365,0.6435,0.3114,0.1699,0.2697,-0.1358,-0.0111,0.6395,1.0395,1.5237,1.6942,1.5245,0.9635,1.4857,1.6354,1.3732,1.2379,1.1923,0.6654,0.4339,0.0563,0.256,-0.1153,0.14,-0.9927
1.1389,1.6933,1.1971,1.5374,1.268,0.9249,0.6173,0.2985,0.1529,0.2573,-0.1377,-0.042,0.6561,1.0786,1.4935,1.7003,1.5104,0.9486,1.5034,1.6611,1.406,1.2862,1.2305,0.6794,0.447,0.0393,0.2502,-0.1615,0.1799,-0.9689
1.1295,1.71,1.1642,1.5332,1.285,0.9314,0.6127,0.2951,0.1467,0.2496,-0.1221,-0.0633,0.6838,1.1314,1.4503,1.7016,1.488,0.9356,1.5047,1.6891,1.447,1.3332,1.2709,0.6979,0.4746,0.0269,0.2535,-0.199,0.2117,-0.9313
1.1238,1.7237,1.1353,1.5395,1.3243,0.9645,0.6389,0.3049,0.1574,0.2538,-0.0859,-0.0659,0.7271,1.2005,1.4104,1.7093,1.4743,0.9362,1.5053,1.7282,1.503,1.3869,1.3189,0.7287,0.5242,0.0294,0.2739,-0.218,0.2329,-0.8973
1.1293,1.7445,1.1244,1.5671,1.3922,1.0288,0.6985,0.3287,0.1867,0.2762,-0.0294,-0.0429,0.7861,1.2843,1.3909,1.732,1.4844,0.9607,1.5203,1.7836,1.5763,1.4531,1.3778,0.7774,0.6006,0.056,0.3172,-0.2108,0.2416,-0.8848
1.1501,1.7786,1.1404,1.6209,1.4871,1.122,0.7858,0.3623,0.2304,0.3193,0.0432,0.0081,0.8559,1.3756,1.4046,1.7739,1.5278,1.0148,1.5607,1.8556,1.6635,1.5326,1.4473,0.8454,0.7039,0.1123,0.3851,-0.1735,0.2368,-0.9071
1.1865,1.8279,1.1853,1.6983,1.5993,1.234,0.887,0.3967,0.2791,0.3801,0.1231,0.0841,0.9269,1.4633,1.457,1.834,1.6057,1.0964,1.63,1.9395,1.7564,1.6211,1.5217,0.9285,0.8279,0.1982,0.4742,-0.1072,0.219,-0.969
1.2361,1.8902,1.2536,1.7907,1.7134,1.3486,0.9829,0.42,0.3197,0.4501,0.1987,0.1772,0.9881,1.5352,1.5452,1.9091,1.7116,1.1959,1.7244,2.0288,1.8446,1.71,1.5906,1.0182,0.9593,0.3076,0.5764,-0.0175,0.1901,-1.0656
1.2951,1.9617,1.335,1.8874,1.8127,1.4466,1.0542,0.4193,0.3388,0.517,0.2582,0.2762,1.0299,1.5823,1.6589,1.9952,1.8342,1.2988,1.8344,2.1179,1.9197,1.7895,1.6412,1.1032,1.0808,0.4291,0.6806,0.0865,0.1534,-1.1832
1.3606,2.0388,1.4166,1.9785,1.8839,1.5106,1.0868,0.385,0.3264,0.5685,0.2925,0.3698,1.0481,1.602,1.784,2.0907,1.9612,1.3899,1.9487,2.2047,1.9783,1.852,1.6619,1.1737,1.1743,0.5486,0.7763,0.1941,0.1138,-1.3035
1.4305,2.1197,1.487,2.0579,1.9209,1.5288,1.0759,0.313,0.2796,0.5962,0.2979,0.4492,1.0461,1.5999,1.906,2.1962,2.0831,1.4583,2.0567,2.2909,2.0234,1.8948,1.6469,1.224,1.2259,0.6532,0.8555,0.2963,0.0768,-1.4079
1.5042,2.2042,1.5382,2.1242,1.9262,1.4984,1.0276,0.2074,0.2039,0.5984,0.2781,0.5104,1.0343,1.5879,2.0129,2.3135,2.1953,1.5004,2.1512,2.381,2.063,1.9209,1.5979,1.2544,1.2295,0.7336,0.9157,0.3866,0.0479,-1.4822
1.5809,2.2927,1.5667,2.1797,1.909,1.4257,0.9575,0.0797,0.1126,0.5811,0.2432,0.5545,1.0276,1.5819,2.0967,2.4436,2.2973,1.5199,2.2292,2.4795,2.1074,1.9376,1.5245,1.2706,1.1885,0.786,0.9588,0.4625,0.0315,-1.52
1.6588,2.3841,1.573,2.2285,1.8829,1.325,0.8862,-0.0531,0.0235,0.5555,0.207,0.5868,1.041,1.5962,2.1542,2.584,2.3916,1.5256,2.2905,2.5881,2.1653,1.9542,1.4412,1.2818,1.1144,0.8121,0.9904,0.5245,0.0309,-1.5228
1.7345,2.4754,1.5607,2.2741,1.8609,1.2143,0.8336,-0.1721,-0.0453,0.5347,0.1838,0.6141,1.0848,1.64,2.1857,2.7277,2.4799,1.5269,2.3368,2.7039,2.2408,1.9783,1.3641,1.2973,1.0245,0.8176,1.0169,0.5754,0.0469,-1.4991
1.8023,2.5604,1.5345,2.3185,1.8529,1.112,0.8144,-0.2608,-0.0803,0.5297,0.1843,0.6425,1.1619,1.7149,2.1941,2.8634,2.5618,1.5303,2.3699,2.8198,2.3321,2.0141,1.3067,1.3232,0.9374,0.8109,1.0435,0.6183,0.0775,-1.4612
1.8564,2.6318,1.4997,2.3612,1.864,1.0331,0.8342,-0.3082,-0.0756,0.5467,0.2127,0.6749,1.2669,1.8145,2.1839,2.978,2.6337,1.5375,2.3903,2.9255,2.4323,2.0615,1.2771,1.3617,0.8696,0.8004,1.0728,0.6555,0.1182,-1.4218
1.8917,2.6824,1.4619,2.4007,1.8943,0.9876,0.8902,-0.3104,-0.0335,0.5862,0.2659,0.7107,1.3876,1.9272,2.1602,3.0593,2.6898,1.5465,2.3974,3.011,2.5315,2.1169,1.2777,1.4101,0.833,0.7938,1.1047,0.688,0.1623,-1.3915
1.906,2.7081,1.4265,2.4358,1.9409,0.9801,0.9728,-0.2704,0.0369,0.6437,0.3346,0.7456,1.5092,2.0398,2.1292,3.0995,2.7247,1.5536,2.3912,3.0692,2.62,2.1747,1.3061,1.4631,0.8334,0.7966,1.1373,0.7155,0.2022,-1.3774
1.9013,2.7098,1.3991,2.4671,2.0001,1.0102,1.0694,-0.1964,0.1222,0.7117,0.4057,0.7735,1.618,2.141,2.098,3.0979,2.7363,1.5565,2.3739,3.0985,2.6912,2.2304,1.3568,1.5142,0.8704,0.8119,1.168,0.7369,0.2308,-1.3825
1.8841,2.6941,1.3854,2.4977,2.0694,1.0747,1.1685,-0.0993,0.2087,0.7826,0.4664,0.7883,1.7052,2.2246,2.0746,3.0623,2.7281,1.5567,2.3517,3.1043,2.7437,2.2815,1.4237,1.5586,0.9389,0.8405,1.1949,0.7513,0.2428,-1.4073
1.8649,2.6728,1.39,2.5342,2.1484,1.1684,1.2623,0.0098,0.2855,0.8514,0.5077,0.7868,1.7698,2.2917,2.0679,3.0085,2.71,1.5592,2.3358,3.0985,2.7824,2.3295,1.5021,1.5954,1.0303,0.8814,1.2181,0.759,0.2362,-1.4507
1.8563,2.6616,1.4167,2.5856,2.24,1.2861,1.3492,0.1219,0.3472,0.9173,0.5274,0.7705,1.8189,2.3505,2.0868,2.9581,2.6975,1.5721,2.3413,3.0982,2.818,2.38,1.5898,1.6282,1.1352,0.933,1.2408,0.7628,0.2131,-1.5118
1.8711,2.6768,1.4675,2.662,2.3495,1.4229,1.4335,0.2305,0.394,0.9842,0.5307,0.7466,1.8668,2.4154,2.1385,2.9349,2.7092,1.6039,2.3863,3.1228,2.8662,2.4432,1.6886,1.6659,1.2447,0.994,1.269,0.7685,0.179,-1.5904
1.9195,2.733,1.5424,2.773,2.4836,1.5745,1.5239,0.3322,0.4312,1.0594,0.5301,0.7271,1.9321,2.5042,2.2275,2.961,2.7638,1.661,2.4887,3.1913,2.9448,2.5322,1.8032,1.721,1.3528,1.0636,1.3116,0.7844,0.1426,-1.6875
2.0077,2.8402,1.6395,2.9255,2.6486,1.7368,1.6306,0.4252,0.4672,1.152,0.5412,0.7272,2.0334,2.6348,2.3539,3.0525,2.8763,1.7465,2.6631,3.3185,3.0712,2.6612,1.9403,1.8075,1.4565,1.1426,1.3789,0.8204,0.1135,-1.8043
2.1364,3.0019,1.7545,3.1219,2.8484,1.9047,1.7627,0.5088,0.5107,1.2697,0.5797,0.7614,2.1858,2.8207,2.5136,3.2171,3.0546,1.8589,2.9173,3.5124,3.2584,2.8422,2.1059,1.9376,1.5561,1.2327,1.4804,0.8856,0.1004,-1.9411
2.3005,3.2141,1.8816,3.3584,3.0817,2.0719,1.9244,0.5823,0.5681,1.4165,0.6564,0.8397,2.3959,3.0678,2.6983,3.4516,3.2977,1.9925,3.2483,3.7723,3.5113,3.0813,2.3026,2.1183,1.6542,1.3357,1.6223,0.9861,0.1094,-2.0967
2.4894,3.4645,2.0132,3.6244,3.3409,2.231,2.1132,0.6443,0.6418,1.591,0.7743,0.9651,2.6597,3.3708,2.8967,3.7421,3.5941,2.139,3.6409,4.0868,3.8242,3.3753,2.5275,2.3488,1.7538,1.4523,1.8052,1.1229,0.1424,-2.2672
2.6878,3.7335,2.1401,3.9022,3.6112,2.3731,2.3192,0.6933,0.7293,1.7854,0.9271,1.1311,2.9615,3.7124,3.0946,4.0648,3.9218,2.2876,4.0671,4.434,4.1789,3.7099,2.7703,2.6185,1.8567,1.5817,2.0224,1.2911,0.197,-2.4455
2.8774,3.9953,2.2519,4.1686,3.8713,2.4892,2.5259,0.7279,0.8236,1.9858,1.0996,1.322,3.2755,4.0648,3.2763,4.3884,4.2509,2.4266,4.4887,4.7836,4.546,4.0599,3.0142,2.9078,1.9622,1.72,2.2597,1.4789,0.2672,-2.6217
3.0386,4.2212,2.3377,4.3968,4.0958,2.5709,2.713,0.747,0.9141,2.1742,1.271,1.5159,3.5698,4.3932,3.4256,4.6781,4.5466,2.5438,4.8624,5.1005,4.8888,4.3922,3.2382,3.1902,2.0668,1.8608,2.497,1.6701,0.3449,-2.7834
3.153,4.3836,2.3867,4.5608,4.2601,2.6117,2.8602,0.7504,0.9898,2.3305,1.4186,1.6877,3.8114,4.6618,3.5274,4.9005,4.7748,2.6275,5.1471,5.3499,5.169,4.6714,3.42,3.4369,2.1642,1.9952,2.7113,1.8459,0.4218,-2.9182
3.2066,4.4602,2.3907,4.64,4.3447,2.6085,2.9517,0.7397,1.0408,2.4368,1.5222,1.8147,3.9732,4.8409,3.57,5.0291,4.9077,2.668,5.3106,5.5037,5.3542,4.8661,3.5413,3.6215,2.2469,2.1134,2.881,1.9885,0.4911,-3.0153
3.1924,4.4388,2.3463,4.6235,4.3407,2.5637,2.9792,0.7182,1.0611,2.4812,1.5689,1.8805,4.0385,4.9126,3.5478,5.0491,4.929,2.6594,5.3365,5.5455,5.4243,4.9551,3.5905,3.7253,2.3076,2.2059,2.9894,2.0843,0.5485,-3.0675
3.1116,4.3196,2.2563,4.5129,4.2519,2.486,2.9447,0.6913,1.05,2.4605,1.5543,1.8778,4.0049,4.8747,3.4624,4.9597,4.8366,2.6007,5.2263,5.4741,5.3756,4.9318,3.5656,3.7404,2.3411,2.2649,3.0277,2.1261,0.592,-3.0731
2.9741,4.1163,2.1308,4.3229,4.0949,2.3899,2.8595,0.6663,1.0122,2.3812,1.4838,1.8093,3.884,4.7403,3.3234,4.7742,4.6428,2.4965,4.9993,5.3028,5.2213,4.8045,3.4745,3.6708,2.3444,2.286,2.9964,2.1137,0.622,-3.0354
2.7958,3.8527,1.9851,4.0782,3.8958,2.2935,2.7423,0.6507,0.957,2.2585,1.3706,1.6865,3.6986,4.5352,3.1463,4.5172,4.3712,2.3562,4.6884,5.0566,4.9883,4.5947,3.3326,3.5314,2.3172,2.268,2.9041,2.0534,0.64,-2.9625
2.5962,3.5589,1.8373,3.8087,3.6846,2.2153,2.6149,0.6516,0.8963,2.1127,1.2332,1.5272,3.4779,4.2917,2.9501,4.2189,4.052,2.1928,4.333,4.766,4.7104,4.3319,3.1599,3.344,2.2611,2.2129,2.7655,1.9556,0.6484,-2.8646
2.3944,3.2656,1.7047,3.5438,3.489,2.1705,2.4981,0.6738,0.842,1.9654,1.0913,1.3518,3.2515,4.0419,2.7535,3.9099,3.7167,2.0207,3.9725,4.4617,4.4222,4.0477,2.977,3.133,2.1792,2.1254,2.5982,1.8329,0.6497,-2.7533
2.2065,2.9993,1.6008,3.308,3.3302,2.1676,2.4072,0.7193,0.8043,1.8351,0.9631,1.1794,3.0445,3.8127,2.5728,3.616,3.3933,1.8534,3.6396,4.1694,4.1526,3.7706,2.8019,2.9216,2.0754,2.0122,2.4195,1.6972,0.6458,-2.6387
2.0442,2.7796,1.5334,3.1176,3.2195,2.2076,2.3501,0.7859,0.7889,1.7343,0.8615,1.0249,2.8737,3.6216,2.4195,3.3561,3.1035,1.7031,3.3561,3.9071,3.921,3.5218,2.6473,2.7275,1.9542,1.8807,2.2438,1.5583,0.6381,-2.5293
1.9142,2.6173,1.5049,2.9808,3.1583,2.2839,2.326,0.8682,0.7963,1.6678,0.793,0.8968,2.7458,3.4759,2.2995,3.1406,2.8615,1.5787,3.1322,3.6847,3.7366,3.3132,2.5203,2.5621,1.8213,1.7388,2.0812,1.4226,0.6274,-2.4301
1.8187,2.5151,1.5122,2.8976,3.1396,2.3842,2.3266,0.9578,0.8221,1.6326,0.7564,0.7969,2.6588,3.3735,2.2132,2.9727,2.6733,1.4859,2.9671,3.5053,3.5994,3.1481,2.4219,2.4294,1.6828,1.5939,1.9372,1.2936,0.614,-2.3433
1.7564,2.4681,1.5485,2.8619,3.151,2.4931,2.3393,1.0454,0.858,1.6199,0.745,0.7209,2.6033,3.3054,2.1561,2.8493,2.5371,1.4262,2.8514,3.3665,3.5026,3.0215,2.3479,2.3271,1.5454,1.4524,1.813,1.1722,0.5978,-2.2677
1.7221,2.4647,1.6042,2.8623,3.1768,2.5941,2.3496,1.122,0.8945,1.6174,0.7482,0.661,2.5659,3.2582,2.1194,2.7621,2.4436,1.3964,2.7696,3.2613,3.4342,2.9228,2.2899,2.2481,1.4153,1.3195,1.7065,1.0582,0.5785,-2.1998
1.7074,2.4878,1.6678,2.883,3.1996,2.6718,2.3443,1.1806,0.9229,1.6122,0.7554,0.6086,2.5315,3.2159,2.0916,2.6983,2.3767,1.3885,2.7028,3.1789,3.3794,2.837,2.2364,2.1816,1.2974,1.1984,1.6131,0.9514,0.5553,-2.1343
1.7004,2.5163,1.7263,2.9045,3.2022,2.7129,2.3137,1.2171,0.9376,1.5942,0.7581,0.557,2.4862,3.1624,2.0593,2.6414,2.3152,1.39,2.6305,3.1042,3.3208,2.7473,2.1745,2.116,1.1938,1.0909,1.5275,0.8523,0.5269,-2.0653
1.6869,2.527,1.767,2.9052,3.1678,2.7066,2.2522,1.2304,0.9367,1.5569,0.7518,0.5031,2.4184,3.0818,2.0093,2.5721,2.2357,1.3862,2.5333,3.0191,3.2401,2.6368,2.0923,2.0401,1.1044,0.9969,1.4441,0.7627,0.4911,-1.9867
1.6519,2.4975,1.7783,2.8632,3.0817,2.646,2.1586,1.2214,0.9216,1.4985,0.7362,0.4476,2.3205,2.9609,1.9297,2.471,2.1166,1.3629,2.3945,2.9038,3.1195,2.4916,1.9804,1.9452,1.0272,0.9159,1.3581,0.6856,0.4453,-1.8936
1.5822,2.4095,1.7514,2.7601,2.9331,2.5283,2.0352,1.1929,0.896,1.4211,0.7144,0.3939,2.1893,2.79,1.8126,2.3209,1.9424,1.3094,2.2034,2.7399,2.9442,2.3024,1.834,1.8263,0.9592,0.8465,1.2664,0.6239,0.387,-1.7828
1.4687,2.252,1.6819,2.5837,2.7169,2.3558,1.8867,1.1485,0.864,1.3289,0.6906,0.3463,2.0261,2.5653,1.655,2.1106,1.7071,1.2208,1.957,2.514,2.7051,2.0672,1.6538,1.6824,0.8974,0.7875,1.1674,0.5798,0.3149,-1.6536
1.3085,2.024,1.5706,2.3316,2.4361,2.1362,1.72,1.0918,0.8289,1.2267,0.6682,0.3077,1.8361,2.2897,1.4604,1.8374,1.4159,1.0991,1.6612,2.221,2.4011,1.792,1.446,1.5167,0.84,0.7377,1.0612,0.5531,0.2291,-1.5084
1.1065,1.735,1.4237,2.0127,2.1026,1.883,1.5431,1.0268,0.7924,1.119,0.6485,0.2787,1.6284,1.9737,1.2386,1.5079,1.0843,0.9522,1.3304,1.8663,2.0414,1.4903,1.2221,1.336,0.7861,0.6957,0.9496,0.5415,0.1313,-1.3521
0.8742,1.404,1.2525,1.6468,1.7371,1.6144,1.365,0.9569,0.7546,1.0093,0.6306,0.2567,1.4143,1.6347,1.0042,1.1383,0.7353,0.7925,0.9858,1.466,1.6439,1.181,0.9964,1.1493,0.7353,0.6601,0.8357,0.5399,0.0253,-1.192
0.6283,1.0563,1.0717,1.2617,1.3663,1.351,1.1955,0.8861,0.7146,0.9007,0.6113,0.2373,1.2064,1.2947,0.7739,0.7508,0.3942,0.634,0.6515,1.0443,1.2341,0.8848,0.7839,0.9668,0.6876,0.6295,0.7236,0.5422,-0.0837,-1.0362
0.3874,0.7187,0.8962,0.8885,1.0195,1.1134,1.0444,0.8184,0.6714,0.7963,0.5873,0.2156,1.0163,0.9768,0.5629,0.3706,0.0837,0.4901,0.3497,0.6293,0.8395,0.6204,0.5969,0.798,0.6427,0.6026,0.618,0.5424,-0.1899,-0.8921
0.1686,0.4155,0.7396,0.5563,0.7235,0.919,0.9203,0.7578,0.625,0.6998,0.5563,0.188,0.8533,0.7012,0.3816,0.0206,-0.1803,0.3707,0.0968,0.2478,0.486,0.4008,0.4427,0.651,0.6,0.5783,0.5234,0.5356,-0.2872,-0.7646
-0.0151,0.1641,0.6111,0.2877,0.4982,0.7791,0.8295,0.708,0.5767,0.6152,0.5182,0.1534,0.7231,0.4824,0.2342,-0.2817,-0.3907,0.281,-0.1002,-0.0794,0.1926,0.2312,0.3231,0.531,0.5583,0.556,0.4439,0.5197,-0.3708,-0.6556
-0.1567,-0.0262,0.5152,0.095,0.3538,0.6971,0.7744,0.6714,0.5287,0.5464,0.4753,0.1137,0.6273,0.327,0.1182,-0.5261,-0.5488,0.2209,-0.2437,-0.3397,-0.0302,0.1088,0.2344,0.44,0.5167,0.535,0.3819,0.4953,-0.4373,-0.5638
-0.2548,-0.1546,0.4513,-0.0201,0.2893,0.6683,0.7522,0.6484,0.4841,0.4955,0.4317,0.0732,0.5635,0.2335,0.0274,-0.7102,-0.6621,0.186,-0.3436,-0.5297,-0.1813,0.0251,0.169,0.3768,0.4741,0.5147,0.3383,0.4653,-0.4857,-0.4856
-0.3132,-0.2272,0.415,-0.0661,0.2934,0.681,0.7554,0.6361,0.4447,0.4622,0.392,0.0371,0.5262,0.1931,-0.0451,-0.8376,-0.7402,0.1689,-0.4138,-0.6536,-0.2677,-0.0318,0.1176,0.3371,0.4295,0.4946,0.3116,0.4343,-0.5171,-0.4177
-0.3388,-0.2547,0.3992,-0.0587,0.3468,0.7186,0.7717,0.6294,0.4112,0.4427,0.3596,0.0105,0.5077,0.1924,-0.1047,-0.9157,-0.7926,0.1612,-0.4682,-0.7207,-0.3017,-0.0744,0.0709,0.314,0.3824,0.4737,0.298,0.4071,-0.5339,-0.3576
-0.3401,-0.25,0.3958,-0.0177,0.4257,0.7627,0.7866,0.6213,0.382,0.4306,0.3352,-0.004,0.4991,0.2149,-0.1532,-0.9537,-0.8259,0.1556,-0.5172,-0.7428,-0.2984,-0.1129,0.021,0.2992,0.3321,0.4513,0.292,0.3869,-0.5395,-0.3048
-0.326,-0.2268,0.3966,0.0359,0.5054,0.7961,0.785,0.6047,0.3542,0.4177,0.317,-0.0066,0.4912,0.2437,-0.1894,-0.9608,-0.8439,0.1469,-0.5664,-0.7321,-0.2735,-0.155,-0.0378,0.2838,0.2781,0.4264,0.2865,0.3747,-0.5368,-0.2604
-0.3045,-0.1974,0.3947,0.0834,0.5639,0.8049,0.7544,0.574,0.3235,0.3964,0.3009,-0.0003,0.4749,0.2637,-0.211,-0.9461,-0.8483,0.1328,-0.6166,-0.7006,-0.2414,-0.2051,-0.1088,0.2595,0.2206,0.3981,0.2743,0.3688,-0.5277,-0.2253
-0.2829,-0.173,0.3841,0.1098,0.5838,0.7798,0.6864,0.5258,0.2864,0.3608,0.2819,0.0094,0.4422,0.2623,-0.2169,-0.9178,-0.8398,0.1133,-0.6656,-0.6592,-0.2146,-0.2649,-0.1928,0.2203,0.1604,0.3661,0.2491,0.3653,-0.5129,-0.1997
-0.2674,-0.1627,0.3604,0.1046,0.5542,0.7165,0.578,0.4596,0.2401,0.3077,0.2552,0.0165,0.3874,0.2311,-0.2085,-0.8843,-0.82,0.0896,-0.71,-0.6188,-0.2034,-0.334,-0.2884,0.1627,0.0991,0.3307,0.2064,0.3589,-0.4923,-0.1822
-0.2634,-0.1739,0.3204,0.062,0.4707,0.6148,0.432,0.3776,0.184,0.2373,0.2179,0.0154,0.3071,0.1657,-0.1909,-0.8542,-0.7923,0.0622,-0.7477,-0.5899,-0.2161,-0.4109,-0.3923,0.0867,0.0394,0.2929,0.1448,0.345,-0.4653,-0.1697
-0.2759,-0.2124,0.2615,-0.0204,0.3345,0.4781,0.2565,0.2841,0.1196,0.1529,0.1692,0.0025,0.2016,0.0662,-0.173,-0.8367,-0.7624,0.0297,-0.7794,-0.5829,-0.2591,-0.4932,-0.4998,-0.0042,-0.0152,0.2545,0.0663,0.3201,-0.4312,-0.1583
-0.3093,-0.2826,0.182,-0.1419,0.1516,0.3121,0.0637,0.1849,0.0506,0.0599,0.1106,-0.0234,0.0752,-0.0633,-0.1658,-0.8414,-0.7383,-0.0115,-0.809,-0.6075,-0.3363,-0.5786,-0.6052,-0.1039,-0.0612,0.2177,-0.024,0.2836,-0.3903,-0.144
-0.3674,-0.3869,0.0809,-0.2998,-0.0688,0.1241,-0.1318,0.0869,-0.0176,-0.0343,0.0459,-0.0606,-0.0643,-0.2155,-0.1809,-0.8774,-0.7297,-0.067,-0.8428,-0.6712,-0.4491,-0.665,-0.7028,-0.2046,-0.0957,0.1851,-0.1183,0.2374,-0.344,-0.1234
-0.4521,-0.5253,-0.0413,-0.4895,-0.3142,-0.0771,-0.314,-0.0031,-0.0784,-0.122,-0.0196,-0.1048,-0.2059,-0.3803,-0.228,-0.9515,-0.7465,-0.1428,-0.8881,-0.7782,-0.5953,-0.751,-0.7878,-0.2979,-0.1172,0.1588,-0.2079,0.1861,-0.2949,-0.0945
-0.5631,-0.695,-0.1819,-0.7034,-0.5698,-0.2811,-0.4676,-0.078,-0.1246,-0.1953,-0.0794,-0.1498,-0.337,-0.5464,-0.3123,-1.0669,-0.7973,-0.2438,-0.9516,-0.9281,-0.7687,-0.8357,-0.8571,-0.3765,-0.1265,0.1404,-0.2844,0.136,-0.2468,-0.0572
-0.6969,-0.8892,-0.3362,-0.9309,-0.8184,-0.4764,-0.5791,-0.1311,-0.1492,-0.2472,-0.1266,-0.1883,-0.4448,-0.7015,-0.4331,-1.2216,-0.8872,-0.3717,-1.0378,-1.1143,-0.9595,-0.9189,-0.9098,-0.4355,-0.1265,0.1298,-0.3409,0.094,-0.2041,-0.0133
-0.8467,-1.0976,-0.4974,-1.1586,-1.0415,-0.6502,-0.638,-0.1567,-0.1459,-0.2722,-0.1549,-0.2124,-0.5186,-0.8343,-0.5837,-1.4086,-1.0173,-0.5244,-1.1486,-1.3255,-1.1546,-1.0004,-0.9473,-0.4726,-0.1218,0.1257,-0.3735,0.0664,-0.1709,0.0331
-1.0031,-1.3071,-0.6568,-1.3711,-1.2211,-0.7896,-0.638,-0.1502,-0.1108,-0.2664,-0.159,-0.2156,-0.5517,-0.9351,-0.7515,-1.6159,-1.1833,-0.6945,-1.2825,-1.5465,-1.3398,-1.0799,-0.9727,-0.4889,-0.117,0.1257,-0.3811,0.0584,-0.1505,0.0767
-1.1553,-1.5033,-0.805,-1.553,-1.3422,-0.8837,-0.5786,-0.11,-0.0432,-0.2287,-0.1362,-0.1931,-0.5428,-0.9979,-0.9205,-1.8289,-1.376,-0.8701,-1.4341,-1.7606,-1.5015,-1.1564,-0.99,-0.4875,-0.1162,0.1276,-0.3656,0.0729,-0.1449,0.1117
-1.2921,-1.6721,-0.9326,-1.6909,-1.3953,-0.9253,-0.4661,-0.0387,0.0531,-0.1608,-0.0874,-0.1434,-0.4966,-1.0208,-1.0741,-2.0321,-1.5819,-1.0357,-1.5938,-1.952,-1.629,-1.2276,-1.0025,-0.4731,-0.1207,0.1294,-0.331,0.11,-0.1542,0.1334
-1.4036,-1.8017,-1.0312,-1.7758,-1.3793,-0.9132,-0.3141,0.0564,0.1692,-0.0684,-0.0175,-0.0693,-0.423,-1.0067,-1.1984,-2.211,-1.7847,-1.1743,-1.7484,-2.108,-1.7155,-1.2897,-1.0117,-0.4505,-0.1293,0.1308,-0.2832,0.1669,-0.177,0.14
-1.482,-1.8839,-1.0946,-1.8042,-1.3017,-0.8528,-0.1428,0.163,0.2917,0.0392,0.065,0.0228,-0.3356,-0.9627,-1.2847,-2.353,-1.9666,-1.2709,-1.8822,-2.2191,-1.7587,-1.3382,-1.017,-0.4239,-0.1388,0.1331,-0.2287,0.238,-0.2102,0.1332
-1.5222,-1.9151,-1.1198,-1.778,-1.1781,-0.7562,0.0234,0.2648,0.4043,0.1492,0.1493,0.1233,-0.2496,-0.8989,-1.3306,-2.4487,-2.1109,-1.3158,-1.9798,-2.2798,-1.7602,-1.3677,-1.0167,-0.3967,-0.1446,0.1385,-0.1738,0.3158,-0.2493,0.1185
-1.5229,-1.8961,-1.1082,-1.7046,-1.0299,-0.6407,0.1595,0.3442,0.4901,0.2474,0.2241,0.2208,-0.1787,-0.8262,-1.3401,-2.4921,-2.2037,-1.3076,-2.0288,-2.2881,-1.724,-1.3739,-1.0088,-0.3708,-0.1427,0.1496,-0.124,0.3919,-0.2892,0.1032
-1.4858,-1.8322,-1.0651,-1.5948,-0.88,-0.5257,0.2441,0.3855,0.5356,0.3203,0.2805,0.3049,-0.1332,-0.7549,-1.3207,-2.4806,-2.2357,-1.2532,-2.0225,-2.2453,-1.6561,-1.3542,-0.9931,-0.3476,-0.1315,0.1681,-0.0836,0.459,-0.3239,0.0947
-1.416,-1.7321,-0.9992,-1.4613,-0.7496,-0.4296,0.2634,0.3781,0.5327,0.3574,0.3129,0.3674,-0.1176,-0.6931,-1.2813,-2.4151,-2.204,-1.1664,-1.9609,-2.1556,-1.5631,-1.3092,-0.9716,-0.328,-0.1119,0.1941,-0.0552,0.5113,-0.3477,0.0974
-1.321,-1.6062,-0.921,-1.317,-0.654,-0.3666,0.2138,0.3186,0.4808,0.3533,0.3205,0.4035,-0.131,-0.6458,-1.2292,-2.3008,-2.1124,-1.0651,-1.8508,-2.0267,-1.4524,-1.2428,-0.9487,-0.3127,-0.0881,0.2254,-0.0394,0.5458,-0.3557,0.1119
-1.2098,-1.466,-0.8412,-1.1737,-0.6015,-0.3445,0.1028,0.2129,0.3876,0.308,0.3066,0.4126,-0.1676,-0.615,-1.1697,-2.1467,-1.9713,-0.9668,-1.7047,-1.8697,-1.3321,-1.1622,-0.9302,-0.3026,-0.0663,0.2577,-0.0357,0.5619,-0.345,0.1347
-1.0928,-1.3233,-0.7691,-1.0416,-0.5925,-0.364,-0.0526,0.0747,0.2673,0.2276,0.2774,0.3976,-0.2184,-0.6007,-1.1057,-1.9659,-1.7971,-0.8868,-1.5388,-1.6988,-1.2111,-1.0772,-0.9215,-0.2984,-0.0533,0.2854,-0.0425,0.5614,-0.3151,0.1595
-0.9804,-1.1896,-0.712,-0.9291,-0.621,-0.4191,-0.2291,-0.0765,0.1382,0.1225,0.2405,0.3638,-0.2733,-0.6012,-1.0396,-1.7753,-1.61,-0.8358,-1.3702,-1.5302,-1.099,-0.9986,-0.9269,-0.3006,-0.0549,0.3029,-0.0573,0.547,-0.2684,0.1795
-0.8827,-1.0755,-0.6747,-0.8428,-0.676,-0.4989,-0.4007,-0.2192,0.0197,0.0074,0.2032,0.3179,-0.3231,-0.6138,-0.9745,-1.5933,-1.4317,-0.8195,-1.2157,-1.3808,-1.0055,-0.9365,-0.9479,-0.3087,-0.0744,0.3062,-0.0775,0.5226,-0.2103,0.1895
-0.8083,-0.9899,-0.6591,-0.7871,-0.7442,-0.5898,-0.543,-0.3335,-0.0715,-0.1014,0.1713,0.2672,-0.3602,-0.6344,-0.9145,-1.4381,-1.2826,-0.8385,-1.0889,-1.2653,-0.9384,-0.8984,-0.9833,-0.3206,-0.1106,0.294,-0.0994,0.4923,-0.1483,0.1868
-0.7627,-0.9384,-0.6646,-0.7634,-0.8114,-0.6773,-0.6364,-0.4048,-0.1237,-0.1881,0.1487,0.2184,-0.3792,-0.6582,-0.8638,-1.3242,-1.178,-0.888,-0.9991,-1.1935,-0.9016,-0.8877,-1.0287,-0.3321,-0.1582,0.2694,-0.119,0.4609,-0.0909,0.1719
-0.7477,-0.9224,-0.6879,-0.7695,-0.8648,-0.7486,-0.669,-0.4263,-0.1325,-0.2397,0.1371,0.177,-0.3767,-0.6786,-0.8258,-1.26,-1.1262,-0.9587,-0.9499,-1.1685,-0.8947,-0.9024,-1.077,-0.3377,-0.2073,0.239,-0.1312,0.4331,-0.0461,0.1473
-0.7608,-0.9387,-0.7236,-0.7997,-0.8939,-0.794,-0.6375,-0.3997,-0.1007,-0.2491,0.1357,0.147,-0.3518,-0.6888,-0.8008,-1.2463,-1.127,-1.0373,-0.9387,-1.1857,-0.9115,-0.9355,-1.1194,-0.3313,-0.2462,0.212,-0.1307,0.4134,-0.0206,0.1162
-0.7954,-0.9794,-0.7647,-0.8455,-0.8928,-0.8087,-0.5475,-0.3347,-0.0378,-0.2159,0.1416,0.1296,-0.3057,-0.6823,-0.7859,-1.2759,-1.1715,-1.1093,-0.9566,-1.2336,-0.9417,-0.9759,-1.1467,-0.3078,-0.2627,0.1982,-0.1131,0.4058,-0.0181,0.0815
-0.8416,-1.0337,-0.8039,-0.8967,-0.8601,-0.7924,-0.4127,-0.2466,0.0416,-0.1473,0.1505,0.1241,-0.2424,-0.6544,-0.7746,-1.3347,-1.2436,-1.1608,-0.9898,-1.2954,-0.9725,-1.0104,-1.151,-0.2649,-0.2481,0.2053,-0.0755,0.4124,-0.0386,0.0447
-0.8885,-1.0897,-0.834,-0.9433,-0.7997,-0.7496,-0.253,-0.1532,0.1214,-0.0564,0.1571,0.1272,-0.1682,-0.6038,-0.759,-1.4047,-1.3229,-1.1814,-1.0222,-1.353,-0.9917,-1.0264,-1.1272,-0.2041,-0.1984,0.2365,-0.0184,0.4335,-0.0784,0.0062
-0.925,-1.1359,-0.8495,-0.9767,-0.7194,-0.6879,-0.0911,-0.0713,0.1859,0.0396,0.1564,0.1346,-0.0913,-0.5334,-0.7316,-1.4671,-1.3877,-1.1656,-1.038,-1.3897,-0.9898,-1.0145,-1.0741,-0.131,-0.1162,0.2898,0.054,0.4665,-0.1303,-0.0344
-0.9421,-1.1627,-0.846,-0.9906,-0.6299,-0.6163,0.0509,-0.013,0.2235,0.1227,0.1448,0.1415,-0.021,-0.4499,-0.6874,-1.5052,-1.4192,-1.1135,-1.0251,-1.3936,-0.9624,-0.9706,-0.9947,-0.0542,-0.0109,0.3572,0.1337,0.5065,-0.1854,-0.0775
-0.9336,-1.1629,-0.821,-0.9812,-0.5416,-0.5429,0.1549,0.0159,0.2287,0.1775,0.1209,0.1436,0.0341,-0.3628,-0.6242,-1.5073,-1.4045,-1.0299,-0.9774,-1.3591,-0.9103,-0.8966,-0.896,0.0161,0.1036,0.427,0.2106,0.547,-0.2346,-0.1232
-0.8965,-1.1321,-0.7729,-0.9466,-0.4629,-0.4737,0.2101,0.0167,0.2022,0.1944,0.0858,0.1384,0.0678,-0.2818,-0.5434,-1.4678,-1.3389,-0.9228,-0.8952,-1.2871,-0.8386,-0.8003,-0.7881,0.0703,0.2108,0.4857,0.274,0.5803,-0.2704,-0.171
-0.8316,-1.0682,-0.7016,-0.8864,-0.3985,-0.4115,0.2144,-0.0036,0.1511,0.1712,0.0432,0.1245,0.0774,-0.2152,-0.4485,-1.3873,-1.2264,-0.8023,-0.7852,-1.1843,-0.7548,-0.6933,-0.6824,0.1013,0.2954,0.521,0.3151,0.5995,-0.2881,-0.22
-0.7431,-0.9722,-0.609,-0.8023,-0.3485,-0.3562,0.1741,-0.0345,0.0865,0.1129,-0.0019,0.1019,0.0638,-0.1675,-0.3446,-1.2726,-1.0791,-0.6796,-0.6582,-1.0606,-0.667,-0.5889,-0.5903,0.1056,0.346,0.5243,0.3282,0.5991,-0.287,-0.2686
-0.6383,-0.8483,-0.499,-0.698,-0.3104,-0.3061,0.1018,-0.0648,0.0211,0.0304,-0.0443,0.0715,0.0314,-0.1396,-0.2376,-1.1343,-0.9144,-0.5662,-0.5272,-0.9279,-0.5823,-0.4997,-0.5215,0.0837,0.3568,0.4926,0.3118,0.5761,-0.2692,-0.3152
-0.5265,-0.7043,-0.3788,-0.5802,-0.2796,-0.2592,0.0139,-0.0849,-0.0331,-0.062,-0.0791,0.0342,-0.0133,-0.1289,-0.1339,-0.9856,-0.7514,-0.4729,-0.4052,-0.7976,-0.5061,-0.435,-0.4826,0.039,0.3284,0.4281,0.2684,0.5297,-0.2397,-0.3575
-0.4181,-0.5512,-0.258,-0.4577,-0.2521,-0.214,-0.0732,-0.0888,-0.0677,-0.1499,-0.1035,-0.0087,-0.0635,-0.1308,-0.0398,-0.84,-0.6074,-0.4086,-0.3031,-0.6793,-0.4419,-0.3998,-0.476,-0.0228,0.2663,0.3376,0.2035,0.462,-0.2044,-0.3924
-0.3223,-0.4021,-0.1471,-0.3407,-0.2251,-0.1703,-0.1459,-0.0739,-0.0782,-0.2211,-0.1163,-0.0565,-0.1133,-0.1407,0.0383,-0.7086,-0.495,-0.3778,-0.2278,-0.5796,-0.3919,-0.3941,-0.4991,-0.0949,0.1794,0.231,0.1242,0.3766,-0.1695,-0.4161
-0.2459,-0.2693,-0.0558,-0.239,-0.1981,-0.1294,-0.1955,-0.0419,-0.0654,-0.2677,-0.1187,-0.1078,-0.1583,-0.1549,0.0946,-0.5991,-0.4193,-0.3792,-0.1819,-0.5013,-0.3563,-0.413,-0.5442,-0.1705,0.0778,0.1192,0.0386,0.2789,-0.1399,-0.4243
-0.1915,-0.1629,0.0095,-0.1597,-0.1719,-0.093,-0.2191,0.0031,-0.0339,-0.2864,-0.113,-0.1615,-0.1966,-0.1714,0.125,-0.5141,-0.3784,-0.4054,-0.163,-0.4435,-0.3345,-0.4479,-0.5992,-0.2425,-0.0281,0.0129,-0.0454,0.1749,-0.119,-0.413
-0.1576,-0.0877,0.0472,-0.1058,-0.1486,-0.0629,-0.2186,0.0549,0.0087,-0.2788,-0.1029,-0.2157,-0.2273,-0.1889,0.1284,-0.4515,-0.3641,-0.4437,-0.1647,-0.4024,-0.3241,-0.4874,-0.6494,-0.3041,-0.1284,-0.0791,-0.1207,0.0712,-0.1084,-0.3799
-0.1392,-0.0433,0.0606,-0.0761,-0.13,-0.0402,-0.1998,0.1061,0.0536,-0.25,-0.0919,-0.2682,-0.2507,-0.2064,0.1078,-0.4056,-0.3643,-0.4788,-0.178,-0.3717,-0.3213,-0.5198,-0.6803,-0.3491,-0.2139,-0.1499,-0.1809,-0.0258,-0.1084,-0.326
-0.1294,-0.0244,0.0565,-0.0655,-0.1172,-0.0253,-0.1699,0.1501,0.0929,-0.2069,-0.0834,-0.3162,-0.2666,-0.2226,0.0704,-0.3689,-0.3665,-0.496,-0.194,-0.345,-0.3219,-0.5343,-0.68,-0.3723,-0.2758,-0.1953,-0.2209,-0.1104,-0.1182,-0.2565
-0.1215,-0.0231,0.0431,-0.0671,-0.1106,-0.0181,-0.1358,0.1812,0.1209,-0.1569,-0.0799,-0.357,-0.2746,-0.2353,0.0274,-0.3345,-0.36,-0.4844,-0.2053,-0.3164,-0.321,-0.5235,-0.6421,-0.3701,-0.3068,-0.2137,-0.2375,-0.1778,-0.136,-0.1807
-0.1108,-0.0312,0.0274,-0.0742,-0.1095,-0.0185,-0.1033,0.1962,0.1349,-0.1066,-0.0827,-0.3882,-0.2732,-0.2418,-0.0083,-0.2978,-0.3387,-0.4388,-0.2082,-0.2826,-0.3147,-0.484,-0.5665,-0.3417,-0.3014,-0.2058,-0.2295,-0.2249,-0.1595,-0.1108
-0.0954,-0.0424,0.0138,-0.0823,-0.1129,-0.0258,-0.0756,0.1945,0.1357,-0.0607,-0.0921,-0.4076,-0.261,-0.2393,-0.0243,-0.2574,-0.3015,-0.3607,-0.2021,-0.2426,-0.3005,-0.4175,-0.4594,-0.2891,-0.2575,-0.1744,-0.1982,-0.2505,-0.1859,-0.0589
-0.076,-0.0532,0.004,-0.0892,-0.1189,-0.0394,-0.0538,0.1783,0.1261,-0.0223,-0.1074,-0.4143,-0.2367,-0.2254,-0.0112,-0.2144,-0.2514,-0.2577,-0.1891,-0.198,-0.2769,-0.3298,-0.3316,-0.2174,-0.1776,-0.1244,-0.1473,-0.255,-0.2119,-0.0353
-0.0549,-0.0624,-0.0014,-0.0945,-0.125,-0.0569,-0.0373,0.1522,0.1105,0.0072,-0.1278,-0.4089,-0.2002,-0.1988,0.0363,-0.1711,-0.1938,-0.1405,-0.1719,-0.1512,-0.2439,-0.2298,-0.1953,-0.1339,-0.0686,-0.0622,-0.0829,-0.2413,-0.2341,-0.0457
-0.034,-0.0696,-0.0016,-0.0979,-0.1272,-0.0745,-0.0242,0.1222,0.0929,0.0277,-0.1528,-0.3939,-0.1527,-0.1591,0.118,-0.1289,-0.1334,-0.021,-0.152,-0.1041,-0.2017,-0.1268,-0.0612,-0.0473,0.0579,0.0043,-0.0126,-0.2138,-0.2494,-0.0901
-0.013,-0.073,0.0057,-0.0975,-0.1207,-0.086,-0.0126,0.0943,0.0759,0.0394,-0.1825,-0.3736,-0.0969,-0.1067,0.2288,-0.0867,-0.0728,0.091,-0.1282,-0.056,-0.1502,-0.0286,0.0636,0.034,0.1875,0.0667,0.0558,-0.1789,-0.2558,-0.1624
0.0113,-0.0684,0.0253,-0.0887,-0.0993,-0.0839,-0.0005,0.0736,0.0603,0.0427,-0.2178,-0.3537,-0.036,-0.0424,0.3599,-0.0395,-0.0102,0.1895,-0.0959,-0.0032,-0.0878,0.0604,0.1767,0.1031,0.3054,0.1167,0.1153,-0.1436,-0.2523,-0.2516
0.0451,-0.0484,0.0632,-0.0638,-0.0565,-0.0603,0.0133,0.0631,0.0447,0.0379,-0.2598,-0.3404,0.0266,0.0328,0.5004,0.0209,0.06,0.2732,-0.0475,0.0615,-0.0118,0.1405,0.2798,0.1559,0.3995,0.1485,0.1609,-0.1144,-0.2393,-0.3442
0.0959,-0.0043,0.1249,-0.0145,0.013,-0.0088,0.0298,0.0637,0.0273,0.0253,-0.3087,-0.3388,0.0883,0.118,0.6405,0.1047,0.1462,0.3458,0.026,0.147,0.0815,0.2155,0.3767,0.1916,0.4621,0.1588,0.1904,-0.0968,-0.2181,-0.4277
0.1706,0.0727,0.2142,0.0671,0.112,0.0734,0.0493,0.0743,0.0061,0.0061,-0.3629,-0.3521,0.1479,0.2117,0.7727,0.2211,0.2566,0.4142,0.1321,0.262,0.195,0.2915,0.4709,0.2129,0.4914,0.1482,0.2044,-0.0933,-0.1908,-0.4932
0.273,0.1882,0.3305,0.1851,0.2396,0.185,0.0727,0.0929,-0.0189,-0.0172,-0.4189,-0.3803,0.2055,0.3125,0.8932,0.3753,0.3962,0.4864,0.2742,0.4112,0.33,0.3746,0.5639,0.2246,0.4912,0.1209,0.2059,-0.104,-0.1596,-0.537
0.4019,0.3427,0.469,0.3382,0.3909,0.3198,0.1003,0.1168,-0.0459,-0.0412,-0.4709,-0.4205,0.2617,0.4177,1.0014,0.5657,0.564,0.5688,0.4489,0.5936,0.4841,0.468,0.6542,0.2323,0.4691,0.083,0.1992,-0.1264,-0.127,-0.5612
0.5503,0.5302,0.6205,0.519,0.5564,0.4677,0.1328,0.1439,-0.0709,-0.0619,-0.5124,-0.4675,0.3172,0.5233,1.0984,0.7827,0.7521,0.6641,0.6455,0.8005,0.6508,0.5712,0.7378,0.2412,0.4343,0.0414,0.1892,-0.1562,-0.0955,-0.5715
0.7064,0.7384,0.7726,0.7145,0.7238,0.6159,0.17,0.1722,-0.0895,-0.076,-0.537,-0.5147,0.3715,0.6239,1.1854,1.0092,0.9468,0.7704,0.8472,1.0162,0.8196,0.6792,0.8098,0.2544,0.3955,0.002,0.1797,-0.1889,-0.0676,-0.5749
0.8554,0.9502,0.9123,0.9075,0.8792,0.7513,0.211,0.2001,-0.0981,-0.0815,-0.5407,-0.5558,0.4228,0.7129,1.2621,1.2234,1.1308,0.8817,1.0343,1.2205,0.9773,0.7844,0.8664,0.2722,0.3591,-0.0315,0.1731,-0.2205,-0.0456,-0.5774
0.9825,1.1463,1.0288,1.0803,1.009,0.8624,0.2542,0.2261,-0.0947,-0.0781,-0.5228,-0.5857,0.4683,0.7836,1.3264,1.4037,1.2877,0.9892,1.1885,1.3927,1.1103,0.8782,0.9065,0.293,0.3286,-0.0581,0.1699,-0.2482,-0.0317,-0.582
1.0756,1.3092,1.115,1.2169,1.1022,0.9412,0.2966,0.2485,-0.0801,-0.0669,-0.4861,-0.6015,0.5048,0.8304,1.3752,1.5321,1.405,1.0835,1.2973,1.5154,1.207,0.9535,0.9327,0.3138,0.3043,-0.0793,0.169,-0.271,-0.0276,-0.5888
1.128,1.4255,1.1692,1.3058,1.1518,0.9846,0.3349,0.2659,-0.0572,-0.0503,-0.437,-0.6028,0.5294,0.8499,1.4053,1.5988,1.4761,1.1569,1.3562,1.5782,1.2599,1.0064,0.9505,0.3314,0.2846,-0.0975,0.1688,-0.2888,-0.0338,-0.5956
1.1388,1.4885,1.1947,1.3417,1.1557,0.9937,0.3658,0.2767,-0.0303,-0.0311,-0.3837,-0.591,0.5407,0.8416,1.4153,1.6028,1.501,1.2046,1.369,1.5791,1.267,1.0366,0.9668,0.3436,0.2673,-0.116,0.1675,-0.3028,-0.0496,-0.5998
1.1124,1.4987,1.1982,1.3262,1.1168,0.9738,0.3862,0.2803,-0.0041,-0.012,-0.3349,-0.5692,0.5385,0.8081,1.406,1.5518,1.4847,1.2252,1.3458,1.5244,1.2313,1.0465,0.988,0.3495,0.2502,-0.1371,0.1637,-0.3148,-0.0731,-0.5994
1.0578,1.4631,1.1879,1.2667,1.0429,0.9323,0.3946,0.2771,0.0182,0.0045,-0.2976,-0.5409,0.5242,0.7548,1.3805,1.4598,1.4353,1.2211,1.2992,1.4269,1.1605,1.0403,1.0177,0.3493,0.2326,-0.162,0.1569,-0.3264,-0.1009,-0.5943
0.9858,1.3939,1.1711,1.1756,0.9454,0.8781,0.3917,0.269,0.0355,0.0175,-0.2755,-0.5089,0.5007,0.6888,1.3437,1.344,1.3625,1.1973,1.241,1.303,1.0655,1.0221,1.056,0.3447,0.215,-0.1902,0.1472,-0.3386,-0.1292,-0.5859
0.9079,1.3058,1.1533,1.0683,0.8385,0.82,0.3807,0.2591,0.0492,0.0276,-0.2679,-0.4747,0.4719,0.6187,1.3011,1.2217,1.2759,1.1604,1.1801,1.1699,0.9586,0.9956,1.0999,0.338,0.1996,-0.2193,0.1362,-0.3509,-0.1541,-0.577
0.8341,1.2145,1.1377,0.9613,0.7375,0.7664,0.3671,0.2515,0.0632,0.0379,-0.2698,-0.4375,0.4433,0.5534,1.2574,1.108,1.1845,1.1172,1.1222,1.0437,0.8526,0.964,1.1444,0.3324,0.1894,-0.2451,0.1266,-0.3607,-0.1726,-0.5709
0.7724,1.1341,1.1252,0.87,0.6573,0.7248,0.3582,0.2501,0.0822,0.0534,-0.273,-0.3947,0.4213,0.502,1.2167,1.0137,1.0959,1.0735,1.0697,0.9367,0.7591,0.9296,1.1848,0.3318,0.1882,-0.2623,0.1227,-0.3635,-0.1835,-0.5708
0.7278,1.076,1.1157,0.8071,0.6102,0.7014,0.3619,0.2578,0.1107,0.0802,-0.2686,-0.3425,0.4124,0.4725,1.1816,0.9451,1.0158,1.0334,1.0239,0.8572,0.6878,0.8954,1.2178,0.3405,0.1993,-0.2651,0.1292,-0.3535,-0.1878,-0.5793
0.7028,1.0472,1.1089,0.7813,0.6046,0.7006,0.3848,0.2758,0.1509,0.1232,-0.2494,-0.2775,0.4222,0.4707,1.1541,0.9037,0.9482,0.9994,0.9856,0.8092,0.6453,0.8642,1.2427,0.3622,0.2252,-0.2481,0.1508,-0.3252,-0.188,-0.5978
0.6975,1.0506,1.1048,0.7959,0.6434,0.724,0.4302,0.3029,0.202,0.1841,-0.212,-0.1981,0.4538,0.4998,1.1356,0.8878,0.8954,0.9725,0.9564,0.7928,0.635,0.8397,1.261,0.3998,0.2672,-0.2078,0.1907,-0.2746,-0.1884,-0.6265
0.711,1.0848,1.1045,0.8495,0.7237,0.7708,0.4975,0.3359,0.2596,0.2601,-0.1585,-0.1058,0.5071,0.559,1.128,0.8941,0.8591,0.9532,0.9386,0.8056,0.657,0.8256,1.2762,0.4541,0.3251,-0.1432,0.2495,-0.2009,-0.1927,-0.6648
0.7414,1.1461,1.1097,0.9366,0.8377,0.837,0.5812,0.3693,0.3169,0.3436,-0.096,-0.0055,0.5783,0.6444,1.133,0.9198,0.8412,0.9419,0.9352,0.8444,0.7087,0.8258,1.2922,0.5237,0.3971,-0.0564,0.3252,-0.1071,-0.2042,-0.7111
0.787,1.229,1.1229,1.0492,0.9742,0.9168,0.6721,0.3973,0.3661,0.4239,-0.0348,0.0952,0.6609,0.749,1.1528,0.9632,0.8439,0.939,0.95,0.9061,0.7857,0.8435,1.3121,0.6053,0.4804,0.0478,0.4127,0.0005,-0.2235,-0.7637
0.8464,1.3279,1.1463,1.1784,1.1205,1.0035,0.7587,0.414,0.3999,0.4899,0.0141,0.1873,0.7466,0.8644,1.1895,1.0244,0.8697,0.9451,0.986,0.9884,0.8827,0.8809,1.3374,0.6936,0.571,0.162,0.505,0.1132,-0.2491,-0.8209
0.918,1.4376,1.181,1.3156,1.2641,1.0903,0.8295,0.4151,0.4132,0.5327,0.0422,0.2624,0.8268,0.9818,1.2444,1.1042,0.9207,0.9603,1.0447,1.0893,0.9941,0.9386,1.3674,0.7827,0.664,0.278,0.5942,0.2214,-0.2774,-0.8816
0.9996,1.5539,1.2264,1.4531,1.3939,1.1707,0.8748,0.3982,0.4037,0.5475,0.045,0.3146,0.8944,1.0929,1.3171,1.2029,0.9975,0.9848,1.1249,1.2066,1.1143,1.0148,1.3996,0.8664,0.7543,0.3874,0.6733,0.3163,-0.3037,-0.9441
1.0881,1.6728,1.2803,1.5847,1.5012,1.2389,0.8887,0.3629,0.3725,0.5344,0.0239,0.3417,0.9445,1.1914,1.405,1.319,1.0985,1.0185,1.2225,1.3368,1.238,1.1058,1.431,0.9399,0.8365,0.4834,0.7367,0.3916,-0.3234,-1.0064
1.1795,1.7904,1.3383,1.7052,1.5796,1.2899,0.87,0.3111,0.3237,0.4977,-0.0146,0.3461,0.9755,1.2731,1.5034,1.4483,1.2195,1.0609,1.3304,1.4743,1.3599,1.206,1.4587,0.9995,0.9067,0.5616,0.782,0.4448,-0.3334,-1.0657
1.2687,1.9022,1.3947,1.8099,1.6259,1.3197,0.8227,0.2469,0.2639,0.4453,-0.0606,0.3337,0.989,1.3359,1.605,1.5837,1.3541,1.1111,1.4397,1.612,1.4748,1.3092,1.4813,1.0439,0.9621,0.6201,0.8097,0.4767,-0.3327,-1.1188
1.3502,2.0028,1.4435,1.8948,1.6396,1.3257,0.7553,0.176,0.2014,0.3864,-0.1026,0.3132,0.9893,1.3803,1.7022,1.7168,1.494,1.1666,1.5412,1.7419,1.5776,1.4085,1.4984,1.0734,1.0019,0.6597,0.8233,0.4914,-0.3221,-1.1629
1.4188,2.0867,1.4786,1.9567,1.6234,1.3071,0.6801,0.1057,0.1448,0.3313,-0.1301,0.2937,0.9829,1.4086,1.7874,1.8387,1.6304,1.2243,1.627,1.8563,1.6644,1.498,1.5107,1.09,1.0272,0.6829,0.8282,0.4946,-0.3037,-1.1965
1.4705,2.1486,1.4958,1.9934,1.5832,1.2656,0.6114,0.0433,0.1023,0.2891,-0.1356,0.2832,0.9772,1.4249,1.8554,1.9423,1.7553,1.2805,1.6924,1.9499,1.7325,1.5732,1.5191,1.097,1.0403,0.6931,0.8304,0.4928,-0.2804,-1.2199
1.5034,2.1856,1.4931,2.0049,1.5283,1.2057,0.5635,-0.0037,0.0805,0.2681,-0.1154,0.2869,0.9801,1.4354,1.9037,2.0235,1.863,1.3323,1.7363,2.0209,1.7822,1.6319,1.5248,1.0987,1.0449,0.6943,0.8358,0.4913,-0.2545,-1.236
1.5183,2.1979,1.4714,1.9948,1.4707,1.1355,0.549,-0.0289,0.0837,0.2743,-0.07,0.3072,0.9983,1.4474,1.9333,2.0826,1.9507,1.3784,1.7618,2.0724,1.8171,1.6754,1.5284,1.1003,1.0456,0.6905,0.8495,0.4941,-0.2273,-1.2493
1.519,2.1901,1.4347,1.9698,1.4241,1.0661,0.5768,-0.0279,0.1134,0.3107,-0.0036,0.3431,1.037,1.4687,1.9486,2.1242,2.0197,1.4192,1.7759,2.1115,1.8444,1.708,1.5311,1.1072,1.0476,0.6859,0.8752,0.5036,-0.1994,-1.2653
1.5118,2.1707,1.3899,1.9405,1.4024,1.0108,0.6504,0.0015,0.1678,0.3769,0.0765,0.3913,1.0986,1.5072,1.9562,2.1567,2.0746,1.4559,1.7882,2.1489,1.874,1.7368,1.5345,1.1248,1.0558,0.6846,0.9147,0.5202,-0.1706,-1.2897
1.5051,2.1517,1.3457,1.9196,1.4177,0.9828,0.7671,0.0579,0.242,0.4679,0.1617,0.4464,1.1824,1.5686,1.9647,2.1913,2.1227,1.4906,1.8089,2.1964,1.9168,1.7707,1.5408,1.1571,1.0745,0.6902,0.9683,0.5429,-0.1405,-1.3269
1.5078,2.1464,1.312,1.9204,1.4782,0.9932,0.9181,0.1368,0.3282,0.5747,0.242,0.5018,1.284,1.6558,1.9834,2.2394,2.1729,1.5252,1.8472,2.2654,1.9824,1.8176,1.5525,1.2061,1.1057,0.7051,1.0335,0.5689,-0.109,-1.3799
1.5281,2.1677,1.2983,1.9543,1.5863,1.0484,1.089,0.2304,0.4165,0.6855,0.3081,0.5501,1.3959,1.7677,2.0214,2.3115,2.2341,1.5618,1.909,2.3639,2.0778,1.8834,1.5719,1.2708,1.1483,0.7295,1.1056,0.594,-0.0761,-1.4494
1.5724,2.2253,1.3126,2.0292,1.7385,1.149,1.2623,0.3291,0.4963,0.7873,0.3518,0.5839,1.5087,1.8993,2.086,2.4149,2.3139,1.6025,1.9962,2.4963,2.205,1.97,1.6003,1.3472,1.1984,0.7614,1.1775,0.6127,-0.0424,-1.5342
1.6442,2.3243,1.3598,2.1476,1.925,1.2888,1.4198,0.4225,0.5582,0.8686,0.368,0.597,1.6133,2.0425,2.1823,2.5533,2.4176,1.6493,2.1068,2.6622,2.3616,2.0754,1.6371,1.4289,1.2494,0.7965,1.2413,0.6199,-0.0086,-1.6314
1.7439,2.4644,1.4406,2.3065,2.1319,1.456,1.5458,0.5014,0.5961,0.9217,0.3557,0.5868,1.7028,2.188,2.3111,2.7259,2.5474,1.7034,2.2361,2.8575,2.5411,2.1946,1.6805,1.5093,1.2941,0.8297,1.29,0.6125,0.0242,-1.7371
1.8687,2.6403,1.5514,2.498,2.3432,1.6352,1.6301,0.5591,0.6082,0.9445,0.3195,0.5551,1.7745,2.3276,2.4692,2.9282,2.7024,1.7651,2.3791,3.0755,2.7352,2.3213,1.728,1.583,1.3266,0.8565,1.3198,0.591,0.0551,-1.8475
2.0134,2.8434,1.6848,2.7115,2.5441,1.8101,1.6694,0.5921,0.5975,0.9408,0.2687,0.5093,1.8306,2.4561,2.6484,3.1529,2.8793,1.8332,2.5318,3.3082,2.9353,2.4505,1.7781,1.6474,1.3442,0.875,1.3315,0.5609,0.0832,-1.9587
2.1713,3.0632,1.8305,2.9347,2.7227,1.9655,1.668,0.6,0.5707,0.9191,0.2164,0.4616,1.8775,2.5718,2.8367,3.3907,3.0727,1.9055,2.6918,3.5476,3.1342,2.5789,1.8308,1.7039,1.3485,0.8865,1.3314,0.5321,0.1078,-2.0669
2.334,3.2882,1.9773,3.1553,2.871,2.0895,1.6361,0.5847,0.5363,0.8905,0.176,0.4265,1.9234,2.6761,3.0193,3.6304,3.2748,1.9787,2.8572,3.7851,3.3262,2.7049,1.8867,1.7567,1.3457,0.8962,1.3294,0.5173,0.1282,-2.1685
2.4922,3.506,2.1139,3.3616,2.9847,2.1738,1.5872,0.5496,0.5023,0.8658,0.1589,0.4176,1.9764,2.7718,3.1801,3.8594,3.4753,2.0488,3.0247,4.0111,3.5061,2.8275,1.9459,1.8111,1.3447,0.9116,1.3373,0.5288,0.1438,-2.2596
2.6357,3.7039,2.2297,3.5418,3.0623,2.2142,1.5348,0.4991,0.4748,0.8543,0.1718,0.4446,2.0413,2.8614,3.304,4.0636,3.6611,2.1108,3.1882,4.2143,3.6685,2.9438,2.0063,1.872,1.355,0.9406,1.3655,0.5755,0.1545,-2.3356
2.7539,3.8687,2.3157,3.6853,3.1043,2.2105,1.4906,0.4377,0.457,0.8617,0.215,0.5107,2.119,2.9456,3.3792,4.2289,3.8178,2.1596,3.3384,4.3827,3.8072,3.0487,2.0631,1.9417,1.3841,0.9888,1.4202,0.6603,0.1605,-2.3916
2.8378,3.9883,2.3646,3.7832,3.113,2.1666,1.4623,0.3708,0.4492,0.8906,0.2836,0.6121,2.2063,3.0233,3.3993,4.3437,3.9316,2.1902,3.4644,4.5048,3.9159,3.135,2.1095,2.019,1.4348,1.0574,1.5022,0.7788,0.1632,-2.4235
2.881,4.054,2.3725,3.8302,3.0928,2.0901,1.4537,0.3047,0.4504,0.9401,0.3686,0.7385,2.2973,3.0927,3.3657,4.4008,3.9928,2.1987,3.5565,4.5728,3.9901,3.1959,2.1388,2.0997,1.5048,1.1426,1.6061,0.9202,0.1651,-2.4296
2.8819,4.0622,2.3392,3.8263,3.0509,1.9922,1.4656,0.2463,0.4592,1.007,0.4598,0.876,2.3857,3.1522,3.2878,4.4001,3.9984,2.1833,3.6089,4.5849,4.0284,3.2269,2.1471,2.178,1.5872,1.2361,1.7216,1.0692,0.1695,-2.4118
2.8434,4.0158,2.2692,3.777,2.9971,1.8865,1.4973,0.2028,0.4749,1.0869,0.5485,1.0098,2.4663,3.2017,3.1816,4.349,3.9532,2.1451,3.6221,4.5465,4.0342,3.2285,2.1348,2.2479,1.6719,1.3272,1.836,1.2096,0.1802,-2.3764
2.7734,3.9246,2.1716,3.6937,2.9432,1.7876,1.547,0.1805,0.4977,1.1749,0.6282,1.1269,2.5363,3.243,3.067,4.2609,3.8692,2.0888,3.6029,4.4693,4.0153,3.2063,2.1066,2.3046,1.7489,1.4054,1.9369,1.3275,0.2006,-2.3327
2.6827,3.8032,2.059,3.5913,2.9017,1.7098,1.6134,0.1837,0.5283,1.2665,0.696,1.2182,2.5947,3.2791,2.9632,4.1524,3.7626,2.0223,3.5619,4.3693,3.9821,3.1703,2.0708,2.3458,1.8103,1.4633,2.0145,1.4137,0.2323,-2.2915
2.5831,3.6687,1.9458,3.4862,2.8833,1.6644,1.695,0.2132,0.567,1.3579,0.751,1.2792,2.6413,3.3128,2.8846,4.0394,3.6501,1.9559,3.5112,4.262,3.9446,3.1321,2.0364,2.3718,1.8523,1.4984,2.0634,1.465,0.2743,-2.262
2.4854,3.5371,1.8453,3.3926,2.895,1.6589,1.7892,0.2663,0.6128,1.4455,0.7939,1.3094,2.6762,3.345,2.838,3.9332,3.5452,1.9004,3.4604,4.1598,3.9097,3.1017,2.011,2.3847,1.8759,1.5129,2.0833,1.4836,0.3224,-2.2494
2.3973,3.4203,1.7678,3.3207,2.9382,1.6949,1.8917,0.3365,0.6625,1.526,0.8252,1.3113,2.6986,3.3739,2.8215,3.8391,3.455,1.8649,3.4152,4.0686,3.8795,3.0857,1.9993,2.3879,1.8858,1.5129,2.0776,1.4757,0.37,-2.2543
2.3228,3.3254,1.7187,3.275,3.0081,1.7685,1.9956,0.4145,0.7113,1.5952,0.845,1.289,2.7067,3.3953,2.8269,3.7559,3.3808,1.8548,3.377,3.9883,3.851,3.0854,2.0025,2.385,1.8893,1.5065,2.0528,1.449,0.4093,-2.2727
2.2632,3.2541,1.6985,3.2549,3.095,1.8704,2.0916,0.4896,0.753,1.6483,0.8521,1.2466,2.6987,3.4037,2.8424,3.6788,3.3188,1.8708,3.3448,3.9144,3.8182,3.0985,2.0192,2.3793,1.894,1.5012,2.0165,1.4107,0.4332,-2.2977
2.2176,3.2049,1.7038,3.256,3.186,1.9882,2.1698,0.5517,0.7811,1.6807,0.8444,1.1879,2.674,3.3949,2.8564,3.6023,3.264,1.9088,3.3172,3.842,3.7757,3.1203,2.0468,2.3737,1.9061,1.5024,1.9759,1.3659,0.4367,-2.3217
2.1848,3.1745,1.7293,3.2727,3.2687,2.1083,2.2208,0.5928,0.7906,1.6889,0.8198,1.116,2.6343,3.3683,2.8613,3.5239,3.2128,1.9616,3.2942,3.7687,3.7218,3.1463,2.0834,2.3705,1.929,1.5125,1.9371,1.3173,0.4191,-2.3385
2.1645,3.16,1.769,3.2998,3.3333,2.2185,2.2388,0.609,0.7787,1.6719,0.7771,1.034,2.5851,3.3282,2.8544,3.446,3.1653,2.0205,3.2785,3.6971,3.6606,3.1744,2.128,2.3713,1.9625,1.5305,1.9041,1.266,0.3837,-2.3438
2.1571,3.1594,1.8179,3.3338,3.3751,2.3096,2.2229,0.6009,0.7462,1.6325,0.7178,0.9457,2.5347,3.2836,2.8382,3.3758,3.1254,2.0773,3.2749,3.635,3.6021,3.2049,2.1807,2.3778,2.0033,1.5533,1.8797,1.2128,0.3374,-2.337
2.1635,3.1718,1.8722,3.3724,3.3948,2.3768,2.1782,0.5738,0.6979,1.5775,0.6464,0.8563,2.4937,3.2468,2.8186,3.3231,3.0992,2.1251,3.2877,3.5927,3.5595,3.2402,2.2417,2.3906,2.0452,1.5764,1.8651,1.1595,0.2897,-2.3207
2.1834,3.1959,1.9292,3.4143,3.397,2.4196,2.1145,0.5371,0.6422,1.5176,0.5706,0.7727,2.472,3.2293,2.8028,3.2969,3.092,2.159,3.3187,3.5795,3.5451,3.2819,2.3098,2.4099,2.0804,1.5952,1.8604,1.1094,0.2498,-2.3003
2.2148,3.2288,1.9859,3.4573,3.3883,2.4412,2.0447,0.5019,0.59,1.4654,0.5008,0.7027,2.4766,3.2391,2.796,3.3017,3.1055,2.1754,3.3651,3.6002,3.566,3.3295,2.3812,2.4346,2.1012,1.6065,1.8655,1.068,0.2253,-2.2822
2.2531,3.2654,2.0392,3.4976,3.3745,2.4465,1.9819,0.4791,0.5527,1.4338,0.4479,0.6545,2.5095,3.2777,2.7993,3.3356,3.1363,2.1718,3.4186,3.652,3.6211,3.3786,2.4497,2.4624,2.1016,1.6084,1.8795,1.0414,0.2195,-2.2725
2.2912,3.2981,2.0849,3.5295,3.3586,2.4405,1.9367,0.4768,0.5402,1.4327,0.4214,0.634,2.5669,3.3389,2.8093,3.3893,3.175,2.1467,3.467,3.7243,3.7002,3.4206,2.5069,2.4892,2.0781,1.6008,1.9005,1.0352,0.2316,-2.2743
2.321,3.3179,2.1179,3.546,3.3396,2.4267,1.915,0.4995,0.5584,1.4667,0.4268,0.6439,2.6395,3.4106,2.8181,3.4484,3.209,2.0991,3.4969,3.8007,3.7863,3.4448,2.5443,2.5103,2.0309,1.5848,1.9259,1.052,0.2572,-2.2873
2.3345,3.3159,2.133,3.5398,3.3135,2.4069,1.9177,0.5468,0.6084,1.5332,0.4646,0.6819,2.7143,3.4768,2.8151,3.4961,3.2242,2.0299,3.4961,3.8618,3.8587,3.4403,2.5548,2.5204,1.9635,1.5617,1.9515,1.0907,0.2897,-2.3068
2.3251,3.2853,2.1248,3.5052,3.2748,2.3815,1.9408,0.6149,0.6864,1.6223,0.5294,0.7406,2.7775,3.5216,2.7897,3.5166,3.209,1.9412,3.4567,3.8902,3.8985,3.3987,2.5342,2.5144,1.882,1.5326,1.9716,1.1452,0.3235,-2.3253
2.2893,3.2228,2.0897,3.439,3.2189,2.3501,1.9774,0.6977,0.7846,1.7185,0.6112,0.8078,2.8168,3.5324,2.7329,3.4984,3.1562,1.8374,3.3764,3.8728,3.8915,3.3158,2.4818,2.4884,1.7938,1.4978,1.9796,1.2052,0.3551,-2.3337
2.2259,3.129,2.0255,3.341,3.1437,2.3131,2.0198,0.789,0.8929,1.8036,0.6973,0.8686,2.8237,3.502,2.6389,3.4357,3.064,1.7237,3.2578,3.8035,3.8314,3.1922,2.4,2.4399,1.7063,1.4568,1.9689,1.258,0.3843,-2.323
2.1368,3.008,1.9327,3.2137,3.0502,2.2716,2.061,0.8838,1.0014,1.8607,0.7748,0.9084,2.7939,3.4296,2.5048,3.3282,2.9354,1.6054,3.1073,3.683,3.719,3.0324,2.2938,2.3678,1.6251,1.4081,1.9336,1.2905,0.4142,-2.2857
2.0252,2.8657,1.8141,3.0616,2.9421,2.2274,2.096,0.9791,1.102,1.8773,0.8334,0.9151,2.7278,3.319,2.3307,3.1805,2.7766,1.4866,2.9329,3.5171,3.5611,2.8431,2.1688,2.2726,1.5536,1.3503,1.8697,1.2925,0.4497,-2.2169
1.8958,2.7086,1.6742,2.89,2.8242,2.1824,2.1225,1.0739,1.1902,1.8483,0.8672,0.8827,2.6296,3.1779,2.1189,3,2.5951,1.3692,2.7427,3.3151,3.3681,2.6315,2.0309,2.1561,1.4926,1.2822,1.7763,1.2589,0.4951,-2.1151
1.7534,2.5426,1.5186,2.7043,2.7011,2.138,2.1404,1.1686,1.265,1.7763,0.8758,0.8118,2.5067,3.0154,1.8752,2.796,2.3989,1.2537,2.5432,3.0879,3.1518,2.4049,1.885,2.0218,1.4407,1.204,1.6564,1.1907,0.5531,-1.9833
1.6033,2.3726,1.3535,2.5101,2.576,2.0947,2.1514,1.2637,1.3288,1.6716,0.8639,0.7106,2.3681,2.8413,1.6086,2.5782,2.1949,1.1391,2.3399,2.8466,2.9235,2.1698,1.7354,1.8751,1.3948,1.1173,1.5165,1.0951,0.6228,-1.8285
1.4508,2.2023,1.1848,2.3132,2.4509,2.052,2.1579,1.3593,1.386,1.5491,0.8401,0.5922,2.2239,2.6643,1.3312,2.3565,1.9897,1.0247,2.1373,2.6019,2.6933,1.9327,1.5859,1.7226,1.3514,1.0256,1.3664,0.9844,0.7005,-1.6617
