FP1,F3,F7,FC3,C3,C5,P3,P7,PO7,PO3,O1,Oz,Pz,CPz,FP2,Fz,F4,F8,FC4,FCz,Cz,C4,C6,P4,P8,PO8,PO4,O2,(corr) HEOG,(corr) VEOG
0.3412,0.3615,0.2622,0.4547,0.2667,0.201,0.0665,0.0769,0.0528,0.1182,0.0422,0.0095,0.1215,0.265,0.2716,0.3655,0.4041,0.2867,0.4022,0.3569,0.2879,0.3998,0.3546,0.2638,0.1912,0.0781,0.2028,0.0154,0.0858,0.0904
0.304,0.2923,0.2158,0.4045,0.2214,0.1393,0.082,0.0894,0.089,0.1769,0.0963,0.0515,0.1563,0.2667,0.2362,0.3303,0.3563,0.2179,0.3729,0.3207,0.2718,0.3954,0.3333,0.2977,0.2306,0.1327,0.2876,0.0738,0.0898,0.0679
0.2697,0.2285,0.1736,0.3578,0.181,0.0803,0.102,0.1026,0.1253,0.2326,0.146,0.0926,0.1969,0.2759,0.2082,0.3004,0.3071,0.1686,0.3416,0.2897,0.2613,0.3819,0.3053,0.3213,0.2652,0.1854,0.3712,0.1302,0.1022,0.0422
0.2449,0.1817,0.1437,0.3248,0.1538,0.033,0.1292,0.1173,0.1617,0.2835,0.1898,0.1309,0.2414,0.2947,0.196,0.2839,0.2657,0.1512,0.3152,0.2718,0.2613,0.3633,0.2763,0.3338,0.2928,0.2316,0.4466,0.1811,0.1241,0.0143
0.2393,0.1658,0.138,0.3184,0.1496,0.0079,0.1662,0.1338,0.1974,0.329,0.2257,0.1648,0.2885,0.3263,0.2104,0.2919,0.2451,0.1761,0.3041,0.2777,0.279,0.3476,0.2549,0.3373,0.3136,0.2681,0.508,0.2235,0.1541,-0.0132
0.2657,0.1955,0.1702,0.353,0.1788,0.0152,0.2155,0.1518,0.2303,0.3692,0.2524,0.1924,0.3381,0.3752,0.2625,0.3376,0.2605,0.2506,0.3217,0.3199,0.3232,0.3464,0.2523,0.337,0.3297,0.2933,0.552,0.2554,0.1884,-0.0368
0.3371,0.2843,0.2526,0.442,0.2512,0.0638,0.279,0.1708,0.2583,0.4056,0.2689,0.2131,0.3925,0.4472,0.362,0.4345,0.3269,0.3781,0.3822,0.4114,0.4043,0.3734,0.2807,0.3406,0.346,0.3079,0.5787,0.2766,0.2221,-0.0527
0.4631,0.4415,0.3928,0.595,0.3743,0.1594,0.3586,0.1908,0.2796,0.4415,0.2757,0.2277,0.4562,0.5487,0.5142,0.5936,0.4565,0.5569,0.4979,0.5629,0.5317,0.442,0.3512,0.3575,0.3692,0.315,0.5925,0.2885,0.2514,-0.0579
0.6467,0.6693,0.5897,0.8144,0.5506,0.3029,0.4555,0.213,0.294,0.481,0.2754,0.2392,0.5348,0.6849,0.7176,0.8207,0.6557,0.7799,0.6765,0.7797,0.7115,0.5629,0.4715,0.3972,0.4069,0.3195,0.6012,0.295,0.2748,-0.0508
0.8817,0.9616,0.8325,1.0939,0.7765,0.4886,0.5695,0.2394,0.3033,0.5285,0.272,0.2517,0.6335,0.8577,0.9638,1.1131,0.9226,1.034,0.918,1.0594,0.9444,0.7404,0.6431,0.4669,0.466,0.3273,0.6146,0.3011,0.2941,-0.0327
1.1528,1.3034,1.1012,1.4174,1.0405,0.7045,0.6979,0.2716,0.3106,0.5869,0.2708,0.2695,0.7549,1.0636,1.2393,1.4591,1.2465,1.3017,1.2134,1.3904,1.2228,0.9712,0.8601,0.5696,0.5504,0.344,0.6418,0.3122,0.3132,-0.008
1.4392,1.6723,1.3705,1.7616,1.3248,0.9332,0.8355,0.3102,0.3196,0.6569,0.2765,0.2962,0.8972,1.2937,1.5287,1.8391,1.6087,1.5634,1.5451,1.7529,1.5315,1.2433,1.1092,0.7029,0.6598,0.3733,0.6895,0.3326,0.3374,0.0167
1.7183,2.0424,1.6149,2.0996,1.6074,1.1541,0.9741,0.3537,0.3332,0.7359,0.2925,0.333,1.0543,1.5335,1.8177,2.228,1.9853,1.8009,1.8899,2.1217,1.8491,1.5381,1.3718,0.8592,0.7894,0.4168,0.7598,0.3645,0.371,0.0332
1.9709,2.3875,1.8142,2.4054,1.8654,1.3468,1.1038,0.3978,0.3525,0.8186,0.3198,0.3791,1.2159,1.7658,2.0949,2.5996,2.3504,1.9999,2.2222,2.4702,2.1513,1.8334,1.6271,1.0266,0.93,0.473,0.85,0.4075,0.4159,0.0344
2.1837,2.6848,1.9566,2.6573,2.0786,1.4939,1.2147,0.4365,0.3767,0.8982,0.3571,0.4318,1.3699,1.9728,2.3509,2.9295,2.6799,2.1514,2.5183,2.774,2.4144,2.1066,1.8555,1.1912,1.0701,0.5378,0.9527,0.4589,0.4714,0.0163
2.3493,2.9156,2.0392,2.8398,2.2315,1.5834,1.2982,0.4635,0.4035,0.9676,0.4015,0.4872,1.5036,2.1387,2.5764,3.1969,2.9527,2.2516,2.7581,3.0133,2.6186,2.3371,2.0408,1.339,1.1972,0.6051,1.0578,0.5141,0.5341,-0.0209
2.4645,3.0665,2.0654,2.9431,2.3142,1.6091,1.3485,0.4736,0.4295,1.0207,0.4488,0.5409,1.6058,2.2513,2.7596,3.3853,3.1515,2.2996,2.9265,3.1738,2.7494,2.5084,2.1716,1.4576,1.3,0.6681,1.154,0.5681,0.5985,-0.0724
2.5267,3.1281,2.0413,2.9629,2.3221,1.5708,1.3626,0.4638,0.4516,1.0533,0.4943,0.5891,1.6674,2.3022,2.8851,3.4818,3.2624,2.2958,3.0128,3.2462,2.798,2.6076,2.2411,1.5369,1.3691,0.7197,1.2305,0.6159,0.6584,-0.13
2.5327,3.0953,1.9723,2.8987,2.2558,1.4732,1.3403,0.4343,0.4667,1.0632,0.5332,0.6283,1.6823,2.2877,2.9356,3.4774,3.2756,2.2402,3.0103,3.2262,2.7616,2.6266,2.246,1.5702,1.3987,0.7545,1.2786,0.6533,0.7076,-0.1843
2.4776,2.9682,1.8616,2.7546,2.1205,1.3246,1.284,0.3875,0.4722,1.0497,0.5609,0.6559,1.6481,2.2085,2.8947,3.3683,3.1862,2.1328,2.9168,3.1145,2.6431,2.5621,2.1867,1.5542,1.3864,0.7686,1.2926,0.6774,0.741,-0.2268
2.3576,2.7532,1.7116,2.5397,1.9261,1.1368,1.1981,0.328,0.4665,1.0138,0.5736,0.6703,1.5659,2.0698,2.7529,3.1582,2.9964,1.975,2.7361,2.9178,2.4512,2.4172,2.0669,1.49,1.3341,0.7609,1.2705,0.6866,0.7553,-0.252
2.1728,2.4642,1.5253,2.2692,1.6874,0.9235,1.0886,0.2614,0.4487,0.9578,0.5687,0.6711,1.4412,1.882,2.5121,2.8605,2.7181,1.7713,2.4795,2.6506,2.2012,2.2023,1.8947,1.3832,1.2479,0.7336,1.2145,0.681,0.7492,-0.2582
1.9302,2.1232,1.3093,1.9639,1.4229,0.6996,0.9631,0.1935,0.4191,0.8851,0.5457,0.659,1.2834,1.6601,2.188,2.4991,2.3735,1.5315,2.1666,2.3344,1.9133,1.9356,1.6828,1.2443,1.1376,0.6913,1.1313,0.6622,0.7238,-0.2473
1.646,1.7576,1.0748,1.6479,1.1526,0.4801,0.8298,0.1287,0.3788,0.8003,0.5062,0.6357,1.1053,1.4218,1.8096,2.1057,1.9934,1.2702,1.8238,1.996,1.6116,1.6408,1.4476,1.0869,1.0152,0.6408,1.0305,0.6331,0.6822,-0.2234
1.3439,1.3974,0.8371,1.3458,0.8958,0.2783,0.6965,0.0698,0.3298,0.7083,0.4536,0.6036,0.9208,1.1857,1.4142,1.7158,1.6125,1.006,1.4807,1.6642,1.32,1.3444,1.2078,0.9264,0.8932,0.5895,0.9236,0.5972,0.6288,-0.191
1.0521,1.0701,0.6138,1.0788,0.6684,0.1047,0.5702,0.0179,0.2745,0.6141,0.3923,0.5646,0.7435,0.9683,1.0409,1.3628,1.2645,0.7596,1.1663,1.365,1.06,1.0714,0.9818,0.7769,0.7824,0.5439,0.8216,0.558,0.5691,-0.1533
0.7987,0.7974,0.4222,0.8622,0.4816,-0.0334,0.456,-0.0276,0.2154,0.5218,0.3273,0.5204,0.5847,0.7826,0.7232,1.0729,0.9765,0.5511,0.9041,1.1185,0.8475,0.8425,0.7855,0.6495,0.6902,0.508,0.7338,0.518,0.5087,-0.1113
0.6062,0.5927,0.2766,0.704,0.3417,-0.1319,0.3574,-0.0677,0.1552,0.4351,0.2627,0.4718,0.4523,0.6368,0.4835,0.862,0.7657,0.3976,0.71,0.9369,0.6918,0.6711,0.6308,0.5512,0.6201,0.4831,0.6657,0.4785,0.4534,-0.0643
0.4877,0.461,0.1868,0.6059,0.2504,-0.1892,0.2771,-0.1026,0.0969,0.3563,0.2019,0.4197,0.3508,0.5345,0.3307,0.7346,0.6385,0.3113,0.5907,0.8233,0.5953,0.5632,0.525,0.4848,0.5722,0.4676,0.6193,0.4399,0.4073,-0.0102
0.4447,0.3998,0.1563,0.5642,0.2061,-0.2056,0.2165,-0.1311,0.0432,0.2874,0.1471,0.3649,0.2813,0.4748,0.2601,0.6847,0.5906,0.2967,0.5439,0.7736,0.5546,0.5174,0.4706,0.4492,0.5439,0.458,0.5923,0.4015,0.3729,0.0523
0.467,0.401,0.1822,0.5717,0.2049,-0.1829,0.1768,-0.1507,-0.003,0.2295,0.0994,0.3089,0.2419,0.4535,0.2566,0.6982,0.609,0.3497,0.5598,0.7772,0.5613,0.5261,0.465,0.4402,0.5308,0.4501,0.5794,0.3622,0.3497,0.1233
0.5356,0.4526,0.2556,0.6195,0.241,-0.124,0.1588,-0.1582,-0.0394,0.1833,0.059,0.2529,0.2282,0.4643,0.2989,0.7559,0.6748,0.4574,0.6226,0.8197,0.6037,0.5773,0.5015,0.4514,0.5282,0.4397,0.5731,0.3209,0.3345,0.2001
0.6269,0.541,0.3629,0.698,0.3078,-0.0332,0.162,-0.1507,-0.0649,0.1486,0.025,0.1986,0.2345,0.4989,0.3641,0.8373,0.7667,0.6001,0.7138,0.8858,0.6691,0.6564,0.57,0.4753,0.5309,0.4232,0.5653,0.2768,0.3227,0.2775
0.7178,0.6526,0.4888,0.7982,0.3986,0.0839,0.1853,-0.1265,-0.0793,0.1251,-0.0038,0.1475,0.2543,0.5492,0.4323,0.9244,0.8647,0.7555,0.8153,0.9615,0.7456,0.7486,0.6586,0.5042,0.5348,0.3987,0.549,0.2296,0.3096,0.3486
0.7902,0.7755,0.6185,0.9128,0.507,0.2209,0.2267,-0.0855,-0.0834,0.1121,-0.0285,0.1011,0.2818,0.6083,0.4896,1.0046,0.9534,0.9027,0.9122,1.0367,0.8239,0.8417,0.7555,0.5316,0.537,0.3659,0.5202,0.1801,0.292,0.4064
0.8337,0.9002,0.7407,1.036,0.6277,0.371,0.2834,-0.0294,-0.0783,0.1097,-0.0496,0.0612,0.3132,0.6718,0.5294,1.0721,1.0244,1.0264,0.9954,1.1066,0.899,0.9273,0.8515,0.5536,0.5367,0.3269,0.4791,0.1303,0.2693,0.4449
0.8467,1.0205,0.8495,1.1642,0.7566,0.5279,0.3529,0.0392,-0.0649,0.1186,-0.0659,0.03,0.3472,0.738,0.5522,1.1282,1.0766,1.1192,1.0625,1.1714,0.9703,1.0023,0.9408,0.5697,0.5358,0.2857,0.4302,0.0837,0.2433,0.4608
0.8347,1.133,0.9441,1.2952,0.8909,0.6861,0.4329,0.1173,-0.0432,0.1407,-0.0749,0.0102,0.3854,0.8086,0.563,1.1791,1.1153,1.182,1.1169,1.2356,1.0412,1.0686,1.0218,0.5826,0.538,0.2484,0.382,0.0451,0.2184,0.4544
0.8083,1.2362,1.0284,1.4276,1.0282,0.8409,0.5216,0.202,-0.0125,0.1785,-0.0726,0.0049,0.4318,0.8871,0.5688,1.234,1.1499,1.2216,1.1663,1.3054,1.1173,1.1314,1.0965,0.5979,0.5486,0.2218,0.3449,0.0202,0.1998,0.429
0.7794,1.3298,1.1079,1.5596,1.1662,0.9881,0.6172,0.2905,0.0285,0.2343,-0.0547,0.0168,0.491,0.9773,0.5765,1.3014,1.1901,1.2483,1.2196,1.3868,1.2045,1.1976,1.1689,0.6219,0.5729,0.2119,0.3296,0.0144,0.1927,0.3901
0.7588,1.4137,1.1872,1.6884,1.3017,1.1237,0.7172,0.3801,0.0811,0.3093,-0.0174,0.0479,0.5671,1.0819,0.591,1.3868,1.2437,1.2722,1.2846,1.4829,1.3065,1.2731,1.2432,0.6604,0.615,0.2236,0.344,0.032,0.201,0.3438
0.7539,1.4881,1.2681,1.81,1.4304,1.2432,0.8181,0.4677,0.1451,0.4027,0.0407,0.0988,0.6615,1.2004,0.6148,1.4911,1.3142,1.3008,1.365,1.5933,1.4233,1.361,1.3222,0.7168,0.6766,0.2586,0.392,0.0751,0.2261,0.2951
0.7676,1.5535,1.3482,1.9195,1.5473,1.3422,0.9151,0.5494,0.219,0.5108,0.1181,0.1683,0.7719,1.3286,0.6486,1.6106,1.4001,1.3377,1.4602,1.7132,1.5507,1.4605,1.4062,0.7911,0.7562,0.3157,0.4723,0.1425,0.2667,0.2476
0.7986,1.6108,1.4215,2.0117,1.6466,1.4159,1.0024,0.6206,0.2988,0.6275,0.2102,0.2532,0.8925,1.4587,0.6921,1.7377,1.4957,1.3826,1.5647,1.8347,1.6803,1.5667,1.4929,0.8797,0.8496,0.3911,0.5785,0.2301,0.3185,0.2025
0.8425,1.6612,1.4801,2.0821,1.7229,1.4605,1.074,0.6762,0.3788,0.7448,0.3098,0.3488,1.0141,1.5806,0.7439,1.8625,1.5925,1.4321,1.6696,1.9481,1.8015,1.6722,1.5778,0.976,0.9505,0.4787,0.7005,0.3312,0.3754,0.1601
0.8929,1.7053,1.5161,2.1269,1.7715,1.4731,1.125,0.7114,0.4524,0.8539,0.4084,0.4491,1.1264,1.6832,0.8019,1.9749,1.6814,1.4813,1.7648,2.0434,1.9029,1.7677,1.6548,1.0718,1.0516,0.5717,0.8264,0.4378,0.4304,0.1208
0.9431,1.7421,1.5242,2.1435,1.7893,1.4525,1.1518,0.7228,0.5134,0.9468,0.4976,0.5482,1.219,1.757,0.8621,2.0658,1.7541,1.5248,1.8407,2.1124,1.9748,1.8444,1.7181,1.1587,1.1454,0.6637,0.9447,0.542,0.4771,0.086
0.9864,1.7687,1.5026,2.1305,1.7746,1.3999,1.1534,0.7086,0.5566,1.0175,0.5711,0.64,1.2835,1.7951,0.9191,2.1277,1.8043,1.5574,1.8896,2.1489,2.0102,1.8952,1.7624,1.2291,1.2259,0.749,1.0458,0.6371,0.5109,0.0583
1.0169,1.7798,1.4531,2.0878,1.7276,1.3182,1.1308,0.6698,0.579,1.0624,0.6249,0.7197,1.3146,1.7944,0.9655,2.1556,1.8282,1.5744,1.9069,2.1498,2.0057,1.9154,1.7837,1.2773,1.2881,0.8234,1.1236,0.7184,0.53,0.0407
1.0294,1.7685,1.38,2.016,1.6502,1.2118,1.0863,0.6093,0.5796,1.0805,0.6573,0.7834,1.3101,1.7558,0.9932,2.1459,1.8235,1.5716,1.8906,2.1144,1.9614,1.903,1.7792,1.2998,1.3289,0.8838,1.1749,0.783,0.535,0.0362
1.0193,1.7278,1.2885,1.9169,1.5452,1.0862,1.0231,0.5318,0.5589,1.0723,0.6686,0.8279,1.2707,1.6829,0.9947,2.0973,1.7896,1.5456,1.8409,2.044,1.88,1.8581,1.7475,1.295,1.3462,0.9279,1.1993,0.8294,0.5288,0.0458
0.9837,1.6523,1.1834,1.7928,1.4168,0.9469,0.9444,0.443,0.5193,1.0399,0.6599,0.8506,1.1993,1.5813,0.9648,2.01,1.7261,1.4943,1.7598,1.9411,1.7659,1.7829,1.6881,1.263,1.3391,0.9538,1.1975,0.8568,0.5153,0.0687
0.9218,1.5404,1.0685,1.6473,1.2699,0.7998,0.853,0.349,0.464,0.9859,0.6327,0.8503,1.1007,1.4578,0.9017,1.8866,1.6338,1.4169,1.65,1.8095,1.6246,1.6807,1.6018,1.2055,1.3072,0.9599,1.1717,0.8643,0.4981,0.1016
0.8363,1.3948,0.9467,1.485,1.1106,0.6513,0.7521,0.2561,0.3972,0.9138,0.589,0.8268,0.9806,1.3194,0.8085,1.7319,1.5141,1.3154,1.5155,1.654,1.4622,1.556,1.4913,1.1255,1.2514,0.9453,1.1241,0.8515,0.4802,0.1399
0.7326,1.2235,0.8207,1.3121,0.9461,0.5079,0.6453,0.17,0.3244,0.8279,0.5313,0.7817,0.8459,1.1728,0.6919,1.5531,1.3704,1.1944,1.3614,1.4805,1.2851,1.414,1.361,1.0268,1.1735,0.9098,1.0579,0.8184,0.4625,0.1786
0.6184,1.0378,0.6939,1.1356,0.7844,0.3762,0.5369,0.0958,0.2512,0.7336,0.463,0.7187,0.704,1.0243,0.5618,1.3594,1.2077,1.061,1.1937,1.2956,1.1002,1.2606,1.2172,0.9143,1.0766,0.8542,0.9764,0.7656,0.4443,0.2131
0.502,0.8515,0.5709,0.9636,0.6338,0.2625,0.432,0.0377,0.1835,0.6368,0.3879,0.6423,0.5619,0.8798,0.4292,1.1608,1.0331,0.9235,1.0193,1.1071,0.9146,1.1016,1.0673,0.7929,0.9647,0.7804,0.8832,0.6951,0.4238,0.2403
0.3919,0.6777,0.4575,0.8046,0.5019,0.1717,0.336,-0.0018,0.1261,0.5437,0.3106,0.558,0.4266,0.7441,0.3042,0.9674,0.8552,0.7908,0.846,0.9228,0.7358,0.9433,0.9197,0.6679,0.8429,0.6915,0.782,0.6099,0.3984,0.2592
0.2951,0.5276,0.3604,0.6664,0.3953,0.1075,0.2546,-0.0216,0.0828,0.4602,0.2354,0.471,0.3046,0.6217,0.1946,0.7887,0.6838,0.6713,0.6822,0.7507,0.5709,0.7925,0.783,0.5448,0.717,0.5916,0.6765,0.5146,0.3666,0.2708
0.217,0.4092,0.2861,0.5558,0.3182,0.0715,0.1926,-0.0217,0.0552,0.3915,0.1665,0.3855,0.2011,0.5165,0.1052,0.633,0.5287,0.5719,0.5359,0.5986,0.4272,0.6563,0.6656,0.4297,0.5939,0.4861,0.5711,0.415,0.3284,0.2777
0.1607,0.3264,0.2398,0.4775,0.2722,0.0634,0.1532,-0.0039,0.0434,0.3413,0.1072,0.305,0.1201,0.4315,0.0373,0.507,0.3993,0.4977,0.4151,0.4727,0.3105,0.5419,0.5751,0.3288,0.4805,0.3814,0.4705,0.3178,0.2854,0.2841
0.1266,0.2793,0.2241,0.4333,0.2557,0.0808,0.1379,0.0293,0.0452,0.3114,0.0597,0.2321,0.0638,0.3686,-0.0107,0.4148,0.3025,0.4518,0.3255,0.3771,0.2247,0.4559,0.5171,0.2481,0.3842,0.2845,0.3801,0.2295,0.2411,0.294
0.1125,0.2647,0.2385,0.4218,0.2641,0.1194,0.1453,0.0739,0.0571,0.3013,0.0248,0.1682,0.0322,0.3283,-0.0422,0.3575,0.2421,0.4345,0.2706,0.3133,0.1712,0.4026,0.4945,0.1925,0.311,0.2025,0.3052,0.1562,0.1994,0.3109
0.1144,0.2762,0.2792,0.4377,0.2904,0.1731,0.1715,0.1251,0.0744,0.3079,0.0017,0.1145,0.0229,0.3095,-0.0615,0.3334,0.2183,0.4436,0.2501,0.2796,0.1482,0.3832,0.5068,0.1649,0.2655,0.1417,0.251,0.1022,0.164,0.3368
0.1276,0.3057,0.3394,0.473,0.3259,0.2346,0.2107,0.1773,0.0922,0.3264,-0.0112,0.0716,0.0318,0.3096,-0.0719,0.3376,0.2268,0.474,0.2601,0.2717,0.1513,0.3949,0.5494,0.1655,0.2491,0.1066,0.2209,0.0699,0.1373,0.3716
0.1474,0.3448,0.411,0.5183,0.3624,0.2967,0.2559,0.225,0.1062,0.3508,-0.0165,0.04,0.054,0.325,-0.0754,0.3635,0.2606,0.5194,0.2936,0.284,0.1744,0.4311,0.6138,0.1912,0.2606,0.0992,0.2158,0.0597,0.1201,0.4131
0.17,0.3858,0.485,0.5642,0.3935,0.3526,0.3006,0.2637,0.1134,0.3759,-0.0163,0.0202,0.0843,0.3517,-0.072,0.4042,0.3108,0.5733,0.3416,0.3104,0.2109,0.4823,0.6893,0.236,0.2952,0.1187,0.2341,0.07,0.1123,0.4566
0.1926,0.4235,0.553,0.6035,0.4155,0.3975,0.3394,0.2901,0.1131,0.3975,-0.0114,0.013,0.1186,0.3857,-0.0599,0.4533,0.3684,0.6302,0.3946,0.3458,0.2548,0.5379,0.7638,0.292,0.3462,0.161,0.2713,0.0977,0.1128,0.4958
0.2134,0.4557,0.6079,0.6324,0.4282,0.4291,0.3696,0.3033,0.1068,0.4142,-0.0018,0.0193,0.1542,0.4234,-0.0371,0.5061,0.4256,0.6862,0.4443,0.3868,0.3015,0.5874,0.8261,0.3502,0.4053,0.2194,0.3207,0.1389,0.1208,0.5231
0.2311,0.4828,0.6441,0.6504,0.4339,0.4475,0.3904,0.3044,0.0979,0.4266,0.0139,0.0399,0.1896,0.4618,-0.002,0.5597,0.4766,0.7387,0.4845,0.4316,0.3481,0.6227,0.8674,0.4025,0.464,0.2855,0.3746,0.1893,0.1354,0.5314
0.2449,0.507,0.6584,0.6598,0.4367,0.4547,0.4027,0.2962,0.0906,0.4367,0.037,0.0749,0.2242,0.4979,0.0446,0.6126,0.5179,0.7855,0.5116,0.4792,0.3925,0.6387,0.8822,0.4424,0.515,0.3506,0.4251,0.2442,0.156,0.5154
0.2544,0.5303,0.6498,0.6639,0.4405,0.4531,0.4084,0.2823,0.0888,0.4466,0.0682,0.123,0.2573,0.5289,0.0992,0.6636,0.5483,0.8236,0.5244,0.5283,0.4331,0.6341,0.8696,0.4659,0.553,0.4066,0.466,0.2992,0.1815,0.4731
0.2602,0.5533,0.6199,0.6657,0.4473,0.4447,0.409,0.2659,0.0949,0.4576,0.1063,0.1811,0.2875,0.5519,0.1557,0.7117,0.5679,0.8495,0.5239,0.5769,0.4678,0.6108,0.8321,0.4721,0.5749,0.4477,0.4932,0.35,0.2101,0.4076
0.2641,0.5745,0.5733,0.6668,0.457,0.4301,0.4053,0.2494,0.1092,0.4694,0.1486,0.2447,0.3129,0.5645,0.2067,0.7551,0.5782,0.8587,0.5124,0.6216,0.4945,0.5737,0.7759,0.4625,0.5805,0.4711,0.5053,0.3929,0.239,0.3262
0.2687,0.5912,0.5165,0.6671,0.4671,0.4089,0.3971,0.2339,0.1297,0.4799,0.1904,0.308,0.3314,0.5652,0.2455,0.7921,0.5814,0.8482,0.4933,0.6586,0.511,0.5295,0.7091,0.441,0.5718,0.4768,0.5037,0.4256,0.2651,0.2397
0.2771,0.6,0.4574,0.6655,0.4743,0.3802,0.3838,0.2189,0.1529,0.4862,0.2267,0.365,0.3413,0.5544,0.2683,0.8215,0.5801,0.817,0.4705,0.6846,0.5165,0.4856,0.6409,0.4133,0.5526,0.468,0.4924,0.447,0.2852,0.1598
0.2919,0.5992,0.4035,0.6609,0.475,0.3436,0.3653,0.2032,0.1746,0.4856,0.2532,0.4103,0.3423,0.5344,0.2752,0.8434,0.5772,0.7685,0.4481,0.6981,0.5118,0.4495,0.5803,0.3857,0.5286,0.4502,0.4767,0.4576,0.2971,0.0965
0.3144,0.5893,0.3602,0.6525,0.4672,0.3001,0.342,0.1851,0.1911,0.4761,0.2669,0.4404,0.3353,0.5097,0.2694,0.8589,0.5753,0.7092,0.4298,0.6997,0.4999,0.427,0.5348,0.3648,0.5057,0.4296,0.4622,0.4599,0.3003,0.0563
0.3432,0.5726,0.3296,0.6403,0.45,0.2519,0.3161,0.1637,0.2004,0.4576,0.2674,0.4541,0.3228,0.4854,0.2566,0.8697,0.5759,0.6479,0.4182,0.6919,0.4845,0.4216,0.509,0.3559,0.4896,0.4125,0.4542,0.4573,0.296,0.0409
0.3743,0.5528,0.3095,0.6245,0.4242,0.2022,0.2905,0.139,0.202,0.4317,0.2567,0.4525,0.3078,0.4664,0.2419,0.8765,0.5788,0.5924,0.4137,0.6774,0.469,0.433,0.5039,0.3621,0.4843,0.404,0.4559,0.4538,0.2869,0.0476
0.4005,0.5326,0.2944,0.6046,0.3911,0.1536,0.2686,0.1125,0.1977,0.4012,0.2387,0.4391,0.2929,0.4554,0.228,0.8782,0.5814,0.5471,0.4139,0.6579,0.4552,0.4573,0.5162,0.3835,0.4917,0.4068,0.4683,0.4532,0.2759,0.0702
0.4125,0.5119,0.2763,0.5791,0.3518,0.1081,0.2533,0.0868,0.1904,0.3696,0.2182,0.4181,0.2794,0.4521,0.214,0.8706,0.5786,0.5114,0.4135,0.6325,0.4416,0.4865,0.5387,0.4166,0.5099,0.4204,0.4893,0.4579,0.2653,0.1009
0.4011,0.4876,0.2474,0.5445,0.3062,0.0654,0.2452,0.0648,0.1832,0.3394,0.1996,0.3934,0.2662,0.452,0.1953,0.8472,0.5633,0.4792,0.4045,0.5977,0.4231,0.5099,0.561,0.4544,0.534,0.4415,0.5141,0.4679,0.2557,0.1316
0.3589,0.4525,0.2016,0.4958,0.2526,0.0238,0.2424,0.049,0.1782,0.3115,0.1852,0.3676,0.2499,0.4472,0.165,0.7997,0.5274,0.4408,0.3774,0.5472,0.3922,0.5153,0.5711,0.4869,0.5555,0.4636,0.5353,0.4806,0.2461,0.1562
0.282,0.3978,0.1365,0.4275,0.1878,-0.0202,0.2403,0.0403,0.1757,0.2845,0.1748,0.3411,0.2248,0.4276,0.1156,0.7201,0.4633,0.3857,0.323,0.4739,0.3396,0.4915,0.5572,0.503,0.5643,0.4786,0.5446,0.4908,0.2342,0.1715
0.1718,0.3149,0.054,0.3347,0.1082,-0.0702,0.232,0.0379,0.1741,0.2549,0.1657,0.3123,0.1846,0.3831,0.041,0.6027,0.3663,0.3064,0.2346,0.3716,0.2577,0.4302,0.5105,0.4924,0.5504,0.4783,0.5342,0.492,0.2169,0.1778
0.0344,0.1989,-0.0402,0.2153,0.0109,-0.1287,0.2102,0.0393,0.1698,0.2185,0.1535,0.2788,0.1243,0.3064,-0.0614,0.4464,0.2359,0.2004,0.1097,0.2379,0.142,0.3282,0.4271,0.4484,0.5067,0.4566,0.4989,0.4781,0.1914,0.1789
-0.1198,0.0506,-0.1381,0.0719,-0.1035,-0.1961,0.1696,0.0408,0.1587,0.1718,0.1339,0.2383,0.0417,0.1954,-0.1903,0.2559,0.0769,0.0723,-0.048,0.0753,-0.0058,0.1887,0.3095,0.3695,0.431,0.4111,0.4379,0.4452,0.156,0.1809
-0.2778,-0.122,-0.2306,-0.0874,-0.2306,-0.2695,0.1087,0.0391,0.1376,0.1135,0.1042,0.1906,-0.0609,0.0551,-0.3395,0.0423,-0.1002,-0.0666,-0.2283,-0.1073,-0.1775,0.0215,0.167,0.2604,0.3276,0.344,0.3552,0.3927,0.1109,0.1909
-0.4251,-0.3045,-0.3095,-0.2492,-0.3613,-0.3428,0.0306,0.0318,0.105,0.0453,0.0642,0.1375,-0.1767,-0.1032,-0.4991,-0.1777,-0.2802,-0.2008,-0.4156,-0.2958,-0.3586,-0.1579,0.0143,0.1318,0.2061,0.2615,0.2592,0.3239,0.058,0.2153
-0.5477,-0.4786,-0.3682,-0.3969,-0.4834,-0.4074,-0.0572,0.0184,0.0621,-0.0283,0.0169,0.0829,-0.2955,-0.2634,-0.6559,-0.3841,-0.4457,-0.3139,-0.591,-0.4727,-0.5309,-0.3314,-0.1313,-0.0021,0.0801,0.1727,0.1607,0.2453,0.0009,0.2577
-0.6338,-0.6251,-0.4025,-0.5139,-0.5839,-0.4544,-0.1447,-0.0003,0.0125,-0.1006,-0.0328,0.0318,-0.4059,-0.4081,-0.7954,-0.5568,-0.5798,-0.3919,-0.736,-0.6203,-0.6761,-0.4811,-0.2528,-0.1264,-0.0366,0.087,0.0708,0.165,-0.0563,0.3183
-0.6757,-0.7285,-0.4109,-0.5874,-0.652,-0.477,-0.2217,-0.0221,-0.0389,-0.1648,-0.079,-0.0113,-0.4982,-0.5231,-0.9036,-0.6791,-0.6696,-0.427,-0.836,-0.725,-0.7802,-0.5934,-0.3379,-0.2292,-0.1325,0.012,-0.0024,0.0907,-0.1096,0.3931
-0.6712,-0.7795,-0.3947,-0.6115,-0.6822,-0.4717,-0.2805,-0.0441,-0.0864,-0.2156,-0.1164,-0.0434,-0.566,-0.5998,-0.9696,-0.7416,-0.7091,-0.4188,-0.8842,-0.7799,-0.8365,-0.6613,-0.3805,-0.3036,-0.2015,-0.0479,-0.0549,0.0284,-0.1562,0.4749
-0.6242,-0.7776,-0.3574,-0.5889,-0.6755,-0.4401,-0.3173,-0.0633,-0.1252,-0.2498,-0.1415,-0.064,-0.6082,-0.6376,-0.9874,-0.7442,-0.7001,-0.3734,-0.882,-0.7865,-0.8473,-0.6857,-0.3825,-0.3486,-0.243,-0.0916,-0.0876,-0.0189,-0.1948,0.5545
-0.5441,-0.7301,-0.3044,-0.5303,-0.6395,-0.3882,-0.3333,-0.0769,-0.1513,-0.2672,-0.1531,-0.0747,-0.6279,-0.6434,-0.9577,-0.6959,-0.652,-0.3023,-0.8394,-0.7543,-0.8233,-0.6745,-0.3524,-0.3693,-0.2618,-0.1213,-0.105,-0.0506,-0.2253,0.6234
-0.4439,-0.6507,-0.2423,-0.4517,-0.5862,-0.3251,-0.3331,-0.083,-0.1629,-0.2699,-0.1522,-0.0789,-0.6314,-0.6289,-0.8874,-0.613,-0.5796,-0.2181,-0.7715,-0.6985,-0.7803,-0.6403,-0.3028,-0.3741,-0.2661,-0.1406,-0.1137,-0.0685,-0.2485,0.6754
-0.3382,-0.5559,-0.1779,-0.3704,-0.529,-0.2609,-0.3233,-0.0803,-0.1595,-0.2617,-0.1415,-0.0805,-0.6262,-0.6072,-0.7889,-0.515,-0.4992,-0.1328,-0.6955,-0.6355,-0.7351,-0.5969,-0.248,-0.3726,-0.2644,-0.1536,-0.1203,-0.0759,-0.265,0.708
-0.2404,-0.461,-0.1171,-0.301,-0.4789,-0.2039,-0.3104,-0.0682,-0.1424,-0.2464,-0.1245,-0.0828,-0.6182,-0.5891,-0.6771,-0.42,-0.4249,-0.0551,-0.6261,-0.579,-0.7008,-0.5556,-0.1998,-0.373,-0.2639,-0.1636,-0.1298,-0.0759,-0.2749,0.7219
-0.161,-0.3772,-0.0641,-0.2514,-0.442,-0.1591,-0.2983,-0.0469,-0.1137,-0.2272,-0.1043,-0.0877,-0.6106,-0.5801,-0.5669,-0.3405,-0.3653,0.0103,-0.5722,-0.5366,-0.6832,-0.523,-0.166,-0.3798,-0.2682,-0.1723,-0.1443,-0.0713,-0.2777,0.7207
-0.1058,-0.3092,-0.021,-0.2222,-0.4184,-0.1275,-0.2879,-0.0168,-0.0761,-0.2057,-0.0828,-0.0948,-0.6032,-0.5792,-0.4702,-0.2817,-0.3226,0.0619,-0.536,-0.5089,-0.6805,-0.4998,-0.1487,-0.3932,-0.2773,-0.1799,-0.1631,-0.0641,-0.2721,0.7089
-0.0762,-0.2563,0.0119,-0.2073,-0.4026,-0.1062,-0.2772,0.0207,-0.0325,-0.1819,-0.0609,-0.1021,-0.5929,-0.5804,-0.3944,-0.241,-0.2928,0.1006,-0.5136,-0.4897,-0.6842,-0.4821,-0.1456,-0.4092,-0.288,-0.1856,-0.1833,-0.055,-0.2574,0.6902
-0.0688,-0.2133,0.0363,-0.1967,-0.3867,-0.0906,-0.2623,0.064,0.0141,-0.1548,-0.038,-0.1063,-0.5756,-0.5751,-0.3414,-0.2106,-0.2687,0.129,-0.4973,-0.47,-0.6827,-0.4635,-0.1508,-0.4215,-0.2955,-0.1882,-0.2007,-0.0441,-0.2338,0.6672
-0.0766,-0.1735,0.0549,-0.1799,-0.3629,-0.076,-0.2397,0.1101,0.0609,-0.1232,-0.0132,-0.1046,-0.5476,-0.5555,-0.3079,-0.1812,-0.2425,0.1499,-0.4789,-0.4407,-0.6653,-0.4377,-0.1572,-0.4233,-0.2951,-0.1865,-0.2114,-0.0311,-0.2029,0.6407
-0.0905,-0.1317,0.0707,-0.1501,-0.3264,-0.0594,-0.2072,0.1554,0.1049,-0.0864,0.0142,-0.095,-0.5073,-0.5173,-0.2873,-0.1448,-0.2091,0.1654,-0.4523,-0.3964,-0.626,-0.4006,-0.1584,-0.4092,-0.2835,-0.1797,-0.2122,-0.0157,-0.1686,0.6101
-0.1012,-0.0861,0.0859,-0.1055,-0.2775,-0.0406,-0.1657,0.196,0.1435,-0.0456,0.0439,-0.0778,-0.4561,-0.4613,-0.2719,-0.0979,-0.1677,0.1767,-0.4151,-0.3371,-0.5651,-0.3519,-0.15,-0.3768,-0.2601,-0.1675,-0.2017,0.0017,-0.1354,0.575
-0.1004,-0.0394,0.1012,-0.0508,-0.2216,-0.0226,-0.1191,0.2279,0.1742,-0.0037,0.0743,-0.0555,-0.3983,-0.3938,-0.2551,-0.0421,-0.1219,0.184,-0.3694,-0.2687,-0.4901,-0.2951,-0.1308,-0.3274,-0.2265,-0.1503,-0.1803,0.0203,-0.1079,0.5357
-0.0835,0.0018,0.1153,0.0042,-0.1683,-0.0105,-0.0739,0.2476,0.1949,0.0344,0.1021,-0.0327,-0.3407,-0.3251,-0.2335,0.0164,-0.0791,0.186,-0.321,-0.2015,-0.4128,-0.2366,-0.1024,-0.266,-0.187,-0.1292,-0.1509,0.0382,-0.0892,0.4939
-0.0495,0.0292,0.1249,0.0476,-0.1288,-0.0103,-0.0379,0.2527,0.2035,0.0627,0.1232,-0.0148,-0.291,-0.2666,-0.2068,0.0689,-0.0478,0.1811,-0.2774,-0.147,-0.347,-0.1843,-0.0694,-0.2003,-0.147,-0.1059,-0.1182,0.0527,-0.0805,0.453
-0.0021,0.0355,0.1254,0.0685,-0.1128,-0.0267,-0.0187,0.2417,0.1984,0.0753,0.133,-0.007,-0.2564,-0.2285,-0.1778,0.1069,-0.0351,0.1675,-0.2458,-0.1151,-0.3046,-0.1457,-0.0376,-0.1393,-0.1123,-0.0827,-0.0878,0.0614,-0.0805,0.4165
0.0516,0.0176,0.1129,0.0606,-0.1259,-0.0614,-0.0214,0.215,0.1789,0.0676,0.1276,-0.0128,-0.2418,-0.2169,-0.1502,0.1249,-0.0448,0.1443,-0.2313,-0.1109,-0.2922,-0.1258,-0.013,-0.0915,-0.0877,-0.0622,-0.0657,0.0618,-0.0865,0.3874
0.1024,-0.0226,0.0847,0.0242,-0.1673,-0.1121,-0.0471,0.1746,0.1455,0.0379,0.105,-0.0328,-0.2484,-0.2323,-0.1279,0.1218,-0.0759,0.1116,-0.2352,-0.1331,-0.3097,-0.1262,-0.0004,-0.063,-0.0759,-0.0464,-0.0562,0.0529,-0.0949,0.3671
0.1406,-0.0778,0.0413,-0.0339,-0.2302,-0.1728,-0.093,0.1246,0.1005,-0.0119,0.066,-0.0647,-0.2738,-0.2699,-0.1136,0.1012,-0.1228,0.0712,-0.2553,-0.1748,-0.3507,-0.1449,-0.002,-0.0562,-0.0771,-0.0368,-0.0614,0.0353,-0.1025,0.3551
0.1583,-0.1374,-0.0142,-0.102,-0.3035,-0.2348,-0.1523,0.0706,0.0481,-0.0764,0.0137,-0.1033,-0.3121,-0.3206,-0.1082,0.0703,-0.177,0.0259,-0.2861,-0.2252,-0.4044,-0.1766,-0.0175,-0.07,-0.0894,-0.0343,-0.0809,0.0109,-0.1072,0.3494
0.1508,-0.1907,-0.0762,-0.1674,-0.3743,-0.2895,-0.2163,0.0191,-0.0063,-0.1476,-0.0462,-0.1419,-0.3562,-0.3743,-0.1115,0.0372,-0.2292,-0.0216,-0.3214,-0.2732,-0.4593,-0.2154,-0.0447,-0.1003,-0.1098,-0.0392,-0.1116,-0.0172,-0.1087,0.3466
0.1177,-0.2301,-0.1384,-0.2195,-0.4319,-0.3301,-0.2767,-0.0241,-0.0571,-0.2167,-0.1072,-0.1742,-0.3992,-0.4224,-0.1229,0.0086,-0.2727,-0.0693,-0.3565,-0.3105,-0.5061,-0.256,-0.0805,-0.1417,-0.1354,-0.0519,-0.1495,-0.0457,-0.1087,0.3431
0.0629,-0.2533,-0.1955,-0.2526,-0.4698,-0.3542,-0.3274,-0.0549,-0.0995,-0.2761,-0.1632,-0.1952,-0.4367,-0.4598,-0.1419,-0.0128,-0.3049,-0.1174,-0.3894,-0.3339,-0.5403,-0.2959,-0.1224,-0.189,-0.1647,-0.0726,-0.1904,-0.0721,-0.1096,0.3363
-0.006,-0.2636,-0.2445,-0.2671,-0.4872,-0.3636,-0.366,-0.072,-0.1309,-0.321,-0.2098,-0.2027,-0.4669,-0.4861,-0.1687,-0.0282,-0.3282,-0.1674,-0.4218,-0.3459,-0.5625,-0.3356,-0.169,-0.2385,-0.1976,-0.1023,-0.2308,-0.0948,-0.1146,0.3248
-0.08,-0.2681,-0.2849,-0.2683,-0.488,-0.3632,-0.3934,-0.0769,-0.1509,-0.3496,-0.2447,-0.1976,-0.491,-0.5044,-0.204,-0.0422,-0.3484,-0.2218,-0.4573,-0.353,-0.5774,-0.3776,-0.2197,-0.2884,-0.2352,-0.1412,-0.2687,-0.1139,-0.1257,0.3089
-0.1501,-0.275,-0.3174,-0.264,-0.4791,-0.3593,-0.4124,-0.0733,-0.1608,-0.363,-0.2683,-0.1832,-0.5114,-0.5194,-0.2482,-0.0599,-0.3721,-0.2818,-0.4994,-0.363,-0.5911,-0.4245,-0.2739,-0.3382,-0.2785,-0.189,-0.3031,-0.1303,-0.144,0.2904
-0.2095,-0.2901,-0.3434,-0.2612,-0.4673,-0.3571,-0.4264,-0.0655,-0.1632,-0.3641,-0.2822,-0.1641,-0.5306,-0.5353,-0.3006,-0.0851,-0.4041,-0.3467,-0.5494,-0.3815,-0.6088,-0.4774,-0.3301,-0.3875,-0.3274,-0.2439,-0.3332,-0.1454,-0.1687,0.2718
-0.2538,-0.3152,-0.363,-0.2643,-0.4576,-0.3587,-0.4373,-0.0574,-0.161,-0.3563,-0.2888,-0.1446,-0.5495,-0.5536,-0.3582,-0.1181,-0.445,-0.4126,-0.605,-0.4104,-0.6323,-0.5344,-0.3852,-0.4352,-0.3797,-0.3025,-0.3585,-0.1598,-0.1974,0.2557
-0.2813,-0.3474,-0.3754,-0.2738,-0.4514,-0.3628,-0.4455,-0.0518,-0.1563,-0.3424,-0.2899,-0.1275,-0.5672,-0.5731,-0.4164,-0.1555,-0.4913,-0.4734,-0.6601,-0.4467,-0.66,-0.5907,-0.4348,-0.479,-0.4309,-0.3596,-0.3777,-0.1734,-0.2267,0.2441
-0.2923,-0.3803,-0.3788,-0.2865,-0.4472,-0.3652,-0.4491,-0.0492,-0.1508,-0.3246,-0.2866,-0.113,-0.5808,-0.5896,-0.4694,-0.1908,-0.5359,-0.522,-0.7066,-0.4837,-0.6868,-0.639,-0.4736,-0.5149,-0.4754,-0.4092,-0.3889,-0.1849,-0.2531,0.2382
-0.2879,-0.4064,-0.3713,-0.2965,-0.4409,-0.3603,-0.4451,-0.0491,-0.1447,-0.3035,-0.2784,-0.0987,-0.5863,-0.5971,-0.511,-0.2164,-0.5699,-0.5514,-0.7355,-0.5127,-0.7056,-0.6718,-0.4968,-0.5378,-0.5063,-0.4449,-0.3896,-0.1918,-0.2734,0.2379
-0.2689,-0.4183,-0.3513,-0.2976,-0.4275,-0.3427,-0.43,-0.0496,-0.1375,-0.279,-0.2638,-0.08,-0.5794,-0.5896,-0.5362,-0.2252,-0.5852,-0.5566,-0.7396,-0.525,-0.7089,-0.6818,-0.4999,-0.5425,-0.5176,-0.461,-0.3771,-0.1908,-0.2854,0.2424
-0.2354,-0.411,-0.3182,-0.2843,-0.4023,-0.309,-0.401,-0.0482,-0.1279,-0.2505,-0.2406,-0.0518,-0.5565,-0.5618,-0.5419,-0.2118,-0.5756,-0.5349,-0.7145,-0.5136,-0.6902,-0.664,-0.4802,-0.5242,-0.5047,-0.4535,-0.3492,-0.1787,-0.2884,0.251
-0.187,-0.3821,-0.2731,-0.2532,-0.3619,-0.2586,-0.3564,-0.0424,-0.1144,-0.2173,-0.2074,-0.0104,-0.5155,-0.5107,-0.5267,-0.1743,-0.5381,-0.4864,-0.6593,-0.4748,-0.6456,-0.6163,-0.4369,-0.4803,-0.4654,-0.4207,-0.3047,-0.1535,-0.2828,0.2631
-0.1235,-0.3319,-0.2184,-0.2041,-0.3053,-0.194,-0.2969,-0.0308,-0.0962,-0.1795,-0.1639,0.0456,-0.4569,-0.4364,-0.4917,-0.1136,-0.4737,-0.4142,-0.5774,-0.4088,-0.5743,-0.5402,-0.3712,-0.4116,-0.4011,-0.3642,-0.2445,-0.1147,-0.2699,0.2783
-0.0461,-0.2634,-0.1581,-0.1399,-0.2339,-0.1207,-0.2261,-0.0133,-0.0737,-0.1384,-0.1124,0.1133,-0.3841,-0.3426,-0.4393,-0.0339,-0.3867,-0.3235,-0.4753,-0.3197,-0.4796,-0.4409,-0.2873,-0.3228,-0.3168,-0.2892,-0.1724,-0.0647,-0.2513,0.2963
0.0418,-0.1813,-0.0968,-0.066,-0.1517,-0.0459,-0.1496,0.0081,-0.0489,-0.0968,-0.0576,0.1867,-0.3029,-0.2357,-0.3736,0.0582,-0.2844,-0.2216,-0.362,-0.2148,-0.3684,-0.3266,-0.1914,-0.2224,-0.2208,-0.2041,-0.0945,-0.0082,-0.229,0.3165
0.1352,-0.0921,-0.0384,0.0105,-0.0648,0.023,-0.0751,0.0306,-0.025,-0.0583,-0.0062,0.257,-0.2209,-0.1246,-0.2993,0.1551,-0.1759,-0.1165,-0.2472,-0.1034,-0.2499,-0.2075,-0.0915,-0.1212,-0.1236,-0.119,-0.0184,0.0481,-0.2045,0.3379
0.2279,-0.0029,0.0141,0.0823,0.0201,0.08,-0.01,0.0507,-0.0057,-0.0266,0.0352,0.3149,-0.1461,-0.0182,-0.2217,0.2485,-0.0709,-0.0156,-0.1404,0.0048,-0.1342,-0.094,0.0041,-0.0306,-0.0358,-0.0442,0.0482,0.0972,-0.1793,0.3587
0.3134,0.0789,0.06,0.1431,0.0966,0.1218,0.0395,0.0659,0.0067,-0.0043,0.0612,0.3528,-0.0849,0.0757,-0.1463,0.3317,0.0221,0.0745,-0.049,0.1017,-0.0302,0.0052,0.0878,0.0401,0.0332,0.012,0.0996,0.1333,-0.1538,0.3771
0.3857,0.1468,0.0994,0.1889,0.1598,0.1475,0.0701,0.0752,0.0114,0.0074,0.0694,0.3658,-0.0413,0.1522,-0.0785,0.3997,0.0969,0.1491,0.0225,0.1816,0.0559,0.084,0.154,0.0851,0.0778,0.0443,0.133,0.1527,-0.128,0.3908
0.4394,0.1962,0.1332,0.2186,0.2074,0.1591,0.0821,0.0792,0.0099,0.0096,0.0607,0.3535,-0.0159,0.2095,-0.023,0.4504,0.1509,0.2051,0.0726,0.2422,0.1215,0.14,0.1999,0.1032,0.0965,0.0514,0.1491,0.155,-0.1013,0.3975
0.4705,0.2259,0.1617,0.2338,0.2394,0.16,0.0786,0.08,0.0053,0.0044,0.0392,0.3194,-0.0065,0.2488,0.0171,0.4848,0.1849,0.2411,0.1031,0.2849,0.1679,0.1745,0.2253,0.0975,0.092,0.0364,0.1514,0.1429,-0.0727,0.395
0.477,0.2381,0.1841,0.2384,0.258,0.1541,0.065,0.08,0.0014,-0.0049,0.0109,0.2702,-0.0086,0.2736,0.0408,0.5062,0.2035,0.2569,0.1183,0.3135,0.1989,0.1913,0.2326,0.0743,0.0707,0.0053,0.1454,0.121,-0.0417,0.3819
0.4595,0.2379,0.1987,0.2372,0.2665,0.1453,0.0472,0.081,0.0012,-0.0157,-0.018,0.2145,-0.0171,0.2879,0.0494,0.5198,0.2129,0.2534,0.124,0.3335,0.2201,0.1962,0.2259,0.0418,0.0407,-0.0344,0.1367,0.0951,-0.0084,0.3579
0.4221,0.232,0.204,0.2348,0.2683,0.1368,0.0304,0.0842,0.0066,-0.0259,-0.0425,0.1606,-0.0277,0.2956,0.0463,0.5306,0.2202,0.2331,0.126,0.3503,0.2365,0.1948,0.21,0.0079,0.0098,-0.0751,0.1297,0.0703,0.0261,0.325
0.3723,0.227,0.1988,0.2341,0.266,0.1306,0.018,0.0891,0.0172,-0.035,-0.0594,0.1154,-0.0376,0.2992,0.0357,0.543,0.2308,0.2,0.129,0.3678,0.2517,0.1917,0.1891,-0.0211,-0.0162,-0.1108,0.1267,0.0502,0.0597,0.2872
0.3205,0.2275,0.1843,0.2362,0.2615,0.1275,0.0108,0.0947,0.0312,-0.0434,-0.0679,0.0833,-0.0457,0.2999,0.0219,0.5594,0.2479,0.1605,0.1359,0.3876,0.2671,0.1894,0.1665,-0.0417,-0.0341,-0.1378,0.1281,0.0364,0.0902,0.2505
0.2778,0.2355,0.1633,0.2409,0.2558,0.1277,0.0081,0.0993,0.0459,-0.0519,-0.0692,0.0657,-0.0524,0.2977,0.0094,0.5803,0.2719,0.1224,0.1471,0.4092,0.2818,0.1888,0.1442,-0.0526,-0.0438,-0.1549,0.1324,0.029,0.1148,0.2218
0.2536,0.2505,0.1405,0.247,0.2497,0.1307,0.0081,0.1016,0.0581,-0.0613,-0.0658,0.0615,-0.0579,0.293,0.002,0.6048,0.3008,0.0942,0.1617,0.4303,0.2943,0.1893,0.1233,-0.0543,-0.0466,-0.1624,0.138,0.0269,0.1315,0.2063
0.2533,0.2708,0.1212,0.2541,0.2444,0.1366,0.0089,0.101,0.0655,-0.0712,-0.0605,0.0679,-0.062,0.2866,0.0034,0.6314,0.3315,0.0833,0.1783,0.4488,0.3034,0.1905,0.1052,-0.0478,-0.0443,-0.1611,0.144,0.0294,0.1387,0.2067
0.277,0.2948,0.1104,0.2632,0.2422,0.1456,0.01,0.0979,0.067,-0.0801,-0.0553,0.0816,-0.0628,0.2809,0.0163,0.6589,0.3611,0.094,0.1956,0.4639,0.3091,0.1925,0.0913,-0.0339,-0.0378,-0.1519,0.1508,0.036,0.136,0.2219
0.3198,0.3217,0.1116,0.2765,0.246,0.159,0.0118,0.0939,0.063,-0.085,-0.0512,0.0991,-0.0576,0.2792,0.0425,0.6872,0.3878,0.127,0.2136,0.4767,0.3136,0.1964,0.0837,-0.0128,-0.0267,-0.1349,0.1602,0.047,0.124,0.2472
0.3736,0.3527,0.1265,0.2979,0.259,0.1784,0.0162,0.0909,0.0557,-0.0824,-0.0478,0.1184,-0.0434,0.2854,0.0815,0.7173,0.412,0.1789,0.2331,0.4902,0.3203,0.2043,0.0844,0.0159,-0.0096,-0.1104,0.175,0.0632,0.1046,0.2757
0.4294,0.3902,0.1547,0.3307,0.2839,0.2052,0.0258,0.0913,0.0484,-0.0685,-0.0431,0.1385,-0.0178,0.3026,0.131,0.7513,0.4354,0.2433,0.2559,0.5089,0.3335,0.2184,0.0953,0.0525,0.0154,-0.0786,0.1978,0.0853,0.0805,0.3
0.4802,0.4366,0.1952,0.3773,0.3222,0.2407,0.0429,0.0972,0.0454,-0.0406,-0.0343,0.1606,0.0201,0.3325,0.1868,0.7915,0.461,0.3128,0.2837,0.5371,0.3568,0.2403,0.1173,0.0971,0.0493,-0.0402,0.2307,0.1137,0.0545,0.3145
0.5225,0.4938,0.2461,0.4384,0.3737,0.2849,0.0694,0.1103,0.0512,0.0029,-0.0181,0.1866,0.0693,0.3746,0.2439,0.8396,0.4922,0.3807,0.3178,0.5779,0.3921,0.2706,0.1504,0.1487,0.0924,0.0033,0.2744,0.1484,0.0295,0.3161
0.5569,0.5619,0.3056,0.5122,0.4363,0.3369,0.1059,0.1312,0.0694,0.0617,0.0084,0.2195,0.1274,0.4266,0.2979,0.8965,0.531,0.4429,0.3587,0.6322,0.4394,0.3088,0.1936,0.2054,0.1431,0.0499,0.3287,0.1884,0.0073,0.3051
0.5876,0.6391,0.372,0.5956,0.5069,0.3948,0.1517,0.1599,0.102,0.1336,0.047,0.2615,0.1906,0.4845,0.3464,0.9614,0.5787,0.4983,0.4059,0.6986,0.4965,0.3532,0.2452,0.2647,0.199,0.0971,0.3918,0.2324,-0.0111,0.2842
0.6205,0.7224,0.443,0.685,0.5813,0.4555,0.2048,0.1947,0.1486,0.2143,0.0974,0.3133,0.2549,0.5438,0.3897,1.0326,0.635,0.5482,0.4583,0.7735,0.5597,0.4021,0.3035,0.3236,0.2566,0.1426,0.461,0.2781,-0.0255,0.2576
0.6615,0.808,0.5157,0.7771,0.656,0.5154,0.2624,0.2331,0.2064,0.2982,0.1572,0.3739,0.3162,0.6008,0.4305,1.1079,0.6989,0.5951,0.5148,0.8528,0.6252,0.4542,0.3671,0.3792,0.3129,0.1839,0.533,0.3227,-0.0357,0.2299
0.7148,0.8926,0.5866,0.869,0.7277,0.5708,0.3208,0.2717,0.2704,0.379,0.222,0.4393,0.3717,0.653,0.4732,1.1857,0.7693,0.6415,0.5746,0.9326,0.6897,0.5091,0.4349,0.4289,0.3653,0.2196,0.6038,0.3631,-0.0408,0.2051
0.7821,0.973,0.6515,0.9587,0.794,0.6183,0.3762,0.3066,0.3341,0.4505,0.2859,0.5041,0.4191,0.6996,0.5223,1.2649,0.8452,0.6892,0.6377,1.0104,0.7513,0.5671,0.5063,0.471,0.4121,0.2486,0.6696,0.3961,-0.0388,0.186
0.8624,1.0468,0.7068,1.0442,0.8534,0.6549,0.4252,0.3337,0.3907,0.5076,0.3423,0.5618,0.4577,0.7414,0.5807,1.3449,0.9257,0.7392,0.7045,1.085,0.8094,0.6292,0.5807,0.5047,0.4529,0.2707,0.7268,0.4191,-0.0268,0.1743
0.9525,1.112,0.7495,1.1231,0.9045,0.679,0.4646,0.3497,0.4341,0.5462,0.385,0.6064,0.4874,0.7799,0.6491,1.4255,1.0092,0.7922,0.7752,1.1564,0.8644,0.6963,0.6573,0.5304,0.4879,0.2867,0.7724,0.4308,-0.0018,0.1706
1.0473,1.1669,0.7786,1.1925,0.9462,0.6896,0.4921,0.3518,0.4598,0.5646,0.4092,0.6334,0.509,0.8169,0.7254,1.5062,1.0939,0.8488,0.8493,1.2249,0.9173,0.7682,0.7348,0.5493,0.518,0.2978,0.8043,0.4317,0.0383,0.1746
1.1408,1.2105,0.7949,1.2496,0.9773,0.687,0.5062,0.3384,0.4653,0.5627,0.4123,0.6413,0.5239,0.8533,0.8057,1.5857,1.1767,0.9095,0.9252,1.2907,0.9683,0.8434,0.811,0.5632,0.5441,0.3057,0.8215,0.4238,0.0936,0.1851
1.2272,1.2427,0.8012,1.2925,0.9973,0.6727,0.5068,0.3098,0.4507,0.543,0.3944,0.6315,0.5335,0.8888,0.8845,1.6624,1.2542,0.9742,0.9998,1.3534,1.0173,0.9193,0.8836,0.5741,0.5671,0.3122,0.8238,0.4109,0.1612,0.2002
1.3014,1.2649,0.8017,1.321,1.0063,0.6492,0.4952,0.2677,0.4188,0.5098,0.3584,0.6081,0.5395,0.9225,0.9567,1.7342,1.323,1.0417,1.0697,1.4122,1.0633,0.992,0.9499,0.5837,0.588,0.3192,0.8121,0.3977,0.2355,0.2175
1.3603,1.2804,0.8011,1.3371,1.0054,0.6196,0.4742,0.2157,0.3741,0.469,0.3097,0.5771,0.5435,0.9525,1.0178,1.7992,1.3805,1.109,1.1313,1.4661,1.1052,1.0578,1.0079,0.5936,0.6074,0.328,0.7887,0.3889,0.3089,0.2348
1.403,1.2933,0.804,1.3449,0.9972,0.588,0.4476,0.1591,0.3227,0.4273,0.2555,0.5448,0.5473,0.9774,1.065,1.8557,1.4257,1.1722,1.182,1.5137,1.1421,1.1131,1.056,0.6048,0.6257,0.3392,0.7572,0.388,0.373,0.2508
1.4306,1.3083,0.8141,1.3493,0.9852,0.5586,0.4201,0.1038,0.2712,0.3915,0.2035,0.5173,0.5525,0.9963,1.0972,1.9026,1.4591,1.227,1.2211,1.5543,1.1734,1.156,1.0937,0.6183,0.6434,0.3533,0.7224,0.3973,0.42,0.265
1.446,1.3291,0.8333,1.355,0.9734,0.5351,0.3964,0.0559,0.2259,0.3669,0.1609,0.499,0.5605,1.0091,1.115,1.939,1.4826,1.2702,1.249,1.5871,1.1995,1.1859,1.1212,0.6344,0.661,0.37,0.6896,0.4166,0.4444,0.2785
1.4528,1.3569,0.8621,1.3647,0.9651,0.5204,0.3804,0.0209,0.1919,0.3571,0.1329,0.4922,0.572,1.0164,1.1206,1.9645,1.4986,1.2997,1.2676,1.6112,1.2206,1.2038,1.1391,0.6532,0.6783,0.3887,0.6639,0.4441,0.4437,0.2923
1.4546,1.3903,0.8986,1.3789,0.9621,0.5154,0.3745,0.0022,0.1726,0.3627,0.1218,0.497,0.5869,1.0187,1.1171,1.9784,1.5093,1.3154,1.2789,1.626,1.2365,1.2116,1.1485,0.6741,0.6948,0.4083,0.6487,0.476,0.4196,0.3073
1.4533,1.4246,0.9392,1.3954,0.9643,0.5194,0.379,0.0012,0.1689,0.3814,0.1269,0.5111,0.6033,1.0161,1.1079,1.9807,1.5162,1.3184,1.2847,1.6306,1.2466,1.2114,1.1498,0.6952,0.709,0.4267,0.6445,0.5077,0.3773,0.3235
1.4497,1.4536,0.9787,1.4099,0.9695,0.5295,0.3919,0.0163,0.1793,0.408,0.1444,0.5301,0.6183,1.0078,1.0955,1.9711,1.5191,1.3098,1.2853,1.6245,1.249,1.2048,1.1428,0.7135,0.7185,0.4417,0.6483,0.5338,0.325,0.3393
1.4426,1.4701,1.0113,1.4178,0.9736,0.5419,0.4091,0.0433,0.2,0.4356,0.1682,0.5488,0.6277,0.9925,1.081,1.9494,1.5164,1.2902,1.28,1.6072,1.2418,1.1926,1.1271,0.7251,0.7204,0.4503,0.6543,0.5497,0.2721,0.3524
1.4304,1.4679,1.0312,1.415,0.9723,0.5523,0.4254,0.0762,0.2256,0.4565,0.1913,0.5612,0.6275,0.9686,1.0632,1.9153,1.5054,1.2588,1.2667,1.5786,1.2229,1.1743,1.1014,0.7256,0.7119,0.4499,0.6551,0.5518,0.2269,0.3603
1.4109,1.4436,1.0346,1.3993,0.9621,0.5574,0.4353,0.1083,0.25,0.4641,0.2068,0.5622,0.6144,0.9351,1.0397,1.8687,1.4831,1.2147,1.2429,1.5397,1.1913,1.149,1.0651,0.7119,0.6912,0.4387,0.6441,0.5382,0.1947,0.3616
1.3832,1.3972,1.0199,1.3718,0.9414,0.5557,0.4344,0.1334,0.2677,0.4539,0.2097,0.5488,0.5872,0.8927,1.0071,1.8107,1.4474,1.1579,1.2069,1.492,1.1476,1.1162,1.0189,0.6826,0.6584,0.4167,0.6174,0.5094,0.1774,0.3566
1.3476,1.3326,0.9889,1.3359,0.9114,0.5478,0.4204,0.1475,0.2746,0.425,0.1977,0.5201,0.547,0.8435,0.963,1.7431,1.3982,1.091,1.1586,1.4385,1.0941,1.0762,0.9651,0.6396,0.6157,0.3855,0.5755,0.4682,0.1727,0.3476
1.3056,1.2567,0.9456,1.297,0.875,0.5361,0.3934,0.1484,0.2684,0.3794,0.171,0.4781,0.4973,0.7909,0.9061,1.6692,1.3377,1.0198,1.0995,1.3824,1.0343,1.0308,0.9078,0.5869,0.5673,0.3485,0.5232,0.419,0.1759,0.3385
1.2593,1.1775,0.8956,1.2603,0.8362,0.5235,0.3551,0.1364,0.2486,0.3221,0.1325,0.427,0.4426,0.7384,0.8369,1.5928,1.2694,0.9516,1.0327,1.3266,0.9722,0.9818,0.8513,0.53,0.5178,0.3096,0.4676,0.3669,0.1807,0.3335
1.2105,1.1025,0.8448,1.2297,0.7985,0.5123,0.3084,0.1137,0.2166,0.2592,0.0866,0.3724,0.3875,0.6887,0.7575,1.5176,1.1977,0.8943,0.9618,1.2731,0.911,0.9313,0.7996,0.4744,0.4717,0.2724,0.4167,0.3169,0.1814,0.3363
1.1601,1.0377,0.799,1.2067,0.7644,0.504,0.257,0.0839,0.1753,0.197,0.0384,0.3203,0.3363,0.6437,0.6708,1.447,1.1268,0.8535,0.8907,1.2231,0.8534,0.881,0.7552,0.4247,0.4319,0.2394,0.377,0.2731,0.1737,0.3485
1.1078,0.9867,0.7627,1.1913,0.7353,0.4987,0.2051,0.0517,0.1287,0.1414,-0.0067,0.2759,0.292,0.6045,0.5804,1.3835,1.0602,0.8308,0.8231,1.1771,0.8012,0.8323,0.7194,0.3839,0.4,0.2121,0.3518,0.2381,0.1553,0.3694
1.0529,0.9506,0.739,1.1821,0.7118,0.4958,0.1567,0.0219,0.0816,0.0963,-0.0444,0.243,0.257,0.5717,0.4897,1.3288,1.0005,0.8231,0.7622,1.1354,0.7561,0.7863,0.6922,0.3537,0.3762,0.1904,0.3407,0.2132,0.126,0.3957
0.9943,0.9285,0.729,1.1774,0.694,0.4947,0.1153,-0.0011,0.0384,0.0639,-0.0716,0.223,0.2323,0.546,0.4018,1.2833,0.9487,0.8234,0.7105,1.0983,0.7193,0.7446,0.6734,0.3345,0.3598,0.1737,0.3405,0.1982,0.0873,0.4227
0.9317,0.9176,0.7313,1.176,0.6821,0.4951,0.0834,-0.0147,0.0027,0.0444,-0.0874,0.2146,0.2183,0.5275,0.3193,1.2466,0.9054,0.8228,0.6697,1.0663,0.692,0.7091,0.6625,0.3258,0.35,0.161,0.3454,0.1918,0.0422,0.4454
0.8666,0.914,0.7424,1.177,0.6758,0.4972,0.0617,-0.0186,-0.0239,0.036,-0.0932,0.2145,0.2142,0.5164,0.2443,1.217,0.8699,0.8128,0.6403,1.0399,0.6748,0.6816,0.6597,0.3263,0.3458,0.1512,0.3498,0.1917,-0.0052,0.46
0.8025,0.9139,0.7573,1.1797,0.6745,0.501,0.0494,-0.0148,-0.0416,0.0354,-0.092,0.2182,0.2183,0.5121,0.1791,1.1926,0.8417,0.7887,0.6222,1.0193,0.6675,0.6642,0.6653,0.3342,0.3463,0.1438,0.3491,0.1954,-0.0501,0.465
0.7445,0.9136,0.7708,1.1836,0.6773,0.5066,0.0436,-0.0074,-0.0529,0.0387,-0.0885,0.2206,0.228,0.5132,0.1262,1.1712,0.82,0.7509,0.6143,1.0043,0.6691,0.6579,0.6792,0.3469,0.3507,0.1382,0.3409,0.1999,-0.0879,0.4613
0.6987,0.9105,0.7786,1.1879,0.6827,0.5133,0.0406,-0.0016,-0.0615,0.0413,-0.088,0.2176,0.24,0.5177,0.088,1.1514,0.8043,0.7054,0.6148,0.994,0.6776,0.6631,0.7009,0.3612,0.3579,0.1342,0.3259,0.2024,-0.1145,0.4528
0.6709,0.9037,0.7783,1.1921,0.6891,0.5197,0.0363,-0.0026,-0.0713,0.0396,-0.0951,0.2063,0.2506,0.5233,0.0669,1.133,0.7948,0.6618,0.6223,0.9878,0.6907,0.6791,0.7292,0.3736,0.3665,0.1316,0.3065,0.2007,-0.1275,0.4448
0.665,0.894,0.7704,1.1957,0.6956,0.525,0.0281,-0.0136,-0.0857,0.0314,-0.1124,0.186,0.2571,0.5282,0.0642,1.1174,0.7924,0.6313,0.6356,0.9853,0.7066,0.7043,0.7625,0.3816,0.3753,0.1303,0.287,0.1937,-0.126,0.4427
0.6815,0.8843,0.7578,1.1998,0.7021,0.5288,0.0151,-0.0352,-0.106,0.0165,-0.1397,0.1584,0.2581,0.5318,0.0799,1.1079,0.7989,0.6239,0.6548,0.9871,0.7244,0.7372,0.7994,0.3842,0.3841,0.1307,0.2718,0.1818,-0.1113,0.4512
0.7173,0.8796,0.7457,1.2065,0.7097,0.5327,-0.0011,-0.0649,-0.1312,-0.0029,-0.174,0.1272,0.2541,0.535,0.1122,1.1086,0.8171,0.6452,0.6811,0.9951,0.7448,0.7763,0.8391,0.3825,0.3939,0.1339,0.2648,0.1672,-0.0867,0.4722
0.7655,0.8861,0.7397,1.2191,0.7204,0.5395,-0.0169,-0.0976,-0.1581,-0.0225,-0.2096,0.098,0.2476,0.5401,0.1576,1.1237,0.8492,0.6959,0.7158,1.012,0.7692,0.8206,0.8816,0.3792,0.4064,0.1414,0.2686,0.1528,-0.0569,0.5049
0.8171,0.9094,0.7444,1.2409,0.7362,0.5526,-0.0277,-0.1267,-0.1818,-0.0371,-0.2396,0.0766,0.2418,0.5495,0.2112,1.1553,0.8967,0.7704,0.7598,1.0399,0.7994,0.8691,0.9267,0.3783,0.4242,0.1546,0.2838,0.1425,-0.0272,0.5453
0.863,0.9525,0.7618,1.2736,0.7581,0.5748,-0.0293,-0.1463,-0.1971,-0.0415,-0.2576,0.0683,0.2399,0.5655,0.2673,1.2028,0.9581,0.8581,0.8117,1.0794,0.8359,0.9197,0.9736,0.3831,0.4488,0.1743,0.3094,0.139,-0.0027,0.5875
0.8961,1.014,0.7908,1.3161,0.7853,0.6068,-0.0191,-0.1518,-0.1995,-0.0318,-0.2585,0.0768,0.244,0.5884,0.3198,1.2614,1.0291,0.9458,0.8676,1.1284,0.8771,0.9692,1.0198,0.3954,0.48,0.2003,0.3426,0.1443,0.013,0.625
0.9127,1.0868,0.8272,1.3641,0.8152,0.6465,0.003,-0.1412,-0.1861,-0.0062,-0.2402,0.1036,0.2545,0.6171,0.3631,1.3225,1.1021,1.02,0.9213,1.1813,0.9191,1.013,1.0612,0.4147,0.5156,0.2305,0.3795,0.1581,0.0188,0.6526
0.9133,1.1586,0.8642,1.41,0.8431,0.6888,0.035,-0.1155,-0.1561,0.0347,-0.2031,0.1473,0.2705,0.6485,0.3919,1.3751,1.1671,1.0697,0.9646,1.2301,0.9562,1.0455,1.0916,0.4381,0.551,0.2617,0.4157,0.179,0.016,0.6672
0.9021,1.2147,0.8938,1.4449,0.8643,0.7271,0.0727,-0.0779,-0.1109,0.0883,-0.1504,0.2043,0.2897,0.6785,0.4021,1.4074,1.2131,1.0887,0.9898,1.2651,0.9817,1.061,1.1045,0.4611,0.5805,0.2898,0.4473,0.2038,0.0084,0.6691
0.8853,1.2401,0.9077,1.46,0.8741,0.7539,0.1115,-0.0336,-0.0534,0.1506,-0.0867,0.269,0.3092,0.7033,0.3904,1.4094,1.2307,1.0759,0.9902,1.2773,0.9893,1.055,1.0935,0.4785,0.5981,0.3107,0.471,0.2292,0.0014,0.6616
0.8696,1.2239,0.8994,1.4492,0.8698,0.7631,0.1467,0.0121,0.0122,0.2171,-0.0174,0.3356,0.3267,0.7198,0.3553,1.3748,1.2136,1.035,0.9622,1.2603,0.975,1.0248,1.0543,0.4855,0.5995,0.3214,0.4846,0.2517,0.0007,0.6499
0.8605,1.1615,0.8651,1.4102,0.8506,0.7516,0.1752,0.0548,0.0817,0.2838,0.0527,0.399,0.3403,0.7264,0.2975,1.3023,1.1602,0.9728,0.9059,1.2117,0.9371,0.9705,0.9855,0.4791,0.5826,0.3203,0.4877,0.2688,0.0107,0.6393
0.8607,1.0556,0.8052,1.345,0.818,0.7198,0.1956,0.0915,0.1517,0.348,0.1204,0.4563,0.3493,0.7235,0.2203,1.1961,1.0741,0.8974,0.825,1.1337,0.8778,0.8954,0.8899,0.4588,0.5482,0.3079,0.4811,0.2795,0.0334,0.6335
0.8703,0.9165,0.725,1.2602,0.7757,0.6718,0.2088,0.1219,0.2202,0.4087,0.1842,0.507,0.3541,0.7132,0.1293,1.0651,0.9639,0.8161,0.7263,1.0335,0.8024,0.8052,0.7739,0.427,0.5002,0.2869,0.4675,0.2844,0.0678,0.6341
0.8867,0.7595,0.6334,1.1647,0.7282,0.6147,0.2173,0.1475,0.2866,0.4664,0.2444,0.5529,0.356,0.6987,0.0322,0.9215,0.8414,0.7351,0.619,0.9216,0.7186,0.7076,0.6474,0.3883,0.4448,0.2611,0.4505,0.2855,0.1096,0.64
