FP1,F3,F7,FC3,C3,C5,P3,P7,PO7,PO3,O1,Oz,Pz,CPz,FP2,Fz,F4,F8,FC4,FCz,Cz,C4,C6,P4,P8,PO8,PO4,O2,(corr) HEOG,(corr) VEOG
-0.5204,-1.5288,-1.2315,-1.9746,-1.7694,-1.7795,-0.5848,-0.3264,-0.1849,-0.2196,0.1851,0.1655,-0.7072,-1.2292,-0.4944,-1.3382,-1.07,-0.9691,-1.1506,-1.5482,-1.497,-1.2021,-1.0534,-0.7743,-0.702,-0.3102,-0.5028,0.0054,0.4024,0.1274
-0.4092,-1.2078,-0.9515,-1.5168,-1.3718,-1.3473,-0.365,-0.17,-0.1129,-0.0921,0.2459,0.1614,-0.5324,-0.9854,-0.3505,-1.0609,-0.851,-0.7476,-0.9571,-1.2338,-1.1885,-1.018,-0.9596,-0.7015,-0.678,-0.3135,-0.5008,-0.0706,0.3745,0.0534
-0.3062,-0.9073,-0.6877,-1.0836,-0.993,-0.9378,-0.1588,-0.0248,-0.0455,0.0263,0.3004,0.156,-0.3681,-0.7551,-0.2192,-0.8034,-0.652,-0.545,-0.7804,-0.9375,-0.8983,-0.8486,-0.8695,-0.6316,-0.6548,-0.3165,-0.495,-0.1394,0.3451,-0.0137
-0.2185,-0.6454,-0.4553,-0.6988,-0.6516,-0.5729,0.0207,0.0979,0.0119,0.1261,0.3418,0.1479,-0.2246,-0.551,-0.1109,-0.5833,-0.4902,-0.3767,-0.6349,-0.6759,-0.6434,-0.7056,-0.7865,-0.5669,-0.6321,-0.3185,-0.4831,-0.195,0.3128,-0.0681
-0.1527,-0.4376,-0.2674,-0.3829,-0.3634,-0.2701,0.1625,0.1887,0.0545,0.2001,0.3657,0.1366,-0.1098,-0.3835,-0.0351,-0.4148,-0.378,-0.2524,-0.5313,-0.4635,-0.4378,-0.5975,-0.7136,-0.5083,-0.6085,-0.3173,-0.4628,-0.2326,0.2763,-0.1048
-0.1147,-0.2948,-0.1332,-0.1508,-0.1403,-0.0413,0.2585,0.2417,0.0792,0.2444,0.3705,0.1236,-0.0282,-0.2594,0.0009,-0.3069,-0.3217,-0.1753,-0.4751,-0.311,-0.2912,-0.5274,-0.6523,-0.4551,-0.5815,-0.3089,-0.4325,-0.2484,0.2344,-0.1202
-0.1075,-0.2212,-0.0573,-0.0105,0.0112,0.108,0.3057,0.2549,0.0851,0.2589,0.3578,0.1112,0.0197,-0.1809,-0.0058,-0.262,-0.3202,-0.1424,-0.4655,-0.2234,-0.2069,-0.4926,-0.6029,-0.4054,-0.5476,-0.2891,-0.3915,-0.2407,0.1867,-0.1127
-0.1307,-0.2137,-0.0382,0.039,0.0903,0.1788,0.3062,0.2309,0.0742,0.2472,0.3314,0.102,0.0374,-0.1452,-0.0526,-0.2749,-0.3655,-0.1454,-0.4954,-0.199,-0.1811,-0.4851,-0.5638,-0.356,-0.5036,-0.2542,-0.34,-0.2105,0.134,-0.0832
-0.1791,-0.2611,-0.0684,0.008,0.1029,0.1786,0.2672,0.1759,0.0502,0.2148,0.2964,0.0976,0.0312,-0.1452,-0.1313,-0.3344,-0.4443,-0.1734,-0.5527,-0.2291,-0.2038,-0.4931,-0.5323,-0.3043,-0.4474,-0.2034,-0.2801,-0.1621,0.0779,-0.0352
-0.2444,-0.3463,-0.1356,-0.0846,0.0602,0.12,0.1998,0.0988,0.0184,0.1682,0.2569,0.0974,0.0083,-0.1712,-0.229,-0.4245,-0.5411,-0.2152,-0.6225,-0.2993,-0.2603,-0.5034,-0.5057,-0.2493,-0.3794,-0.1395,-0.2164,-0.1035,0.0215,0.025
-0.3166,-0.4485,-0.2246,-0.2147,-0.0229,0.0192,0.1163,0.0099,-0.0163,0.1127,0.2145,0.098,-0.0248,-0.2129,-0.3314,-0.5278,-0.6405,-0.2614,-0.6906,-0.3926,-0.335,-0.5046,-0.4817,-0.1928,-0.3033,-0.0701,-0.156,-0.0456,-0.032,0.0904
-0.386,-0.548,-0.3204,-0.3568,-0.1303,-0.1064,0.0284,-0.0808,-0.0501,0.0518,0.1686,0.0935,-0.0638,-0.2616,-0.4251,-0.6287,-0.7305,-0.3065,-0.7459,-0.4922,-0.4137,-0.4891,-0.4594,-0.1396,-0.2257,-0.0057,-0.108,-0.0006,-0.0789,0.1535
-0.446,-0.6293,-0.4101,-0.4887,-0.2472,-0.2396,-0.0545,-0.1643,-0.0808,-0.0125,0.1164,0.0776,-0.1068,-0.3112,-0.5012,-0.7162,-0.8035,-0.3484,-0.7821,-0.5848,-0.4864,-0.4543,-0.4392,-0.0964,-0.155,0.0421,-0.081,0.0205,-0.1162,0.2088
-0.4928,-0.6841,-0.4848,-0.5945,-0.3613,-0.3654,-0.1263,-0.2334,-0.1071,-0.0785,0.0552,0.0458,-0.1533,-0.3579,-0.5557,-0.7844,-0.8564,-0.3885,-0.7977,-0.6617,-0.5474,-0.4025,-0.4222,-0.0699,-0.0999,0.0637,-0.0808,0.0108,-0.1417,0.2526
-0.5261,-0.711,-0.5396,-0.6662,-0.4636,-0.4713,-0.1837,-0.2825,-0.129,-0.1437,-0.0158,-0.003,-0.2032,-0.4,-0.5896,-0.8327,-0.8901,-0.4293,-0.7951,-0.7189,-0.595,-0.3395,-0.4091,-0.065,-0.0671,0.0545,-0.1088,-0.0303,-0.1548,0.2839
-0.5475,-0.7148,-0.5726,-0.7024,-0.5474,-0.548,-0.2259,-0.3083,-0.1463,-0.2042,-0.0941,-0.0651,-0.2546,-0.4361,-0.6074,-0.8639,-0.9071,-0.4731,-0.7783,-0.7562,-0.6296,-0.2734,-0.3999,-0.0827,-0.0596,0.0162,-0.1605,-0.0968,-0.1562,0.3036
-0.5593,-0.7031,-0.5845,-0.7062,-0.608,-0.5886,-0.2536,-0.3094,-0.159,-0.2546,-0.1742,-0.1324,-0.3045,-0.4646,-0.6145,-0.8825,-0.9107,-0.5208,-0.7515,-0.7758,-0.6526,-0.2125,-0.3939,-0.1197,-0.0763,-0.0432,-0.2267,-0.1767,-0.1483,0.3137
-0.5637,-0.6845,-0.577,-0.6834,-0.6417,-0.5898,-0.2682,-0.2871,-0.1673,-0.2897,-0.2481,-0.1948,-0.3483,-0.4838,-0.6163,-0.8926,-0.9036,-0.5713,-0.718,-0.7807,-0.6645,-0.1644,-0.3897,-0.1695,-0.112,-0.112,-0.2953,-0.2551,-0.1345,0.3167
-0.5623,-0.6659,-0.5529,-0.6405,-0.647,-0.5519,-0.2719,-0.2451,-0.1715,-0.3058,-0.3074,-0.2425,-0.3815,-0.492,-0.6162,-0.8972,-0.8878,-0.622,-0.6806,-0.7741,-0.6657,-0.1346,-0.3864,-0.2235,-0.1589,-0.1769,-0.3543,-0.3176,-0.1186,0.315
-0.5564,-0.652,-0.516,-0.5846,-0.6244,-0.4796,-0.2669,-0.1892,-0.1718,-0.302,-0.3451,-0.2686,-0.401,-0.4881,-0.616,-0.8973,-0.8644,-0.6693,-0.6413,-0.759,-0.6558,-0.126,-0.3836,-0.2731,-0.2081,-0.2268,-0.3945,-0.3533,-0.104,0.3107
-0.5463,-0.6443,-0.4707,-0.5225,-0.5778,-0.382,-0.2554,-0.1269,-0.1687,-0.2812,-0.3574,-0.2707,-0.4055,-0.4724,-0.6154,-0.8924,-0.8344,-0.7093,-0.6024,-0.7377,-0.6349,-0.1388,-0.3812,-0.3116,-0.2512,-0.2546,-0.4108,-0.3574,-0.093,0.3053
-0.5318,-0.6416,-0.4217,-0.4603,-0.513,-0.2709,-0.2395,-0.0659,-0.1622,-0.2489,-0.3441,-0.2513,-0.3962,-0.4462,-0.6127,-0.8805,-0.7982,-0.7378,-0.5661,-0.7116,-0.6033,-0.1701,-0.3796,-0.3348,-0.2815,-0.2582,-0.4031,-0.3314,-0.0869,0.2997
-0.5125,-0.6397,-0.3727,-0.4015,-0.4371,-0.1591,-0.2211,-0.0133,-0.1519,-0.2121,-0.3088,-0.2173,-0.3757,-0.4112,-0.6056,-0.8587,-0.7562,-0.7509,-0.5344,-0.6809,-0.5616,-0.2139,-0.3786,-0.3413,-0.2948,-0.2403,-0.3748,-0.2821,-0.0858,0.294
-0.4877,-0.6322,-0.3262,-0.347,-0.3564,-0.0576,-0.2012,0.0258,-0.1371,-0.1772,-0.2573,-0.1773,-0.3473,-0.3691,-0.5912,-0.8237,-0.7086,-0.7446,-0.5081,-0.6446,-0.5109,-0.262,-0.3764,-0.3313,-0.2892,-0.2066,-0.3313,-0.2194,-0.0891,0.2875
-0.4569,-0.6116,-0.2828,-0.2943,-0.2755,0.0258,-0.1801,0.0486,-0.1168,-0.1487,-0.1968,-0.1399,-0.3134,-0.3208,-0.5676,-0.7727,-0.6552,-0.7156,-0.4868,-0.601,-0.4519,-0.3042,-0.3699,-0.3058,-0.2647,-0.1638,-0.278,-0.1533,-0.0963,0.2794
-0.4207,-0.571,-0.2413,-0.2385,-0.197,0.0875,-0.1573,0.0555,-0.0906,-0.128,-0.1337,-0.111,-0.2752,-0.2663,-0.5334,-0.704,-0.5955,-0.6621,-0.4679,-0.5485,-0.3851,-0.33,-0.3543,-0.2652,-0.2221,-0.1178,-0.2185,-0.0918,-0.1069,0.2688
-0.3797,-0.5048,-0.199,-0.1742,-0.121,0.128,-0.1316,0.049,-0.0588,-0.1131,-0.0729,-0.0928,-0.2317,-0.2043,-0.4888,-0.6175,-0.5284,-0.584,-0.4466,-0.4854,-0.3104,-0.3294,-0.3237,-0.2087,-0.1623,-0.072,-0.1537,-0.0391,-0.1209,0.255
-0.335,-0.4103,-0.153,-0.0967,-0.0466,0.1509,-0.1015,0.0332,-0.023,-0.1,-0.0174,-0.0836,-0.1806,-0.1333,-0.4344,-0.5142,-0.4523,-0.4837,-0.4161,-0.4109,-0.2275,-0.2948,-0.2721,-0.1349,-0.0864,-0.0276,-0.0823,0.0046,-0.1387,0.2377
-0.2864,-0.288,-0.0999,-0.0038,0.0276,0.1615,-0.0655,0.0126,0.0139,-0.084,0.0316,-0.0787,-0.1191,-0.0514,-0.3714,-0.396,-0.3644,-0.3653,-0.3681,-0.3238,-0.1354,-0.2218,-0.1945,-0.0421,0.0045,0.0166,-0.0023,0.0423,-0.1599,0.2165
-0.2326,-0.1416,-0.0376,0.1039,0.1027,0.1657,-0.0231,-0.0089,0.0484,-0.0609,0.0737,-0.0723,-0.0448,0.0423,-0.301,-0.265,-0.2616,-0.2344,-0.2942,-0.2232,-0.033,-0.1102,-0.0883,0.0699,0.1084,0.0629,0.0881,0.0782,-0.1839,0.1905
-0.1706,0.0223,0.0351,0.2224,0.1788,0.1687,0.0249,-0.0286,0.0768,-0.0285,0.109,-0.0596,0.0429,0.1474,-0.2233,-0.1227,-0.1404,-0.0968,-0.1874,-0.1078,0.0805,0.0354,0.0455,0.1983,0.222,0.1127,0.1885,0.1162,-0.2087,0.1585
-0.0971,0.1954,0.118,0.3463,0.2551,0.1746,0.0766,-0.0451,0.0965,0.0132,0.1372,-0.0378,0.1423,0.2614,-0.1378,0.03,0.0018,0.0425,-0.0442,0.0235,0.2049,0.2058,0.2018,0.3371,0.3401,0.1663,0.2958,0.158,-0.2315,0.1188
-0.0092,0.3693,0.2095,0.4695,0.3302,0.1867,0.1292,-0.0575,0.1068,0.0624,0.1579,-0.0073,0.2493,0.38,-0.0436,0.1928,0.1656,0.1795,0.1343,0.1712,0.339,0.3885,0.3712,0.4765,0.4557,0.2218,0.4036,0.2029,-0.2487,0.0697
0.0946,0.5365,0.3071,0.5869,0.4024,0.2073,0.1797,-0.0645,0.1098,0.1161,0.1709,0.0297,0.3577,0.4975,0.0608,0.3654,0.3492,0.3115,0.3415,0.3348,0.4796,0.5687,0.5414,0.6044,0.5607,0.2752,0.504,0.2483,-0.2566,0.01
0.2138,0.6919,0.4079,0.6949,0.4707,0.2382,0.2257,-0.064,0.1096,0.171,0.1765,0.0694,0.4602,0.6075,0.1761,0.5469,0.5475,0.4372,0.566,0.5116,0.6222,0.7319,0.699,0.7083,0.6467,0.3214,0.5882,0.29,-0.2516,-0.0599
0.3457,0.832,0.5089,0.7914,0.5343,0.2803,0.2657,-0.0531,0.112,0.2237,0.1755,0.1074,0.5492,0.7034,0.3023,0.735,0.7527,0.5556,0.7925,0.6966,0.7609,0.8651,0.8315,0.7773,0.7064,0.3549,0.6486,0.3237,-0.2313,-0.1381
0.4857,0.9555,0.6071,0.8754,0.5934,0.3337,0.2989,-0.0285,0.1221,0.271,0.1688,0.1403,0.6176,0.7796,0.4378,0.925,0.9544,0.6651,1.0047,0.8822,0.8885,0.9586,0.9295,0.8042,0.7343,0.3714,0.6796,0.3461,-0.1943,-0.2208
0.6271,1.061,0.6986,0.9453,0.6476,0.3964,0.3244,0.0117,0.1432,0.3099,0.1568,0.165,0.66,0.8316,0.5789,1.11,1.1413,0.7637,1.1872,1.0585,0.9978,1.0073,0.9879,0.7868,0.7279,0.3683,0.6792,0.3551,-0.141,-0.3025
0.7614,1.1469,0.7792,0.9988,0.6962,0.4643,0.3409,0.0669,0.1755,0.3371,0.1394,0.1795,0.6728,0.8566,0.7195,1.2805,1.3018,0.8481,1.3277,1.2143,1.0816,1.0102,1.0065,0.7286,0.6883,0.3457,0.6488,0.3499,-0.0739,-0.3767
0.8792,1.2104,0.8433,1.0317,0.7371,0.5311,0.346,0.1332,0.2151,0.3493,0.1154,0.1825,0.6551,0.8534,0.8514,1.4255,1.4257,0.9146,1.4186,1.3384,1.1338,0.9706,0.9895,0.6379,0.6205,0.3059,0.5929,0.3312,0.0026,-0.4368
0.9709,1.2474,0.885,1.0387,0.767,0.5888,0.3368,0.2028,0.2547,0.3431,0.0831,0.173,0.6081,0.8228,0.965,1.534,1.5051,0.9595,1.4572,1.4211,1.1503,0.8951,0.9444,0.5263,0.5327,0.2532,0.5185,0.3005,0.0822,-0.4773
1.0281,1.2536,0.8986,1.0145,0.7812,0.6286,0.3103,0.2651,0.2851,0.3158,0.0406,0.1509,0.5356,0.7678,1.0503,1.5967,1.5358,0.9807,1.4462,1.4559,1.1294,0.7929,0.8804,0.4071,0.4355,0.194,0.4341,0.2602,0.1577,-0.4945
1.045,1.2263,0.8802,0.9556,0.7756,0.6432,0.2648,0.3088,0.2968,0.2658,-0.0131,0.1169,0.4436,0.6931,1.0991,1.6079,1.5179,0.9778,1.3923,1.4406,1.0733,0.6753,0.8077,0.293,0.3403,0.1354,0.3484,0.2136,0.2218,-0.4876
1.0199,1.1662,0.8294,0.8626,0.7472,0.6278,0.2014,0.3244,0.2822,0.194,-0.0776,0.0731,0.3402,0.6057,1.1065,1.5672,1.4562,0.9533,1.3061,1.3786,0.988,0.5551,0.7358,0.1954,0.2579,0.085,0.2701,0.1648,0.2675,-0.4583
0.956,1.079,0.7501,0.7419,0.6968,0.5826,0.1242,0.3058,0.2376,0.104,-0.1503,0.0236,0.2351,0.5145,1.0722,1.4804,1.3603,0.9125,1.2004,1.2789,0.8835,0.4461,0.6729,0.1228,0.1971,0.0497,0.2068,0.1188,0.2897,-0.411
0.8612,0.9756,0.6514,0.606,0.6295,0.5129,0.0409,0.2529,0.1644,0.0032,-0.2268,-0.0263,0.1391,0.4294,1.0017,1.3593,1.2435,0.8629,1.0895,1.1555,0.7733,0.3623,0.6259,0.0811,0.1633,0.0353,0.1649,0.0812,0.286,-0.3524
0.7483,0.8706,0.5465,0.4719,0.555,0.4294,-0.0388,0.1713,0.0692,-0.0987,-0.3003,-0.0699,0.0626,0.3611,0.9055,1.2205,1.1216,0.8135,0.9872,1.0253,0.6726,0.316,0.6,0.0731,0.1586,0.0449,0.1492,0.0573,0.2567,-0.2901
0.6329,0.7797,0.4505,0.3586,0.4862,0.3467,-0.1039,0.0718,-0.0365,-0.1899,-0.3628,-0.1004,0.0149,0.3192,0.7979,1.0825,1.0103,0.7735,0.9057,0.9061,0.5964,0.3167,0.5991,0.0996,0.1817,0.0795,0.1627,0.0513,0.2055,-0.2322
0.5316,0.7168,0.3786,0.283,0.4371,0.2806,-0.1449,-0.0315,-0.1388,-0.2585,-0.406,-0.1117,0.0029,0.3108,0.6951,0.9631,0.9226,0.7513,0.8537,0.8131,0.5568,0.3687,0.6256,0.1589,0.2287,0.137,0.2062,0.0657,0.1386,-0.1857
0.4599,0.6912,0.3428,0.2569,0.4193,0.2446,-0.1552,-0.1237,-0.2228,-0.2945,-0.4227,-0.0995,0.0298,0.3398,0.6126,0.876,0.8672,0.7525,0.8352,0.7571,0.5611,0.4703,0.6799,0.2478,0.2938,0.213,0.2785,0.1005,0.0642,-0.1557
0.4289,0.7061,0.3493,0.284,0.4396,0.247,-0.1323,-0.1919,-0.2756,-0.2913,-0.4079,-0.0621,0.0947,0.4055,0.5625,0.829,0.8464,0.7798,0.8487,0.7422,0.6103,0.6132,0.7594,0.3613,0.37,0.3017,0.376,0.1537,-0.0092,-0.1448
0.4437,0.7573,0.3977,0.3593,0.4978,0.2889,-0.0786,-0.2269,-0.2887,-0.247,-0.3599,-0.0008,0.1925,0.5022,0.5511,0.8223,0.8563,0.8315,0.8876,0.7656,0.6985,0.7827,0.8585,0.4922,0.4496,0.3956,0.4926,0.2208,-0.0739,-0.1524
0.5016,0.8345,0.4804,0.4692,0.5864,0.364,-0.0001,-0.2248,-0.2588,-0.1644,-0.2804,0.0804,0.3139,0.62,0.5786,0.8492,0.8878,0.9023,0.9404,0.8183,0.8138,0.9604,0.9679,0.6312,0.5248,0.4871,0.6203,0.2961,-0.1236,-0.1752
0.5928,0.9229,0.5843,0.5946,0.692,0.4602,0.0942,-0.1864,-0.1887,-0.0509,-0.1748,0.1754,0.4471,0.7459,0.6383,0.8974,0.9285,0.9842,0.9938,0.887,0.9402,1.126,1.0755,0.7676,0.5879,0.5687,0.7494,0.3734,-0.1543,-0.2076
0.7025,1.0067,0.6935,0.7149,0.7988,0.5629,0.1944,-0.117,-0.0863,0.0831,-0.0509,0.2768,0.5795,0.8662,0.719,0.9518,0.9651,1.0678,1.0341,0.9571,1.0611,1.2609,1.168,0.8896,0.6324,0.6338,0.8701,0.4465,-0.1649,-0.2434
0.8141,1.073,0.7937,0.8132,0.8932,0.659,0.2921,-0.0241,0.0372,0.2263,0.0824,0.3776,0.6994,0.9691,0.8071,0.9983,0.987,1.1438,1.0511,1.0159,1.1619,1.3512,1.2333,0.9867,0.6539,0.6781,0.9734,0.5105,-0.1565,-0.2767
0.9137,1.115,0.8751,0.8805,0.9676,0.7405,0.382,0.0841,0.1695,0.3687,0.2163,0.4722,0.7988,1.0478,0.8902,1.0273,0.9884,1.2055,1.0402,1.0559,1.2341,1.3908,1.2629,1.0509,0.6512,0.7001,1.0529,0.5626,-0.1325,-0.3033
0.9929,1.1345,0.9354,0.9178,1.0231,0.8068,0.4635,0.2006,0.2995,0.5036,0.3437,0.5578,0.8752,1.1016,0.9597,1.0362,0.9709,1.2498,1.0047,1.0773,1.2772,1.3828,1.2543,1.0793,0.627,0.7015,1.1062,0.6025,-0.0974,-0.322
1.0507,1.1413,0.9804,0.9363,1.0697,0.8649,0.5406,0.3204,0.4192,0.6277,0.4602,0.6341,0.9317,1.1375,1.0129,1.0316,0.9437,1.2787,0.9566,1.088,1.2993,1.3402,1.2123,1.0752,0.5876,0.6876,1.1357,0.6326,-0.0562,-0.3344
1.0941,1.1523,1.0224,0.9549,1.1241,0.9271,0.6208,0.4406,0.5243,0.7418,0.5643,0.7031,0.9769,1.1686,1.0541,1.0284,0.9238,1.2992,0.9154,1.1041,1.3163,1.2846,1.1497,1.048,0.542,0.6655,1.1477,0.6569,-0.0136,-0.3447
1.1361,1.1877,1.0775,0.9959,1.2057,1.0082,0.7133,0.5596,0.6138,0.8488,0.6566,0.7679,1.0231,1.2119,1.0935,1.048,0.9338,1.3225,0.9063,1.1466,1.3493,1.2439,1.0857,1.0126,0.5,0.6434,1.1519,0.6803,0.0275,-0.3594
1.1939,1.2677,1.1629,1.0811,1.3322,1.1212,0.826,0.6765,0.6894,0.9525,0.7389,0.8316,1.0834,1.2851,1.1468,1.1157,0.9991,1.3631,0.9563,1.239,1.4212,1.2472,1.0434,0.9869,0.4709,0.6292,1.1592,0.7073,0.066,-0.3859
1.2852,1.4088,1.2924,1.2276,1.5152,1.2744,0.963,0.79,0.7536,1.0554,0.8128,0.8955,1.1687,1.4028,1.2322,1.2557,1.143,1.4355,1.089,1.4022,1.5517,1.3203,1.0459,0.9886,0.4611,0.6288,1.1795,0.7407,0.1028,-0.4312
1.4245,1.6208,1.474,1.4444,1.7567,1.4685,1.1223,0.8974,0.8077,1.1575,0.8782,0.9588,1.2848,1.572,1.3667,1.4857,1.3819,1.5511,1.3196,1.6497,1.7524,1.4795,1.1116,1.0318,0.4738,0.6456,1.2198,0.7814,0.1397,-0.5008
1.6187,1.9035,1.7066,1.7298,2.0469,1.6957,1.2947,0.994,0.8512,1.2545,0.9325,1.0175,1.4297,1.7893,1.5611,1.8113,1.7193,1.7141,1.6491,1.9821,2.0223,1.727,1.2493,1.1233,0.5077,0.6796,1.282,0.8273,0.1786,-0.5967
1.8639,2.2457,1.979,2.0708,2.3644,1.9395,1.464,1.0732,0.8806,1.3381,0.9705,1.0652,1.5925,2.0392,1.816,2.2216,2.142,1.9197,2.0611,2.3842,2.3455,2.0486,1.455,1.2605,0.5579,0.7278,1.3621,0.874,0.2197,-0.7163
2.1442,2.6252,2.2704,2.4433,2.6789,2.1772,1.6099,1.1272,0.8904,1.3969,0.9848,1.0935,1.7549,2.2953,2.1184,2.6887,2.6193,2.1532,2.5221,2.8249,2.6914,2.4146,1.712,1.4314,0.6169,0.7846,1.4511,0.9151,0.2613,-0.8518
2.4335,3.0109,2.5529,2.8152,2.9551,2.3824,1.711,1.1481,0.8741,1.4184,0.9681,1.094,1.8938,2.5244,2.4427,3.1705,3.1069,2.3922,2.9859,3.2611,3.0199,2.7843,1.9926,1.6165,0.6767,0.8429,1.5364,0.9435,0.299,-0.9912
2.6997,3.3669,2.7954,3.1499,3.1587,2.5298,1.7496,1.1298,0.8258,1.3921,0.9144,1.0604,1.9858,2.6931,2.7543,3.6173,3.5538,2.6106,3.401,3.6452,3.2879,3.1135,2.2635,1.7921,0.7305,0.8955,1.6045,0.9528,0.3276,-1.1198
2.9109,3.6571,2.969,3.4113,3.2629,2.5992,1.7155,1.0688,0.742,1.3121,0.8213,0.9895,2.0125,2.7741,3.0161,3.9808,3.9114,2.7837,3.7201,3.933,3.4584,3.3619,2.4918,1.9356,0.7741,0.9363,1.6437,0.9388,0.3416,-1.2229
3.0415,3.8511,3.0522,3.5699,3.2525,2.5792,1.6084,0.9658,0.6228,1.1794,0.6913,0.883,1.9643,2.7531,3.1963,4.2226,4.1424,2.8932,3.9093,4.0928,3.5076,3.5015,2.652,2.0292,0.8068,0.9615,1.6472,0.9006,0.3374,-1.2887
3.0786,3.9303,3.0354,3.6078,3.1283,2.4692,1.4389,0.8261,0.4732,1.003,0.5324,0.7482,1.8439,2.6323,3.2753,4.3223,4.2285,2.9313,3.9546,4.1119,3.4316,3.5221,2.7307,2.0646,0.8307,0.9699,1.6144,0.8413,0.3143,-1.3109
3.0249,3.8923,2.9237,3.5246,2.9077,2.2809,1.2276,0.6599,0.3031,0.8001,0.3579,0.5974,1.6674,2.432,3.2506,4.282,4.1741,2.9022,3.8659,4.0004,3.2478,3.4338,2.7296,2.0441,0.8506,0.9639,1.5519,0.7679,0.2749,-1.2902
2.8992,3.7536,2.738,3.3388,2.6238,2.0372,1.0017,0.4816,0.127,0.5937,0.1852,0.4468,1.4618,2.1882,3.1388,4.1276,4.0066,2.8226,3.676,3.7909,2.9938,3.2657,2.6651,1.9813,0.872,0.9485,1.4727,0.6907,0.2248,-1.2348
2.7335,3.5478,2.5122,3.087,2.3206,1.7702,0.7919,0.3079,-0.0377,0.4102,0.034,0.3152,1.2618,1.9465,2.9719,3.9041,3.7718,2.7186,3.4349,3.5335,2.7208,3.0609,2.5648,1.898,0.9004,0.9313,1.3941,0.6223,0.1713,-1.1593
2.5668,3.3201,2.2877,2.818,2.0462,1.5167,0.6271,0.1564,-0.1726,0.2752,-0.0766,0.221,1.104,1.7542,2.7917,3.6676,3.5252,2.6207,3.2008,3.2869,2.4847,2.8675,2.4617,1.8201,0.9396,0.9207,1.3351,0.5757,0.1221,-1.082
2.4372,3.1183,2.1056,2.5836,1.845,1.3121,0.5309,0.043,-0.2609,0.2091,-0.1301,0.1802,1.0198,1.652,2.6404,3.4743,3.3219,2.5585,3.0287,3.107,2.3354,2.7302,2.3868,1.7726,0.9911,0.9252,1.3125,0.5631,0.0839,-1.021
2.374,2.983,1.999,2.4281,1.7498,1.1837,0.5179,-0.0206,-0.29,0.2246,-0.1156,0.2039,1.0305,1.6662,2.5525,3.3692,3.206,2.5544,2.96,3.036,2.308,2.6814,2.3632,1.7743,1.0536,0.9514,1.3381,0.5933,0.0614,-0.9906
2.3932,2.94,1.9866,2.38,1.7757,1.1457,0.5919,-0.0282,-0.2531,0.324,-0.0288,0.2962,1.1434,1.8054,2.5484,3.3781,3.2034,2.6199,3.0154,3.0955,2.4168,2.7361,2.4013,1.8342,1.1229,1.0024,1.4163,0.6707,0.057,-0.9983
2.4953,2.9957,2.07,2.4468,1.9191,1.1967,0.7457,0.0205,-0.1505,0.4993,0.1259,0.4534,1.3511,2.059,2.6319,3.5041,3.3177,2.7534,3.1919,3.2829,2.6543,2.8902,2.4974,1.9496,1.1918,1.0769,1.5426,0.7928,0.0712,-1.0441
2.6672,3.1383,2.2347,2.6151,2.1587,1.3208,0.9627,0.1196,0.0098,0.7331,0.3365,0.6633,1.6327,2.4006,2.791,3.7288,3.5316,2.9411,3.4649,3.5744,2.9941,3.1223,2.6345,2.1068,1.2513,1.1683,1.7043,0.9504,0.1034,-1.1202
2.8864,3.3412,2.4545,2.855,2.4611,1.4916,1.2192,0.2586,0.2131,1.0013,0.5836,0.9058,1.9573,2.7926,3.0021,4.0171,3.8112,3.1586,3.7935,3.9302,3.3966,3.3985,2.7859,2.2834,1.2909,1.265,1.8819,1.1274,0.1517,-1.2137
3.125,3.5692,2.6964,3.1265,2.7867,1.6784,1.487,0.4234,0.4391,1.2759,0.8422,1.155,2.2886,3.1923,3.2349,4.3251,4.1123,3.3751,4.1281,4.3024,3.8159,3.6778,2.9201,2.4516,1.3001,1.3517,2.0514,1.3022,0.2137,-1.3089
3.3548,3.7849,2.9265,3.387,3.0955,1.8518,1.7366,0.5977,0.6648,1.5283,1.0848,1.3816,2.5893,3.5567,3.457,4.6061,4.3871,3.5572,4.4182,4.6418,4.2055,3.9187,3.0063,2.5827,1.2697,1.4108,2.1877,1.4505,0.2861,-1.3903
3.5495,3.9537,3.1147,3.5968,3.3524,1.9886,1.9403,0.7649,0.8664,1.7324,1.2846,1.557,2.8257,3.848,3.6377,4.8175,4.5908,3.6741,4.6188,4.9042,4.5238,4.0846,3.0199,2.6516,1.1934,1.4259,2.2683,1.5486,0.3644,-1.4449
3.687,4.0477,3.2375,3.7245,3.5306,2.0745,2.0759,0.9101,1.0236,1.868,1.4193,1.6573,2.9716,4.0368,3.7515,4.9253,4.6871,3.7014,4.6963,5.0547,4.7379,4.1487,2.9468,2.6403,1.0692,1.384,2.2764,1.5774,0.4436,-1.4637
3.7509,4.0482,3.2806,3.7494,3.6141,2.1057,2.1296,1.0219,1.1214,1.9232,1.4744,1.6674,3.0115,4.1057,3.7803,4.9079,4.6533,3.6249,4.6326,5.0711,4.8262,4.098,2.7859,2.5417,0.9002,1.2789,2.2039,1.5257,0.5178,-1.4422
3.7311,3.9478,3.2396,3.6647,3.5993,2.0882,2.099,1.094,1.1532,1.8966,1.4457,1.5835,2.943,4.0508,3.7149,4.7585,4.4823,3.4437,4.4268,4.9466,4.7813,3.9346,2.5497,2.3607,0.6949,1.1129,2.0533,1.393,0.5812,-1.3805
3.6253,3.7508,3.1203,3.4776,3.4946,2.0364,1.9932,1.1262,1.1209,1.7964,1.3398,1.414,2.7763,3.8826,3.5562,4.4857,4.1845,3.17,4.0958,4.6898,4.6101,3.6757,2.2622,2.1138,0.4664,0.8969,1.8372,1.1894,0.6284,-1.283
3.4396,3.4737,2.9382,3.2091,3.3198,1.97,1.8318,1.124,1.0346,1.6399,1.1728,1.1777,2.5333,3.624,3.3153,4.1128,3.786,2.8286,3.6717,4.3242,4.3335,3.3504,1.9551,1.827,0.2312,0.6495,1.5769,0.9345,0.6553,-1.1573
3.1885,3.1425,2.7158,2.8913,3.1024,1.911,1.641,1.0972,0.9099,1.4493,0.9675,0.9014,2.2435,3.3073,3.0122,3.6746,3.3248,2.453,3.1972,3.8849,3.9831,2.995,1.6624,1.5312,0.0072,0.3941,1.2992,0.654,0.6591,-1.0134
2.8932,2.7899,2.4796,2.5625,2.8737,1.8794,1.4484,1.0575,0.7653,1.2486,0.7491,0.6141,1.9396,2.9685,2.6732,3.2121,2.8448,2.0803,2.7188,3.4137,3.5964,2.6464,1.415,1.2576,-0.1882,0.1555,1.0318,0.3757,0.6388,-0.8625
2.5787,2.4489,2.2552,2.2602,2.6627,1.8893,1.2782,1.0161,0.618,1.0591,0.5408,0.3436,1.6518,2.6418,2.3271,2.7663,2.3888,1.7454,2.2793,2.952,3.2106,2.3361,1.2354,1.0326,-0.3403,-0.0442,0.7996,0.1245,0.5956,-0.7155
2.27,2.1481,2.0629,2.0143,2.491,1.9448,1.1459,0.9815,0.4815,0.8964,0.3608,0.1112,1.4036,2.3535,2.0005,2.3712,1.9917,1.4755,1.9116,2.5348,2.8564,2.0854,1.1347,0.8733,-0.4394,-0.1888,0.6203,-0.0802,0.5329,-0.5818
1.9884,1.9056,1.9136,1.8403,2.3681,2.0387,1.0565,0.9575,0.3634,0.7679,0.2193,-0.0698,1.2082,2.1182,1.7144,2.0488,1.6758,1.2862,1.6338,2.1851,2.553,1.9023,1.111,0.7855,-0.4815,-0.2702,0.5027,-0.2274,0.456,-0.468
1.7487,1.7268,1.8078,1.737,2.2906,2.1527,1.0046,0.9432,0.2649,0.6738,0.1187,-0.1948,1.0682,1.9378,1.481,1.8067,1.4483,1.1795,1.4484,1.911,2.3065,1.7826,1.1514,0.7639,-0.4693,-0.2888,0.4464,-0.3142,0.3718,-0.3775
1.5575,1.6045,1.736,1.6874,2.2435,2.2609,0.9767,0.9333,0.1823,0.6079,0.0547,-0.2669,0.9766,1.803,1.3039,1.6387,1.303,1.1458,1.3438,1.7069,2.1105,1.7122,1.2345,0.7941,-0.4107,-0.2525,0.4429,-0.3447,0.2879,-0.3103
1.4142,1.5227,1.6826,1.6641,2.2049,2.3355,0.9558,0.92,0.1088,0.5604,0.0185,-0.2942,0.9206,1.6979,1.1787,1.5289,1.2238,1.1668,1.2993,1.5571,1.9508,1.6717,1.3358,0.8565,-0.3179,-0.1749,0.479,-0.3279,0.2118,-0.2642
1.3129,1.4613,1.6306,1.6375,2.1528,2.353,0.9265,0.8948,0.0367,0.5213,-0.0006,-0.2869,0.8853,1.605,1.0964,1.4574,1.1903,1.2206,1.2908,1.4415,1.8107,1.6413,1.432,0.9306,-0.2053,-0.0719,0.5391,-0.2751,0.1496,-0.2353
1.2443,1.4027,1.566,1.5839,2.0702,2.2997,0.8779,0.851,-0.0398,0.482,-0.0126,-0.2556,0.8579,1.5104,1.0465,1.4056,1.1826,1.2859,1.2965,1.3417,1.6762,1.605,1.505,0.9985,-0.087,0.0401,0.609,-0.1985,0.105,-0.2196
1.1989,1.3356,1.4815,1.4909,1.9493,2.1741,0.8064,0.7847,-0.1238,0.4373,-0.0251,-0.2094,0.8294,1.4069,1.0194,1.3605,1.1853,1.346,1.3004,1.2451,1.5393,1.5531,1.544,1.0477,0.0246,0.1474,0.6769,-0.1092,0.0789,-0.2138
1.1685,1.2572,1.3768,1.3598,1.7916,1.986,0.7147,0.6957,-0.2149,0.3851,-0.0426,-0.1555,0.7958,1.294,1.0084,1.3164,1.1893,1.3905,1.2938,1.147,1.3995,1.4822,1.5453,1.0718,0.1205,0.2396,0.7354,-0.0167,0.0694,-0.2155
1.147,1.1715,1.2577,1.2023,1.6063,1.753,0.6104,0.587,-0.3096,0.3263,-0.0662,-0.0986,0.7568,1.1767,1.0092,1.2732,1.1906,1.4153,1.2743,1.0494,1.2614,1.3939,1.5109,1.0697,0.1951,0.311,0.781,0.0717,0.0727,-0.2231
1.13,1.0866,1.1327,1.0359,1.406,1.4952,0.503,0.4646,-0.4022,0.2641,-0.0938,-0.0419,0.7146,1.062,1.0191,1.2341,1.1888,1.4215,1.2429,0.958,1.132,1.2924,1.4456,1.0441,0.2461,0.3599,0.8131,0.151,0.0841,-0.2356
1.1145,1.01,1.0099,0.8774,1.2027,1.2304,0.4012,0.336,-0.4857,0.2021,-0.1207,0.0134,0.6713,0.9562,1.035,1.2015,1.184,1.4127,1.2019,0.8785,1.017,1.1816,1.355,0.999,0.2737,0.3874,0.8333,0.2181,0.0993,-0.2522
1.0971,0.9457,0.8942,0.7378,1.0047,0.9707,0.3108,0.2098,-0.553,0.1446,-0.1409,0.0669,0.6278,0.8617,1.0527,1.1742,1.1752,1.3932,1.1517,0.8134,0.9179,1.0633,1.243,0.9383,0.2789,0.3964,0.843,0.2717,0.1153,-0.2712
1.0734,0.8912,0.7856,0.6195,0.8147,0.7211,0.2334,0.0937,-0.5983,0.0949,-0.1482,0.119,0.5827,0.7763,1.0653,1.1464,1.1585,1.3655,1.0901,0.7596,0.8311,0.9367,1.1118,0.8644,0.2633,0.3903,0.8434,0.3116,0.1311,-0.2905
1.0378,0.8384,0.6798,0.5159,0.6308,0.4814,0.1663,-0.0059,-0.6183,0.055,-0.1378,0.1695,0.5326,0.6935,1.0646,1.1078,1.1272,1.3297,1.0121,0.7088,0.7481,0.7984,0.9619,0.7779,0.2281,0.3716,0.8339,0.3377,0.1473,-0.3069
0.9838,0.7755,0.5698,0.4144,0.4478,0.2486,0.1036,-0.0856,-0.6128,0.0248,-0.1082,0.2171,0.4726,0.6043,1.0415,1.0461,1.0736,1.2826,0.9112,0.6491,0.658,0.6439,0.7926,0.6779,0.174,0.3411,0.8129,0.3496,0.1654,-0.3173
0.9056,0.6902,0.4486,0.3008,0.2609,0.0207,0.0383,-0.1447,-0.5854,0.0025,-0.0617,0.2587,0.398,0.5,0.9883,0.9501,0.99,1.2193,0.7814,0.5676,0.5499,0.4692,0.6042,0.563,0.1018,0.2986,0.778,0.3458,0.1867,-0.3185
0.7997,0.5742,0.312,0.1635,0.0681,-0.2006,-0.0353,-0.1854,-0.5429,-0.0154,-0.0048,0.2896,0.306,0.3746,0.9004,0.813,0.8716,1.1347,0.6197,0.4549,0.4164,0.2736,0.3992,0.4324,0.0131,0.2433,0.7274,0.3247,0.2113,-0.3085
0.6672,0.4257,0.1607,-0.0022,-0.1278,-0.4085,-0.1197,-0.2113,-0.4939,-0.0329,0.0534,0.3044,0.1968,0.2275,0.7776,0.6348,0.7176,1.0259,0.4278,0.307,0.2562,0.0607,0.1838,0.2879,-0.0892,0.1744,0.6603,0.2852,0.238,-0.2864
0.5136,0.2503,0.0008,-0.1929,-0.3186,-0.592,-0.2123,-0.2267,-0.4474,-0.0534,0.1031,0.2981,0.0747,0.0641,0.6248,0.4228,0.5327,0.8942,0.2129,0.1273,0.0747,-0.16,-0.032,0.1345,-0.1999,0.0928,0.5783,0.2275,0.2641,-0.2533
0.3483,0.0605,-0.1574,-0.3976,-0.492,-0.738,-0.3066,-0.2351,-0.4111,-0.0791,0.1356,0.2674,-0.0526,-0.1051,0.4512,0.1906,0.3264,0.7453,-0.0128,-0.0738,-0.1168,-0.374,-0.2343,-0.02,-0.3125,0.0012,0.485,0.154,0.2863,-0.2117
0.1826,-0.1275,-0.3015,-0.6,-0.6335,-0.8337,-0.3932,-0.2389,-0.3903,-0.1107,0.1451,0.2116,-0.1753,-0.267,0.2686,-0.0451,0.1113,0.5893,-0.2344,-0.282,-0.3032,-0.5646,-0.4085,-0.1658,-0.4194,-0.0957,0.3852,0.0692,0.301,-0.1653
0.0268,-0.297,-0.4203,-0.7822,-0.7299,-0.87,-0.4628,-0.2394,-0.3874,-0.1475,0.1292,0.1328,-0.2834,-0.4086,0.0887,-0.2682,-0.0991,0.4383,-0.4367,-0.4817,-0.4697,-0.7153,-0.5411,-0.293,-0.5132,-0.1923,0.2846,-0.0213,0.3053,-0.1181
-0.1118,-0.4343,-0.5055,-0.9289,-0.7722,-0.8433,-0.5084,-0.237,-0.402,-0.1881,0.0893,0.0356,-0.369,-0.5201,-0.079,-0.4658,-0.2927,0.3046,-0.6074,-0.6599,-0.6047,-0.8141,-0.6233,-0.3934,-0.5884,-0.2823,0.1884,-0.1113,0.2972,-0.074
-0.2301,-0.5318,-0.5544,-1.0303,-0.7577,-0.7574,-0.5272,-0.2315,-0.4312,-0.2304,0.0299,-0.0731,-0.4275,-0.5968,-0.2287,-0.631,-0.4607,0.198,-0.7392,-0.8086,-0.7026,-0.8554,-0.6523,-0.462,-0.6415,-0.3602,0.1011,-0.1947,0.2764,-0.0356
-0.3285,-0.5886,-0.5695,-1.0831,-0.6913,-0.6232,-0.5211,-0.223,-0.4709,-0.2725,-0.043,-0.1852,-0.4585,-0.6394,-0.359,-0.7626,-0.5984,0.1247,-0.8298,-0.9254,-0.7644,-0.8411,-0.6321,-0.4976,-0.6719,-0.4213,0.026,-0.2664,0.2437,-0.0039
-0.4103,-0.6104,-0.5578,-1.0913,-0.5847,-0.4578,-0.4966,-0.2121,-0.5164,-0.3128,-0.1221,-0.2918,-0.465,-0.6536,-0.4719,-0.8646,-0.7051,0.0865,-0.8822,-1.0129,-0.7962,-0.7801,-0.5724,-0.5024,-0.6813,-0.4624,-0.0347,-0.3221,0.2016,0.0215
-0.4792,-0.607,-0.5293,-1.0636,-0.4552,-0.2821,-0.4631,-0.1997,-0.5631,-0.3495,-0.2005,-0.3851,-0.4528,-0.6477,-0.571,-0.943,-0.7826,0.0816,-0.9021,-1.0764,-0.8071,-0.686,-0.4866,-0.4814,-0.6729,-0.4816,-0.0798,-0.3587,0.153,0.0422
-0.5382,-0.5902,-0.4948,-1.012,-0.3225,-0.1179,-0.4311,-0.1875,-0.6072,-0.3815,-0.2719,-0.4579,-0.4286,-0.631,-0.6595,-1.0039,-0.8341,0.1056,-0.8966,-1.1221,-0.8068,-0.575,-0.3894,-0.4412,-0.6509,-0.4787,-0.1084,-0.3744,0.1017,0.0601
-0.5884,-0.5705,-0.4637,-0.9493,-0.2061,0.0148,-0.4102,-0.1771,-0.646,-0.4078,-0.3313,-0.5054,-0.3992,-0.6117,-0.7386,-1.051,-0.8627,0.1527,-0.8722,-1.1542,-0.8024,-0.4624,-0.2938,-0.3891,-0.6196,-0.4547,-0.1205,-0.3687,0.0519,0.0768
-0.6281,-0.555,-0.4425,-0.8865,-0.1222,0.1009,-0.407,-0.1701,-0.6781,-0.4278,-0.3748,-0.5246,-0.3701,-0.5956,-0.8061,-1.0846,-0.8703,0.2168,-0.8337,-1.1742,-0.7977,-0.3609,-0.21,-0.3321,-0.5832,-0.4121,-0.1162,-0.3424,0.0076,0.0926
-0.6529,-0.5461,-0.4334,-0.8315,-0.0808,0.1325,-0.4245,-0.1673,-0.703,-0.4413,-0.4005,-0.5154,-0.3447,-0.5853,-0.8568,-1.1015,-0.8579,0.2918,-0.784,-1.1803,-0.7927,-0.2783,-0.144,-0.2764,-0.5455,-0.3545,-0.0964,-0.2982,-0.027,0.1065
-0.6567,-0.5418,-0.4344,-0.7882,-0.0844,0.1101,-0.4612,-0.1685,-0.7213,-0.448,-0.4078,-0.4796,-0.3245,-0.5809,-0.8835,-1.0967,-0.8254,0.372,-0.7244,-1.1684,-0.7847,-0.2172,-0.0982,-0.2268,-0.51,-0.2868,-0.0621,-0.2399,-0.0489,0.1158
-0.6332,-0.5372,-0.4397,-0.7563,-0.1282,0.0425,-0.5123,-0.1725,-0.7333,-0.4475,-0.3972,-0.4211,-0.309,-0.5802,-0.8797,-1.0653,-0.7731,0.4518,-0.656,-1.134,-0.7701,-0.176,-0.0719,-0.186,-0.4796,-0.2144,-0.0156,-0.1727,-0.0559,0.1174
-0.5787,-0.5265,-0.4425,-0.7331,-0.2015,-0.0552,-0.5707,-0.1765,-0.7391,-0.4392,-0.3703,-0.3451,-0.2965,-0.5802,-0.8417,-1.0054,-0.7031,0.5257,-0.5806,-1.0749,-0.7462,-0.1503,-0.0623,-0.1547,-0.4564,-0.1428,0.0406,-0.1018,-0.0478,0.1089
-0.4936,-0.5057,-0.4362,-0.7145,-0.2905,-0.1649,-0.6285,-0.1771,-0.7375,-0.4219,-0.3287,-0.2568,-0.2844,-0.578,-0.7705,-0.9192,-0.6193,0.5885,-0.5013,-0.9922,-0.7127,-0.1347,-0.0658,-0.1319,-0.4413,-0.0766,0.1031,-0.0319,-0.026,0.0894
-0.3831,-0.4738,-0.4169,-0.6974,-0.3809,-0.2691,-0.6781,-0.1708,-0.7266,-0.3944,-0.274,-0.1614,-0.2702,-0.5711,-0.6717,-0.8132,-0.5279,0.6363,-0.4227,-0.8911,-0.6717,-0.1245,-0.0782,-0.1146,-0.4337,-0.0189,0.1686,0.0334,0.0066,0.0601
-0.2563,-0.4328,-0.3841,-0.6802,-0.4605,-0.3548,-0.7134,-0.1542,-0.7036,-0.3549,-0.2076,-0.0631,-0.2513,-0.5581,-0.5545,-0.697,-0.4359,0.6668,-0.3501,-0.7803,-0.627,-0.1168,-0.0958,-0.099,-0.4316,0.0292,0.2339,0.0918,0.0464,0.0244
-0.1245,-0.3871,-0.3401,-0.6634,-0.5206,-0.4142,-0.7302,-0.1252,-0.6657,-0.3025,-0.1311,0.0344,-0.2256,-0.538,-0.43,-0.5813,-0.3499,0.6804,-0.288,-0.6698,-0.5827,-0.1106,-0.1152,-0.0814,-0.4319,0.0682,0.2962,0.1425,0.0896,-0.0131
0.001,-0.3425,-0.2898,-0.6495,-0.5567,-0.4458,-0.7263,-0.0833,-0.6112,-0.2367,-0.0459,0.1285,-0.1917,-0.5105,-0.3088,-0.4758,-0.2752,0.6793,-0.2395,-0.5694,-0.5423,-0.1064,-0.1341,-0.0589,-0.4314,0.1002,0.3532,0.1854,0.1329,-0.0477
0.1104,-0.3048,-0.2396,-0.6424,-0.5689,-0.4532,-0.7016,-0.0299,-0.5405,-0.1589,0.0455,0.2167,-0.1493,-0.4768,-0.2006,-0.3884,-0.2156,0.6675,-0.206,-0.4872,-0.5084,-0.1062,-0.1517,-0.0307,-0.4274,0.1277,0.4029,0.2209,0.1735,-0.0752
0.1958,-0.2798,-0.1962,-0.647,-0.5615,-0.4435,-0.6587,0.0312,-0.4571,-0.0727,0.1392,0.2963,-0.1001,-0.4397,-0.1131,-0.3245,-0.1734,0.6489,-0.1876,-0.4293,-0.4832,-0.1123,-0.1684,0.0015,-0.4187,0.1528,0.4428,0.2494,0.2095,-0.0927
0.2516,-0.2723,-0.1666,-0.6689,-0.5423,-0.4259,-0.603,0.0937,-0.3678,0.0156,0.2295,0.3639,-0.0486,-0.4041,-0.0521,-0.2877,-0.1504,0.6268,-0.1843,-0.4002,-0.4692,-0.128,-0.1865,0.0334,-0.4054,0.1769,0.4706,0.2708,0.2393,-0.0989
0.2739,-0.2862,-0.157,-0.7127,-0.5217,-0.4105,-0.542,0.1499,-0.2822,0.0972,0.3087,0.4156,-0.0017,-0.3774,-0.0216,-0.2805,-0.1485,0.603,-0.1968,-0.4027,-0.4698,-0.1562,-0.2091,0.0588,-0.389,0.1997,0.4834,0.2844,0.2617,-0.0937
0.2613,-0.3237,-0.1725,-0.7815,-0.5102,-0.4067,-0.4852,0.1913,-0.2111,0.1616,0.3689,0.447,0.0318,-0.3675,-0.0237,-0.3046,-0.1699,0.5777,-0.2271,-0.4383,-0.4893,-0.1995,-0.24,0.0705,-0.3722,0.2201,0.4789,0.2893,0.2756,-0.078
0.2148,-0.3847,-0.216,-0.8753,-0.5176,-0.4225,-0.4424,0.2106,-0.165,0.1986,0.4028,0.4542,0.0429,-0.3819,-0.058,-0.3604,-0.2164,0.5499,-0.2786,-0.5068,-0.5317,-0.26,-0.2823,0.0624,-0.3575,0.2358,0.4558,0.2847,0.2805,-0.0532
0.1382,-0.4664,-0.2875,-0.9905,-0.5505,-0.4638,-0.4225,0.2029,-0.1513,0.1996,0.4056,0.435,0.0244,-0.4258,-0.1212,-0.4467,-0.289,0.5179,-0.3547,-0.6057,-0.5993,-0.3381,-0.3378,0.0301,-0.3478,0.2443,0.4141,0.2699,0.2763,-0.0213
0.0381,-0.5634,-0.3841,-1.1204,-0.6118,-0.5337,-0.432,0.1664,-0.1737,0.1598,0.3758,0.389,-0.0279,-0.5006,-0.2076,-0.5599,-0.3862,0.48,-0.4571,-0.7294,-0.6916,-0.4329,-0.4068,-0.0277,-0.3458,0.2429,0.3551,0.245,0.2641,0.0157
-0.0774,-0.6683,-0.4999,-1.2554,-0.7,-0.6315,-0.4741,0.103,-0.231,0.0788,0.316,0.3186,-0.1138,-0.6037,-0.3095,-0.6932,-0.5041,0.4355,-0.5849,-0.8694,-0.8043,-0.5418,-0.4875,-0.1094,-0.3534,0.2295,0.281,0.2105,0.2455,0.055
-0.199,-0.7724,-0.6268,-1.385,-0.8094,-0.7527,-0.548,0.0173,-0.317,-0.0386,0.2322,0.2286,-0.2285,-0.7287,-0.4181,-0.8371,-0.6357,0.3844,-0.7328,-1.0148,-0.9297,-0.6607,-0.5765,-0.2101,-0.372,0.203,0.1951,0.1674,0.223,0.0936
-0.3176,-0.8665,-0.7546,-1.4984,-0.9303,-0.8877,-0.6485,-0.083,-0.4218,-0.1827,0.1333,0.1263,-0.3631,-0.8658,-0.5246,-0.9797,-0.7714,0.3287,-0.8913,-1.1533,-1.0571,-0.7834,-0.669,-0.3227,-0.4019,0.1634,0.1014,0.1175,0.1992,0.1284
-0.4245,-0.9418,-0.8722,-1.5857,-1.0503,-1.0233,-0.7662,-0.1888,-0.5331,-0.3402,0.0291,0.0203,-0.5055,-1.0037,-0.621,-1.1076,-0.9003,0.2718,-1.0475,-1.2725,-1.1742,-0.9023,-0.7593,-0.4382,-0.4419,0.1122,0.0044,0.063,0.1764,0.1562
-0.5123,-0.9902,-0.9683,-1.6385,-1.156,-1.1434,-0.8891,-0.2897,-0.6378,-0.4956,-0.0709,-0.0802,-0.642,-1.1297,-0.7007,-1.2078,-1.0108,0.219,-1.1863,-1.3612,-1.269,-1.0085,-0.8416,-0.5473,-0.4893,0.0525,-0.0902,0.0067,0.1563,0.1746
-0.5755,-1.0056,-1.033,-1.6512,-1.234,-1.2317,-1.0033,-0.3759,-0.7242,-0.6336,-0.1586,-0.1665,-0.759,-1.2319,-0.7589,-1.2691,-1.0927,0.1768,-1.2929,-1.4111,-1.331,-1.0934,-0.91,-0.6409,-0.5401,-0.0111,-0.1763,-0.0478,0.1399,0.1821
-0.6111,-0.9846,-1.0593,-1.6208,-1.2739,-1.2744,-1.0961,-0.4391,-0.7836,-0.7412,-0.2286,-0.2318,-0.845,-1.3007,-0.7929,-1.2841,-1.138,0.1519,-1.3555,-1.4175,-1.3532,-1.1494,-0.9598,-0.7123,-0.5893,-0.0733,-0.2475,-0.0966,0.1272,0.1786
-0.6197,-0.9274,-1.0443,-1.5487,-1.2696,-1.2626,-1.1576,-0.4738,-0.8115,-0.8096,-0.2782,-0.2718,-0.8928,-1.3298,-0.8027,-1.2506,-1.143,0.1501,-1.3673,-1.3806,-1.3331,-1.1722,-0.9881,-0.7575,-0.6323,-0.1286,-0.2981,-0.136,0.1172,0.1653
-0.6051,-0.8387,-0.9904,-1.4405,-1.2214,-1.1942,-1.1828,-0.4781,-0.8084,-0.8355,-0.308,-0.2859,-0.9004,-1.3183,-0.7907,-1.1727,-1.1086,0.1744,-1.3287,-1.3055,-1.2741,-1.1615,-0.9948,-0.7764,-0.6656,-0.1727,-0.3248,-0.163,0.1088,0.1448
-0.5746,-0.7276,-0.9055,-1.307,-1.1364,-1.0757,-1.173,-0.4546,-0.7793,-0.822,-0.3219,-0.2771,-0.872,-1.2711,-0.7622,-1.0609,-1.0412,0.2241,-1.2471,-1.2026,-1.1851,-1.1221,-0.9822,-0.7733,-0.6879,-0.2035,-0.3275,-0.1767,0.1008,0.1202
-0.5375,-0.607,-0.8023,-1.1634,-1.0286,-0.9214,-1.136,-0.4095,-0.7333,-0.7781,-0.3259,-0.2518,-0.8173,-1.1988,-0.7251,-0.9311,-0.952,0.2941,-1.1363,-1.0865,-1.0801,-1.063,-0.9557,-0.756,-0.7004,-0.2215,-0.3101,-0.1788,0.0923,0.0951
-0.5042,-0.4921,-0.6969,-1.0278,-0.9166,-0.7523,-1.0837,-0.3521,-0.6814,-0.7169,-0.3276,-0.2189,-0.7499,-1.116,-0.6885,-0.8026,-0.8559,0.3754,-1.0143,-0.9742,-0.9758,-0.9963,-0.9223,-0.7344,-0.7066,-0.2299,-0.2805,-0.1738,0.0834,0.0732
-0.4836,-0.3981,-0.6056,-0.918,-0.8198,-0.5926,-1.0301,-0.2931,-0.6348,-0.6533,-0.3349,-0.188,-0.6843,-1.0389,-0.6621,-0.6946,-0.7686,0.456,-0.8996,-0.8818,-0.889,-0.9346,-0.8897,-0.7186,-0.7113,-0.234,-0.2488,-0.1682,0.0746,0.0574
-0.4815,-0.3366,-0.5417,-0.8477,-0.7542,-0.4641,-0.9874,-0.2418,-0.6024,-0.6008,-0.3536,-0.1672,-0.633,-0.9812,-0.6536,-0.6226,-0.7039,0.5235,-0.8079,-0.8221,-0.8333,-0.8884,-0.8645,-0.7164,-0.7189,-0.2393,-0.2252,-0.169,0.0672,0.0501
-0.4988,-0.3131,-0.5123,-0.8231,-0.7279,-0.3823,-0.9625,-0.2047,-0.5885,-0.5683,-0.386,-0.1618,-0.6032,-0.9516,-0.6667,-0.595,-0.6706,0.5679,-0.7491,-0.8006,-0.8154,-0.8635,-0.8502,-0.7306,-0.732,-0.2502,-0.2168,-0.182,0.0625,0.0521
-0.5309,-0.3251,-0.5162,-0.8402,-0.7389,-0.3521,-0.9553,-0.1832,-0.5921,-0.5583,-0.4301,-0.1722,-0.5957,-0.9507,-0.7,-0.6106,-0.6703,0.5837,-0.7246,-0.8146,-0.8343,-0.8601,-0.8463,-0.7587,-0.7502,-0.2685,-0.226,-0.2097,0.0615,0.0627
-0.5685,-0.3619,-0.5442,-0.8856,-0.775,-0.3667,-0.9588,-0.1737,-0.6069,-0.5668,-0.4797,-0.1948,-0.6044,-0.9715,-0.746,-0.6587,-0.6967,0.5716,-0.7279,-0.8529,-0.8801,-0.8722,-0.8482,-0.7927,-0.7702,-0.2933,-0.25,-0.251,0.0649,0.0796
-0.5986,-0.4069,-0.5809,-0.9393,-0.8169,-0.41,-0.961,-0.1689,-0.6228,-0.5842,-0.5255,-0.2222,-0.6183,-1.0004,-0.7929,-0.7212,-0.7369,0.5391,-0.7455,-0.8987,-0.9366,-0.8893,-0.848,-0.8211,-0.7861,-0.3205,-0.2808,-0.3007,0.0726,0.0992
-0.6077,-0.4414,-0.6083,-0.9795,-0.8435,-0.4603,-0.9481,-0.1595,-0.6286,-0.5986,-0.5578,-0.2461,-0.6242,-1.0211,-0.826,-0.7766,-0.7739,0.4987,-0.7611,-0.9326,-0.9847,-0.8984,-0.8367,-0.8318,-0.7913,-0.3446,-0.3083,-0.3511,0.0842,0.1169
-0.5846,-0.4493,-0.6109,-0.9887,-0.8375,-0.4964,-0.9084,-0.1376,-0.6149,-0.5987,-0.5684,-0.2585,-0.6106,-1.0181,-0.8319,-0.8046,-0.7911,0.4648,-0.7589,-0.9382,-1.0065,-0.8876,-0.8072,-0.815,-0.7799,-0.3596,-0.3224,-0.3931,0.0988,0.1284
-0.5237,-0.4217,-0.5797,-0.9582,-0.7903,-0.5037,-0.8358,-0.0993,-0.5771,-0.5768,-0.553,-0.2543,-0.5702,-0.981,-0.8011,-0.7913,-0.7762,0.4501,-0.728,-0.905,-0.9894,-0.8484,-0.7563,-0.7662,-0.7484,-0.3607,-0.3157,-0.419,0.1154,0.1308
-0.4262,-0.3587,-0.5142,-0.8898,-0.7043,-0.4771,-0.7321,-0.0463,-0.5161,-0.5313,-0.5121,-0.2322,-0.5021,-0.9067,-0.731,-0.7317,-0.7238,0.4625,-0.6645,-0.8312,-0.929,-0.7778,-0.6857,-0.6864,-0.6964,-0.3451,-0.285,-0.4233,0.1323,0.1227
-0.3011,-0.2688,-0.4225,-0.7945,-0.592,-0.4223,-0.6064,0.0141,-0.4384,-0.4665,-0.4508,-0.1943,-0.4117,-0.8,-0.627,-0.6306,-0.6367,0.5036,-0.5718,-0.7236,-0.829,-0.6788,-0.6015,-0.5822,-0.6259,-0.3121,-0.2311,-0.4035,0.1473,0.1053
-0.1625,-0.1662,-0.3188,-0.689,-0.4725,-0.3531,-0.4741,0.0706,-0.3545,-0.3917,-0.3778,-0.1458,-0.3089,-0.6718,-0.501,-0.5006,-0.5242,0.5693,-0.459,-0.5951,-0.7,-0.5586,-0.5115,-0.4632,-0.5409,-0.2628,-0.1577,-0.3605,0.1574,0.0817
-0.0273,-0.0668,-0.2198,-0.591,-0.3666,-0.2876,-0.3526,0.1102,-0.2767,-0.3193,-0.3039,-0.0934,-0.2058,-0.5367,-0.369,-0.3589,-0.3995,0.651,-0.3383,-0.4616,-0.5567,-0.4274,-0.4234,-0.3397,-0.4458,-0.1992,-0.0706,-0.2973,0.1594,0.0561
0.0884,0.0152,-0.1409,-0.5153,-0.2927,-0.244,-0.2587,0.1217,-0.2165,-0.2618,-0.2403,-0.0441,-0.1138,-0.4097,-0.2477,-0.2238,-0.2764,0.7387,-0.2221,-0.3388,-0.415,-0.2954,-0.3428,-0.2203,-0.3444,-0.1237,0.0241,-0.2193,0.1501,0.0332
0.1719,0.0702,-0.0938,-0.4718,-0.2628,-0.2362,-0.2047,0.0974,-0.1828,-0.2295,-0.1964,-0.0042,-0.042,-0.3034,-0.1508,-0.1107,-0.1666,0.8231,-0.1201,-0.239,-0.2888,-0.1718,-0.2728,-0.1112,-0.2402,-0.0393,0.1204,-0.1326,0.1275,0.0169
0.2157,0.0939,-0.0842,-0.4635,-0.2805,-0.2711,-0.1963,0.0356,-0.1802,-0.2289,-0.1789,0.0211,0.0049,-0.2266,-0.087,-0.03,-0.0776,0.8971,-0.0386,-0.1699,-0.1887,-0.0632,-0.2138,-0.0156,-0.1358,0.0503,0.2127,-0.0441,0.0912,0.0098
0.2186,0.0879,-0.111,-0.4871,-0.3408,-0.3464,-0.2317,-0.0594,-0.2085,-0.261,-0.1903,0.0287,0.026,-0.1823,-0.0584,0.0147,-0.012,0.957,0.0206,-0.133,-0.1202,0.027,-0.1646,0.0654,-0.0342,0.1411,0.2961,0.0396,0.0429,0.0125
0.1852,0.0587,-0.1667,-0.5335,-0.4306,-0.4504,-0.3024,-0.1774,-0.2624,-0.3215,-0.2286,0.0181,0.0244,-0.1684,-0.0612,0.0263,0.0322,1.0022,0.0593,-0.1242,-0.0832,0.098,-0.1232,0.1314,0.0612,0.2281,0.3662,0.113,-0.0136,0.0233
0.125,0.0168,-0.2387,-0.5893,-0.5318,-0.5636,-0.3945,-0.3041,-0.3328,-0.4013,-0.2875,-0.009,0.0055,-0.1788,-0.0871,0.013,0.0603,1.0342,0.0816,-0.1351,-0.0734,0.1513,-0.0879,0.1824,0.1462,0.3059,0.4191,0.1719,-0.0733,0.0385
0.0507,-0.0246,-0.3114,-0.6391,-0.6239,-0.6631,-0.4922,-0.4235,-0.4081,-0.4884,-0.3578,-0.0487,-0.0241,-0.2045,-0.1256,-0.0131,0.0788,1.0556,0.0927,-0.1544,-0.083,0.1888,-0.0582,0.2172,0.2159,0.3689,0.4515,0.2137,-0.1309,0.053
-0.0248,-0.0523,-0.3693,-0.668,-0.6884,-0.7265,-0.5799,-0.5205,-0.4766,-0.5704,-0.4292,-0.0963,-0.0585,-0.2364,-0.1662,-0.0396,0.0939,1.069,0.0971,-0.1704,-0.1027,0.212,-0.0349,0.2337,0.2653,0.4117,0.4603,0.2372,-0.1811,0.0615
-0.0903,-0.0546,-0.3997,-0.6638,-0.7111,-0.7371,-0.6455,-0.5837,-0.5285,-0.6368,-0.4926,-0.1465,-0.093,-0.2665,-0.2001,-0.055,0.11,1.076,0.0982,-0.1731,-0.1239,0.2214,-0.0193,0.2293,0.2903,0.4297,0.4442,0.2423,-0.2198,0.0595
-0.1377,-0.0232,-0.3943,-0.6183,-0.6842,-0.6868,-0.6818,-0.6066,-0.5574,-0.6803,-0.5415,-0.195,-0.1248,-0.2891,-0.2211,-0.0511,0.1294,1.0775,0.0985,-0.1557,-0.1389,0.2165,-0.0128,0.2025,0.2879,0.4201,0.4033,0.2296,-0.2444,0.0443
-0.1622,0.046,-0.3504,-0.5282,-0.6066,-0.5761,-0.6864,-0.5886,-0.5609,-0.6979,-0.5725,-0.2383,-0.1522,-0.3009,-0.2253,-0.0235,0.1532,1.0746,0.1,-0.1152,-0.1424,0.1971,-0.0155,0.1542,0.2578,0.3822,0.3406,0.2002,-0.2537,0.0154
-0.1629,0.1517,-0.2703,-0.3952,-0.4832,-0.4141,-0.6621,-0.5339,-0.5404,-0.691,-0.5858,-0.274,-0.174,-0.3004,-0.2116,0.0283,0.1812,1.0687,0.1047,-0.0527,-0.1311,0.1646,-0.0257,0.0884,0.2023,0.3182,0.2621,0.1557,-0.2484,-0.0255
-0.1414,0.288,-0.1607,-0.226,-0.3237,-0.2159,-0.6148,-0.4509,-0.5004,-0.6638,-0.5841,-0.3012,-0.1889,-0.2874,-0.1811,0.1016,0.2131,1.0626,0.1153,0.0275,-0.1037,0.1226,-0.0394,0.0124,0.1263,0.2332,0.176,0.098,-0.2304,-0.0751
-0.1016,0.4443,-0.0318,-0.0316,-0.1414,-0.0004,-0.553,-0.351,-0.4477,-0.6226,-0.5722,-0.3201,-0.1955,-0.2622,-0.1374,0.1911,0.2492,1.0605,0.135,0.1195,-0.0604,0.0776,-0.0516,-0.0641,0.037,0.134,0.0919,0.0296,-0.2024,-0.1284
-0.0487,0.6073,0.1048,0.1741,0.0488,0.2119,-0.4859,-0.2463,-0.3902,-0.5745,-0.5556,-0.3323,-0.1918,-0.2253,-0.0857,0.2903,0.2905,1.067,0.1677,0.2167,-0.0025,0.0385,-0.056,-0.1305,-0.0565,0.0291,0.0191,-0.0471,-0.1679,-0.1804
0.0121,0.7634,0.237,0.3762,0.2324,0.4017,-0.4217,-0.1486,-0.3355,-0.5255,-0.5393,-0.3396,-0.1757,-0.177,-0.0318,0.3932,0.3385,1.087,0.2168,0.3139,0.0682,0.0152,-0.0467,-0.1766,-0.1444,-0.0725,-0.034,-0.1283,-0.1306,-0.2265
0.0767,0.9014,0.3553,0.5612,0.397,0.5537,-0.3666,-0.0676,-0.2893,-0.4797,-0.5262,-0.3437,-0.1447,-0.1167,0.0193,0.4956,0.3955,1.1242,0.285,0.4082,0.1502,0.0173,-0.0187,-0.1939,-0.2168,-0.1619,-0.0612,-0.209,-0.094,-0.2637
0.1421,1.0148,0.4536,0.7192,0.5345,0.6589,-0.3234,-0.009,-0.2544,-0.4381,-0.5163,-0.3442,-0.0968,-0.0435,0.0649,0.5956,0.4641,1.1814,0.3738,0.5001,0.2424,0.0525,0.0314,-0.1765,-0.265,-0.231,-0.0584,-0.2823,-0.0612,-0.2909
0.2072,1.1023,0.5303,0.8448,0.6416,0.716,-0.2914,0.0255,-0.2307,-0.3987,-0.5061,-0.3391,-0.0305,0.0434,0.1052,0.694,0.5464,1.2593,0.4828,0.5923,0.344,0.1252,0.1047,-0.1223,-0.2823,-0.2729,-0.0235,-0.3401,-0.0346,-0.3094
0.2714,1.1667,0.5871,0.937,0.7195,0.7308,-0.2672,0.0385,-0.2151,-0.3574,-0.4899,-0.3242,0.0541,0.1441,0.1428,0.7927,0.6432,1.357,0.6093,0.6884,0.4537,0.2349,0.2001,-0.0327,-0.2651,-0.283,0.0427,-0.3743,-0.0157,-0.3221
0.3337,1.2125,0.6277,0.9969,0.7719,0.7144,-0.2457,0.0354,-0.2027,-0.3095,-0.4611,-0.2949,0.1543,0.2561,0.1811,0.8927,0.7529,1.4719,0.7477,0.7907,0.5689,0.3762,0.3134,0.0862,-0.2137,-0.2597,0.1368,-0.3784,-0.0046,-0.3328
0.392,1.2429,0.6552,1.0259,0.8029,0.6794,-0.2229,0.0228,-0.1893,-0.252,-0.4152,-0.2481,0.2641,0.3738,0.2233,0.9927,0.8711,1.5997,0.8897,0.8979,0.684,0.5379,0.438,0.2242,-0.1329,-0.2049,0.2518,-0.3498,-0.0003,-0.3453
0.4426,1.2582,0.6702,1.0238,0.8145,0.6359,-0.197,0.0063,-0.1718,-0.185,-0.3514,-0.1833,0.374,0.4883,0.2702,1.0873,0.9897,1.7343,1.0245,1.0039,0.7907,0.7046,0.5648,0.368,-0.0311,-0.1238,0.3783,-0.2905,-0.0005,-0.362
0.4808,1.255,0.6702,0.9879,0.8053,0.5884,-0.1699,-0.0111,-0.1502,-0.1123,-0.2736,-0.1042,0.472,0.5876,0.3201,1.1673,1.0979,1.8682,1.1397,1.0976,0.8778,0.858,0.6836,0.5022,0.0802,-0.0245,0.5043,-0.2079,-0.0025,-0.3834
0.5009,1.2272,0.6497,0.9138,0.7708,0.5346,-0.1468,-0.0292,-0.1272,-0.0415,-0.1905,-0.0183,0.5451,0.6589,0.3678,1.2209,1.183,1.9925,1.2226,1.1647,0.933,0.9794,0.7837,0.6119,0.1886,0.0832,0.6172,-0.1128,-0.0033,-0.4078
0.498,1.1677,0.6019,0.7972,0.7047,0.4669,-0.1352,-0.0508,-0.1079,0.0179,-0.1136,0.0643,0.5817,0.6905,0.4063,1.2357,1.2323,2.0976,1.2625,1.1903,0.9451,1.0518,0.8549,0.6844,0.2825,0.1893,0.7055,-0.0179,-0.0012,-0.4316
0.4686,1.0711,0.5211,0.636,0.6016,0.3753,-0.1422,-0.0804,-0.0979,0.0562,-0.0547,0.1333,0.574,0.6741,0.4276,1.2021,1.2352,2.1744,1.2516,1.1625,0.9062,1.0627,0.8892,0.7115,0.353,0.2851,0.7605,0.0655,0.0045,-0.45
0.4125,0.9366,0.4052,0.4332,0.46,0.2519,-0.1728,-0.1217,-0.1019,0.0666,-0.0235,0.1796,0.5201,0.6077,0.4256,1.1156,1.1855,2.2155,1.1875,1.0753,0.8143,1.0062,0.882,0.6906,0.3954,0.3645,0.7781,0.1296,0.0128,-0.4582
0.3334,0.7697,0.2582,0.1984,0.2844,0.0952,-0.2274,-0.1756,-0.122,0.0463,-0.0248,0.1985,0.4245,0.4958,0.3976,0.9792,1.0837,2.2172,1.0738,0.9312,0.6746,0.8846,0.8327,0.6255,0.4096,0.4245,0.7595,0.1713,0.0217,-0.4529
0.2394,0.5827,0.0905,-0.0513,0.0869,-0.0872,-0.3014,-0.2391,-0.1564,-0.0016,-0.058,0.1896,0.2989,0.3505,0.3463,0.8041,0.9378,2.1816,0.9211,0.742,0.5002,0.7096,0.7467,0.5262,0.4,0.4655,0.7112,0.192,0.0287,-0.4329
0.1425,0.3937,-0.0807,-0.293,-0.1133,-0.2783,-0.3855,-0.3044,-0.1995,-0.0688,-0.1166,0.1577,0.16,0.1895,0.2799,0.6093,0.7635,2.1169,0.7462,0.5281,0.3106,0.501,0.6346,0.407,0.3742,0.49,0.6437,0.1969,0.0318,-0.3998
0.0571,0.224,-0.2347,-0.5007,-0.2924,-0.4534,-0.4673,-0.3603,-0.2428,-0.1432,-0.19,0.1111,0.027,0.0343,0.2104,0.4186,0.5821,2.037,0.57,0.3154,0.1295,0.2848,0.5117,0.2849,0.3406,0.5021,0.5697,0.1921,0.0303,-0.3579
-0.0025,0.0943,-0.3502,-0.6496,-0.4256,-0.585,-0.5342,-0.3943,-0.2767,-0.2112,-0.2653,0.0599,-0.0812,-0.0936,0.1519,0.2571,0.4176,1.9591,0.415,0.132,-0.0192,0.089,0.3957,0.1764,0.3071,0.5058,0.502,0.1833,0.0253,-0.3133
-0.0244,0.0215,-0.4095,-0.721,-0.4918,-0.6485,-0.5759,-0.3963,-0.293,-0.2609,-0.3304,0.0134,-0.1494,-0.1759,0.1177,0.1477,0.2926,1.9004,0.3014,0.0027,-0.1151,-0.0605,0.3042,0.0952,0.2792,0.5041,0.4508,0.1742,0.0192,-0.2733
-0.0003,0.0154,-0.4018,-0.706,-0.4781,-0.6279,-0.5861,-0.3607,-0.2862,-0.2839,-0.3756,-0.021,-0.1683,-0.2005,0.1184,0.1066,0.2249,1.8752,0.2447,-0.054,-0.1444,-0.1439,0.2511,0.0506,0.2595,0.4984,0.4228,0.1662,0.0154,-0.2447
0.0725,0.0778,-0.3249,-0.6073,-0.3829,-0.5195,-0.5638,-0.288,-0.2551,-0.2769,-0.3952,-0.0393,-0.1355,-0.1631,0.1604,0.1421,0.2251,1.892,0.2533,-0.0291,-0.1021,-0.1499,0.2454,0.0463,0.2485,0.4894,0.4205,0.1591,0.0175,-0.2332
0.191,0.2027,-0.1862,-0.4385,-0.2159,-0.3335,-0.5121,-0.1855,-0.2024,-0.2416,-0.3878,-0.0404,-0.0555,-0.0676,0.245,0.253,0.2953,1.952,0.3281,0.0763,0.0079,-0.0772,0.2892,0.0813,0.2448,0.4771,0.4429,0.152,0.0283,-0.2422
0.3467,0.3767,-0.0003,-0.2215,0.0032,-0.0916,-0.4373,-0.0654,-0.1345,-0.1837,-0.3561,-0.0264,0.062,0.0749,0.3686,0.4294,0.4291,2.0493,0.4619,0.2513,0.1739,0.0664,0.3782,0.1499,0.2463,0.4617,0.4859,0.144,0.0489,-0.2727
0.5262,0.5825,0.2128,0.0184,0.2493,0.1774,-0.3472,0.0578,-0.0594,-0.1114,-0.3057,-0.0014,0.203,0.2483,0.5222,0.6545,0.613,2.1722,0.641,0.4779,0.3779,0.2647,0.5019,0.243,0.2508,0.4437,0.5432,0.1346,0.0785,-0.3225
0.7138,0.801,0.4318,0.2574,0.4962,0.4435,-0.2494,0.1699,0.014,-0.0341,-0.2442,0.0296,0.3521,0.4335,0.6931,0.9073,0.8284,2.3052,0.8469,0.7332,0.599,0.4966,0.6458,0.3499,0.2562,0.424,0.6076,0.1238,0.1146,-0.3872
0.894,1.0152,0.6382,0.4771,0.7218,0.6813,-0.1501,0.2603,0.0786,0.0405,-0.1793,0.0611,0.4945,0.6121,0.8672,1.1656,1.0552,2.4328,1.0597,0.9935,0.8164,0.7388,0.794,0.4596,0.2608,0.4039,0.6716,0.1123,0.153,-0.4607
1.0548,1.2121,0.8186,0.6677,0.9111,0.8741,-0.0534,0.324,0.1296,0.1066,-0.1173,0.0889,0.6183,0.7688,1.0313,1.41,1.2748,2.5424,1.2611,1.2379,1.0127,0.97,0.9317,0.5629,0.2636,0.3849,0.7291,0.1012,0.1897,-0.5365
1.1895,1.3849,0.967,0.8274,1.0583,1.0154,0.0382,0.3618,0.1657,0.1626,-0.0625,0.1104,0.7166,0.8942,1.176,1.6265,1.4737,2.6266,1.4376,1.4512,1.1767,1.1737,1.0479,0.6543,0.2653,0.3693,0.7767,0.0922,0.2206,-0.6091
1.2966,1.5321,1.0837,0.9614,1.1652,1.108,0.124,0.3794,0.1885,0.2095,-0.016,0.1248,0.788,0.9856,1.2968,1.8078,1.6443,2.6841,1.5826,1.6255,1.3042,1.3407,1.137,0.7322,0.2679,0.3598,0.8139,0.0875,0.2431,-0.6744
1.3792,1.6563,1.1739,1.078,1.2396,1.1615,0.2034,0.3848,0.2014,0.2511,0.023,0.1333,0.8357,1.0463,1.3942,1.953,1.7858,2.7192,1.6961,1.7601,1.3981,1.4693,1.1992,0.7994,0.2744,0.3599,0.8437,0.0894,0.2556,-0.73
1.4427,1.7622,1.2448,1.1854,1.2915,1.1882,0.2758,0.3858,0.2082,0.2915,0.0566,0.1381,0.8667,1.0846,1.4723,2.0662,1.9017,2.7398,1.784,1.8601,1.4664,1.564,1.2397,0.8614,0.289,0.373,0.8715,0.1001,0.2576,-0.7753
1.4934,1.8548,1.3036,1.2896,1.3305,1.1997,0.3402,0.3877,0.2117,0.3339,0.087,0.1415,0.8891,1.1107,1.5373,2.1544,1.9983,2.7557,1.8553,1.934,1.5198,1.6337,1.2667,0.9253,0.3153,0.4021,0.904,0.1214,0.2492,-0.8109
1.5376,1.9381,1.3558,1.3927,1.3634,1.2045,0.3946,0.3919,0.2131,0.379,0.115,0.1458,0.9103,1.1344,1.5954,2.2253,2.0821,2.7757,1.9197,1.9915,1.5682,1.6885,1.2895,0.9971,0.3561,0.4491,0.9474,0.1543,0.2313,-0.838
1.5802,2.0149,1.4045,1.4934,1.3937,1.2066,0.4364,0.396,0.2113,0.4251,0.14,0.1522,0.9352,1.1629,1.6518,2.286,2.1583,2.8069,1.985,2.0409,1.619,1.7374,1.3159,1.0802,0.4119,0.5143,1.0057,0.1988,0.2051,-0.8589
1.625,2.0864,1.4502,1.5876,1.4215,1.2063,0.463,0.3946,0.2035,0.4676,0.1597,0.1611,0.9654,1.1992,1.7099,2.3419,2.2303,2.853,2.0558,2.0882,1.6754,1.7867,1.3511,1.1744,0.4809,0.5958,1.0798,0.254,0.1721,-0.8759
1.6743,2.1526,1.4919,1.67,1.4442,1.2011,0.4722,0.3814,0.1862,0.5006,0.1706,0.1719,0.9995,1.2425,1.7713,2.3971,2.2999,2.9143,2.1334,2.1367,1.7367,1.8392,1.397,1.2757,0.5588,0.6901,1.1669,0.318,0.1346,-0.8916
1.7288,2.2132,1.5273,1.7351,1.4577,1.1866,0.4626,0.3508,0.1561,0.5182,0.1694,0.1838,1.0336,1.2888,1.8363,2.454,2.3677,2.9886,2.2165,2.1876,1.7991,1.8947,1.452,1.3769,0.6399,0.7922,1.2616,0.3883,0.0952,-0.9081
1.788,2.268,1.554,1.7787,1.4581,1.1583,0.435,0.2997,0.1114,0.5161,0.1537,0.1959,1.0633,1.3334,1.904,2.5143,2.4341,3.0717,2.3022,2.2409,1.8581,1.9513,1.5128,1.4697,0.7174,0.8961,1.3568,0.4617,0.0573,-0.927
1.8499,2.3171,1.5706,1.7988,1.4434,1.1132,0.3923,0.2291,0.0525,0.4932,0.1231,0.2079,1.0853,1.3724,1.9727,2.5789,2.4995,3.1586,2.3876,2.2961,1.91,2.0064,1.575,1.5464,0.785,0.996,1.4456,0.5351,0.0242,-0.9487
1.9121,2.3613,1.5773,1.797,1.4144,1.0513,0.3402,0.1443,-0.0169,0.4523,0.0799,0.22,1.0987,1.4049,2.0408,2.6485,2.5647,3.244,2.4703,2.3533,1.9542,2.0579,1.6346,1.6019,0.8375,1.0863,1.5225,0.6053,-0.0009,-0.9722
1.9722,2.402,1.5765,1.7787,1.3767,0.9775,0.2869,0.0545,-0.0901,0.4008,0.029,0.2334,1.1062,1.4339,2.1065,2.7235,2.6303,3.3232,2.5492,2.4136,1.9937,2.1048,1.6887,1.6345,0.8714,1.1627,1.5841,0.6695,-0.0159,-0.9958
2.0287,2.4411,1.5735,1.7532,1.3396,0.9011,0.2417,-0.0279,-0.1582,0.3493,-0.0223,0.2493,1.1139,1.4654,2.1686,2.8036,2.6967,3.392,2.6233,2.4787,2.0345,2.1472,1.7355,1.6463,0.8854,1.2213,1.6294,0.7252,-0.0195,-1.0174
2.0819,2.4803,1.5749,1.7318,1.3153,0.8353,0.2142,-0.0902,-0.2119,0.31,-0.0659,0.2692,1.1294,1.5068,2.2262,2.8878,2.7631,3.4471,2.6918,2.5501,2.0836,2.1858,1.7739,1.6418,0.8797,1.2597,1.659,0.7703,-0.0114,-1.0352
2.1333,2.521,1.5876,1.7251,1.3155,0.7936,0.2112,-0.1209,-0.2427,0.2937,-0.0942,0.2932,1.1595,1.564,2.2791,2.9735,2.8272,3.486,2.7532,2.6282,2.1471,2.2208,1.8029,1.6268,0.8559,1.2761,1.6747,0.803,0.0074,-1.0483
2.1856,2.5627,1.617,1.7405,1.3488,0.7876,0.2357,-0.1126,-0.2455,0.3074,-0.1015,0.3208,1.2083,1.6395,2.3272,3.0566,2.8851,3.5074,2.8044,2.7111,2.227,2.2513,1.8215,1.6063,0.8168,1.2703,1.6784,0.8218,0.0358,-1.0565
2.2408,2.6033,1.6647,1.7801,1.4182,0.8239,0.286,-0.0628,-0.2186,0.3531,-0.0857,0.3503,1.2753,1.7306,2.3701,3.1313,2.9313,3.5112,2.8413,2.7944,2.3206,2.2748,1.8282,1.5835,0.7656,1.243,1.6718,0.8257,0.072,-1.0603
2.2991,2.6391,1.7289,1.8406,1.5205,0.9027,0.3562,0.0254,-0.1649,0.427,-0.0477,0.3796,1.355,1.8297,2.4069,3.1908,2.9598,3.4988,2.859,2.8709,2.42,2.2877,1.8212,1.5596,0.7059,1.1968,1.6559,0.815,0.1137,-1.0606
2.3581,2.6656,1.8035,1.9141,1.6466,1.0172,0.4374,0.144,-0.0906,0.5206,0.0086,0.4068,1.4385,1.9261,2.435,3.228,2.9648,3.4724,2.8528,2.932,2.5137,2.2859,1.7987,1.5335,0.6413,1.1353,1.6311,0.791,0.1588,-1.058
2.4121,2.6777,1.8793,1.9896,1.783,1.1549,0.5202,0.2812,-0.0045,0.6228,0.0774,0.4308,1.5143,2.0077,2.4508,3.2368,2.9415,3.4345,2.8193,2.9685,2.589,2.2658,1.7588,1.5023,0.5742,1.0632,1.5969,0.7563,0.2045,-1.0529
2.4527,2.6706,1.9455,2.0552,1.9143,1.2994,0.596,0.4232,0.0837,0.7215,0.1518,0.4509,1.5712,2.0635,2.4492,3.2125,2.8873,3.3868,2.7568,2.9725,2.6342,2.2244,1.6996,1.462,0.5059,0.9846,1.5521,0.7138,0.2484,-1.0447
2.4702,2.6394,1.9911,2.0992,2.0252,1.4332,0.6584,0.556,0.165,0.8058,0.2252,0.4668,1.5997,2.0861,2.4244,3.1524,2.8019,3.3296,2.6661,2.9385,2.6411,2.1601,1.62,1.4088,0.4359,0.9027,1.4948,0.6661,0.2883,-1.0327
2.4553,2.5799,2.0065,2.1125,2.1034,1.5409,0.704,0.6677,0.2324,0.8681,0.2921,0.4783,1.5941,2.0723,2.3712,3.0563,2.6875,3.2622,2.5507,2.8647,2.6065,2.0734,1.5199,1.34,0.3629,0.8196,1.4235,0.6153,0.3226,-1.0156
2.4019,2.4894,1.9861,2.0895,2.1415,1.6115,0.7325,0.7502,0.2819,0.905,0.349,0.4851,1.5539,2.0247,2.287,2.927,2.5491,3.1837,2.4166,2.7541,2.533,1.9673,1.4022,1.2558,0.2857,0.7367,1.3384,0.5628,0.3504,-0.9924
2.3085,2.3676,1.9288,2.0301,2.1382,1.6403,0.7462,0.7996,0.3134,0.9176,0.3948,0.487,1.4839,1.9508,2.1726,2.7704,2.3945,3.094,2.2728,2.6146,2.4287,1.8482,1.2731,1.1606,0.2053,0.6562,1.2421,0.5101,0.3708,-0.9627
2.1795,2.2181,1.8388,1.939,2.098,1.6288,0.7489,0.8169,0.3292,0.9106,0.4304,0.4841,1.3936,1.8619,2.0333,2.5955,2.2333,2.9953,2.1294,2.4578,2.3061,1.7255,1.1418,1.0623,0.1253,0.581,1.1406,0.4593,0.3833,-0.9266
2.0242,2.0483,1.7245,1.8254,2.0295,1.5837,0.7448,0.8062,0.3333,0.891,0.4578,0.477,1.2955,1.7705,1.8782,2.413,2.0757,2.8921,1.9967,2.2972,2.1793,1.6099,1.0193,0.9718,0.0518,0.5156,1.0422,0.4129,0.387,-0.8852
1.8556,1.8687,1.5969,1.7005,1.9432,1.5144,0.7369,0.7735,0.3293,0.8653,0.4782,0.4662,1.2022,1.688,1.7188,2.2337,1.9307,2.7907,1.883,2.1454,2.0613,1.5116,0.9155,0.8999,-0.0081,0.4644,0.9562,0.3736,0.3813,-0.84
1.6875,1.6916,1.4673,1.575,1.8485,1.4304,0.7263,0.7245,0.3189,0.8382,0.4918,0.4522,1.1241,1.6219,1.5669,2.0677,1.805,2.6978,1.7931,2.0122,1.9617,1.4379,0.8375,0.8552,-0.0482,0.4312,0.8906,0.3431,0.3656,-0.793
1.5323,1.5288,1.3448,1.4573,1.7517,1.3387,0.7115,0.6632,0.3011,0.8116,0.4969,0.4353,1.0671,1.5753,1.432,1.9223,1.7022,2.6193,1.7282,1.9027,1.8849,1.3925,0.7878,0.8422,-0.0646,0.4177,0.8506,0.3219,0.34,-0.7463
1.3987,1.3895,1.2355,1.3517,1.6554,1.2432,0.6887,0.5918,0.2725,0.7836,0.4905,0.4153,1.0324,1.5458,1.3201,1.8015,1.6225,2.5595,1.6862,1.8176,1.8299,1.375,0.7653,0.8603,-0.057,0.4233,0.8379,0.309,0.3051,-0.7016
1.2915,1.2786,1.1413,1.2585,1.5584,1.1446,0.6526,0.5106,0.2284,0.7502,0.469,0.3921,1.0162,1.5275,1.2329,1.7064,1.5638,2.5201,1.6625,1.7535,1.7916,1.3817,0.7655,0.9039,-0.028,0.4455,0.8506,0.3027,0.2628,-0.6604
1.211,1.1953,1.0603,1.1733,1.4564,1.0408,0.5975,0.4193,0.1645,0.7061,0.4301,0.3659,1.0113,1.5116,1.1682,1.6345,1.5223,2.5007,1.6519,1.7042,1.7619,1.4067,0.7828,0.9642,0.017,0.4798,0.8836,0.301,0.2162,-0.6233
1.1541,1.1334,0.9874,1.0884,1.3436,0.9283,0.5193,0.3184,0.0792,0.6467,0.3731,0.3377,1.0086,1.4892,1.1214,1.5813,1.4933,2.4988,1.6486,1.6619,1.7314,1.4432,0.8113,1.0303,0.0713,0.521,0.9299,0.3021,0.1696,-0.5903
1.1152,1.083,0.9162,0.9945,1.2149,0.8036,0.4165,0.21,-0.0258,0.5699,0.3003,0.3089,0.9991,1.4524,1.0865,1.5401,1.4716,2.51,1.6472,1.6186,1.6917,1.4834,0.8459,1.0915,0.1279,0.5639,0.9819,0.3049,0.1276,-0.5606
1.0876,1.033,0.8407,0.8836,1.0679,0.6654,0.2919,0.0984,-0.145,0.4768,0.2164,0.2819,0.9757,1.3962,1.0577,1.5037,1.4519,2.5286,1.6422,1.5673,1.6365,1.5189,0.8823,1.1387,0.1806,0.6037,1.0321,0.3089,0.0951,-0.5328
1.0643,0.9739,0.7568,0.7516,0.9046,0.5162,0.1526,-0.01,-0.2697,0.372,0.1283,0.2589,0.9347,1.3193,1.0297,1.4651,1.4288,2.5479,1.6281,1.5027,1.5622,1.5407,0.9156,1.1654,0.2239,0.6362,1.074,0.3136,0.0751,-0.5053
1.0386,0.9001,0.664,0.6012,0.7327,0.3631,0.0089,-0.1078,-0.3901,0.263,0.043,0.2412,0.8761,1.2234,0.9979,1.4181,1.3961,2.5602,1.5983,1.4212,1.4683,1.5385,0.9394,1.1673,0.2534,0.6578,1.1019,0.318,0.0684,-0.4764
1.0043,0.8114,0.565,0.4421,0.5642,0.2177,-0.1275,-0.1884,-0.4975,0.1577,-0.034,0.2282,0.8024,1.1127,0.9577,1.3575,1.3473,2.558,1.5455,1.3214,1.3564,1.5011,0.9453,1.1423,0.2655,0.6649,1.1107,0.3199,0.0729,-0.4444
0.9559,0.7126,0.4651,0.2895,0.4137,0.0934,-0.2462,-0.2474,-0.5865,0.0629,-0.1002,0.217,0.7179,0.9919,0.9042,1.2794,1.2753,2.5342,1.4618,1.2029,1.2291,1.4169,0.9221,1.0891,0.2572,0.6542,1.0956,0.3153,0.0837,-0.4083
0.8891,0.6113,0.3705,0.1611,0.2951,0.0027,-0.3405,-0.2838,-0.6559,-0.0177,-0.1569,0.2021,0.6267,0.8647,0.8325,1.1811,1.1735,2.4831,1.34,1.066,1.0888,1.2758,0.8582,1.007,0.226,0.6222,1.0521,0.2992,0.0943,-0.3674
0.8009,0.5152,0.2858,0.0721,0.2178,-0.0463,-0.4081,-0.2998,-0.7085,-0.0842,-0.208,0.177,0.5318,0.7332,0.7384,1.061,1.0368,2.4014,1.1748,0.9112,0.9374,1.071,0.7435,0.896,0.1708,0.5663,0.9767,0.2662,0.098,-0.3213
0.6901,0.4304,0.2134,0.0312,0.185,-0.0517,-0.4516,-0.3005,-0.7498,-0.1395,-0.2591,0.1359,0.4344,0.5978,0.6192,0.919,0.8634,2.289,0.9647,0.7399,0.7756,0.8016,0.5729,0.7574,0.0922,0.4859,0.8682,0.2126,0.0899,-0.2701
0.5582,0.3589,0.1526,0.0379,0.1924,-0.0184,-0.477,-0.292,-0.7864,-0.1881,-0.315,0.0764,0.3351,0.4582,0.4756,0.7574,0.6558,2.1494,0.7134,0.5539,0.6046,0.4743,0.3491,0.5947,-0.0065,0.3831,0.7293,0.1375,0.0678,-0.2142
0.4098,0.2992,0.1004,0.0824,0.2293,0.0427,-0.4917,-0.2803,-0.8233,-0.2346,-0.3782,0.0001,0.2339,0.3144,0.3123,0.5808,0.4218,1.9897,0.4307,0.3568,0.426,0.1035,0.0835,0.4145,-0.1197,0.2634,0.5673,0.0447,0.033,-0.1546
0.2526,0.2471,0.0526,0.1477,0.2808,0.1173,-0.5033,-0.2695,-0.8636,-0.2819,-0.4478,-0.0866,0.132,0.1678,0.1381,0.3963,0.1734,1.82,0.1312,0.1537,0.2431,-0.2895,-0.2045,0.2262,-0.2396,0.1353,0.3936,-0.0583,-0.01,-0.0928
