FP1,F3,F7,FC3,C3,C5,P3,P7,PO7,PO3,O1,Oz,Pz,CPz,FP2,Fz,F4,F8,FC4,FCz,Cz,C4,C6,P4,P8,PO8,PO4,O2,HEOG_left,HEOG_right
-0.9544,-1.1015,-0.5424,-0.9584,-0.8218,-0.6698,-0.296,-0.0025,-0.0244,-0.1265,0.0371,-0.0022,-0.4262,-0.8525,-1.0948,-1.1765,-1.0868,-1.0115,-1.0159,-1.2196,-1.086,-0.7128,-0.3918,-0.2228,0.1275,0.113,-0.042,0.0647,-0.3043,-0.5001
-0.9283,-0.9945,-0.4842,-0.8763,-0.783,-0.6196,-0.2924,0.0513,-0.0152,-0.1406,-0.007,-0.0468,-0.4343,-0.8407,-1.0398,-1.1082,-1.038,-0.9184,-0.9585,-1.1489,-1.0567,-0.6882,-0.4059,-0.2547,0.0608,0.0522,-0.0769,0.0166,-0.3313,-0.4768
-0.8958,-0.8932,-0.4265,-0.7967,-0.7456,-0.569,-0.2903,0.0987,-0.0115,-0.1544,-0.0489,-0.0895,-0.4415,-0.8267,-0.979,-1.0392,-0.9856,-0.8251,-0.8995,-1.0785,-1.025,-0.6612,-0.4141,-0.2825,-0.0022,-0.0054,-0.1098,-0.0309,-0.3498,-0.4494
-0.8528,-0.8022,-0.3694,-0.7218,-0.7113,-0.5184,-0.2908,0.1343,-0.0171,-0.168,-0.0864,-0.1284,-0.4473,-0.8095,-0.9088,-0.97,-0.9274,-0.7318,-0.8385,-1.0097,-0.9899,-0.6307,-0.4125,-0.3037,-0.0586,-0.057,-0.1397,-0.0765,-0.3524,-0.4143
-0.7976,-0.7249,-0.313,-0.6535,-0.6808,-0.469,-0.2938,0.155,-0.0329,-0.1805,-0.1175,-0.1614,-0.4513,-0.7885,-0.8282,-0.9022,-0.8636,-0.6395,-0.7769,-0.9446,-0.9515,-0.5974,-0.4,-0.3176,-0.1067,-0.1016,-0.1666,-0.1194,-0.3351,-0.3689
-0.731,-0.6628,-0.258,-0.5933,-0.6541,-0.4217,-0.298,0.1607,-0.0569,-0.1909,-0.1406,-0.1871,-0.453,-0.7642,-0.7393,-0.8382,-0.7969,-0.5501,-0.7174,-0.8858,-0.9115,-0.5636,-0.3778,-0.3255,-0.1469,-0.1399,-0.1915,-0.1589,-0.2976,-0.3125
-0.657,-0.6161,-0.2057,-0.5426,-0.6308,-0.3783,-0.3014,0.1539,-0.0849,-0.198,-0.1553,-0.2044,-0.4524,-0.7379,-0.6471,-0.7809,-0.7319,-0.4664,-0.6637,-0.8361,-0.8722,-0.5325,-0.3493,-0.33,-0.1804,-0.1735,-0.2159,-0.1945,-0.2438,-0.2467
-0.5815,-0.5835,-0.1583,-0.502,-0.6103,-0.3404,-0.3025,0.1383,-0.1121,-0.2014,-0.162,-0.2131,-0.45,-0.7113,-0.558,-0.7329,-0.6736,-0.3915,-0.6195,-0.7972,-0.8366,-0.5072,-0.3191,-0.3344,-0.2093,-0.2043,-0.2412,-0.2254,-0.1808,-0.1756
-0.5112,-0.5627,-0.1187,-0.4718,-0.5924,-0.3099,-0.3006,0.1183,-0.134,-0.2016,-0.1622,-0.2135,-0.4468,-0.6862,-0.4786,-0.6957,-0.6259,-0.3282,-0.5868,-0.7698,-0.8065,-0.4899,-0.2915,-0.3415,-0.2346,-0.2331,-0.2678,-0.2504,-0.1172,-0.105
-0.4525,-0.5508,-0.0898,-0.4515,-0.5771,-0.2884,-0.296,0.0972,-0.1484,-0.2,-0.1582,-0.2063,-0.4441,-0.6641,-0.4143,-0.6691,-0.5905,-0.2779,-0.5655,-0.752,-0.7824,-0.4805,-0.2694,-0.3525,-0.2564,-0.2588,-0.2949,-0.2678,-0.0611,-0.0418
-0.4097,-0.5444,-0.0744,-0.4397,-0.5644,-0.2764,-0.2901,0.0772,-0.1549,-0.1984,-0.1525,-0.1929,-0.4426,-0.645,-0.368,-0.6506,-0.5664,-0.2405,-0.5535,-0.7403,-0.7628,-0.4773,-0.2541,-0.3667,-0.2732,-0.2791,-0.3198,-0.2757,-0.019,0.008
-0.3843,-0.5402,-0.0738,-0.434,-0.5538,-0.273,-0.2847,0.0588,-0.1551,-0.1985,-0.1471,-0.1748,-0.4423,-0.6281,-0.3396,-0.6366,-0.55,-0.2141,-0.5465,-0.7292,-0.7444,-0.4768,-0.245,-0.3812,-0.2827,-0.2908,-0.3389,-0.2726,0.0057,0.0396
-0.3749,-0.5349,-0.088,-0.4315,-0.544,-0.276,-0.2811,0.0416,-0.1513,-0.2011,-0.1435,-0.1536,-0.4418,-0.611,-0.3259,-0.6222,-0.536,-0.1956,-0.5395,-0.7126,-0.7226,-0.4746,-0.2395,-0.392,-0.2819,-0.2906,-0.3482,-0.2581,0.0127,0.0509
-0.3771,-0.5262,-0.115,-0.4289,-0.5328,-0.2816,-0.2794,0.0248,-0.1461,-0.2059,-0.1422,-0.131,-0.4382,-0.59,-0.3217,-0.6024,-0.5187,-0.1815,-0.5269,-0.6848,-0.6921,-0.4659,-0.2344,-0.3941,-0.2687,-0.276,-0.3437,-0.2327,0.0042,0.0424
-0.3847,-0.5122,-0.1518,-0.4235,-0.5176,-0.2856,-0.2779,0.0078,-0.1411,-0.2108,-0.1424,-0.1079,-0.4278,-0.5614,-0.3205,-0.5732,-0.4933,-0.1686,-0.5045,-0.6415,-0.6483,-0.4468,-0.2261,-0.3832,-0.2417,-0.2458,-0.3223,-0.1976,-0.0155,0.0169
-0.3916,-0.4921,-0.1936,-0.4131,-0.4954,-0.2841,-0.2736,-0.0092,-0.1371,-0.213,-0.1422,-0.0847,-0.4068,-0.5214,-0.3166,-0.5321,-0.4565,-0.1548,-0.4692,-0.581,-0.5882,-0.4146,-0.2119,-0.3558,-0.2011,-0.1999,-0.2824,-0.1544,-0.041,-0.0209
-0.3919,-0.4657,-0.2354,-0.3966,-0.4641,-0.2745,-0.2626,-0.0252,-0.1338,-0.209,-0.1392,-0.0606,-0.3717,-0.4673,-0.3052,-0.4788,-0.4076,-0.1391,-0.4202,-0.5042,-0.5112,-0.3685,-0.1898,-0.3107,-0.1483,-0.1398,-0.2242,-0.1047,-0.0663,-0.065
-0.3814,-0.4328,-0.2713,-0.3737,-0.4222,-0.2551,-0.2414,-0.0387,-0.1301,-0.1957,-0.1305,-0.0347,-0.3203,-0.3985,-0.2834,-0.4149,-0.348,-0.1214,-0.3588,-0.4149,-0.4192,-0.3091,-0.159,-0.2484,-0.0861,-0.0684,-0.1499,-0.0499,-0.0855,-0.1083
-0.3576,-0.3934,-0.2949,-0.3445,-0.3695,-0.2258,-0.2075,-0.0478,-0.1248,-0.1716,-0.1142,-0.006,-0.2526,-0.3161,-0.2501,-0.344,-0.281,-0.102,-0.2881,-0.3186,-0.3168,-0.2392,-0.1197,-0.1719,-0.0184,0.0097,-0.0635,0.0083,-0.093,-0.1435
-0.3192,-0.3473,-0.3006,-0.309,-0.307,-0.1872,-0.1607,-0.0508,-0.1169,-0.1368,-0.0894,0.0256,-0.1707,-0.224,-0.2053,-0.2704,-0.2111,-0.0812,-0.2126,-0.2219,-0.2106,-0.1627,-0.0729,-0.0864,0.05,0.0885,0.0285,0.0677,-0.0847,-0.1638
-0.2669,-0.2944,-0.2841,-0.2678,-0.2373,-0.1405,-0.1035,-0.047,-0.106,-0.0935,-0.0573,0.0586,-0.0799,-0.128,-0.1504,-0.1988,-0.1429,-0.0588,-0.1371,-0.1315,-0.1081,-0.0848,-0.0209,0.0013,0.1139,0.1607,0.1185,0.1247,-0.0586,-0.1643
-0.2026,-0.2354,-0.2436,-0.2216,-0.1641,-0.0876,-0.0405,-0.0366,-0.0922,-0.0461,-0.0211,0.0899,0.0124,-0.0354,-0.0874,-0.1335,-0.0804,-0.0345,-0.0669,-0.053,-0.017,-0.0115,0.0329,0.0832,0.1677,0.2185,0.1974,0.1744,-0.0153,-0.1426
-0.1298,-0.1717,-0.1811,-0.1718,-0.0917,-0.0313,0.0219,-0.0208,-0.076,0,0.0145,0.1146,0.0972,0.0461,-0.0198,-0.0776,-0.0269,-0.0079,-0.0063,0.0093,0.0565,0.0512,0.0843,0.1508,0.2062,0.2547,0.2564,0.2108,0.0414,-0.0996
-0.0531,-0.1056,-0.1018,-0.1203,-0.0249,0.0256,0.0771,-0.002,-0.0579,0.0392,0.0442,0.1275,0.1655,0.11,0.0489,-0.0329,0.0159,0.0211,0.0414,0.0534,0.1084,0.0984,0.1284,0.1969,0.2255,0.2633,0.2879,0.228,0.1054,-0.0396
0.0225,-0.0397,-0.0137,-0.0694,0.0327,0.0798,0.1197,0.0172,-0.0385,0.0671,0.064,0.1242,0.2101,0.1524,0.1147,0.0007,0.0482,0.0524,0.0748,0.0802,0.1385,0.1273,0.1612,0.2167,0.2234,0.2416,0.2873,0.2218,0.1693,0.0311
0.0931,0.0233,0.0742,-0.0212,0.079,0.1284,0.1468,0.0342,-0.0177,0.0815,0.0716,0.103,0.227,0.1731,0.1748,0.0256,0.0716,0.0857,0.095,0.0934,0.1501,0.1384,0.1805,0.2094,0.2004,0.1908,0.2546,0.1911,0.2263,0.1051
0.1558,0.0819,0.1535,0.023,0.1141,0.1695,0.1586,0.047,0.0044,0.0828,0.0675,0.0656,0.2171,0.1756,0.2278,0.0456,0.0899,0.1209,0.1057,0.099,0.1497,0.1358,0.1867,0.1788,0.16,0.1164,0.1945,0.1392,0.2712,0.1758
0.21,0.1351,0.218,0.0627,0.14,0.202,0.1574,0.0545,0.0272,0.0735,0.0546,0.0173,0.1854,0.1666,0.2743,0.0659,0.1076,0.1585,0.1126,0.1045,0.146,0.1265,0.1827,0.1326,0.1081,0.028,0.1165,0.0736,0.302,0.2381
0.2563,0.1831,0.2638,0.0987,0.1597,0.2254,0.1476,0.0556,0.0492,0.0578,0.0371,-0.0344,0.1403,0.1543,0.3163,0.0918,0.1296,0.1988,0.1223,0.1175,0.1475,0.1188,0.1727,0.0808,0.0525,-0.0625,0.0323,0.0044,0.3195,0.2889
0.2964,0.2264,0.2898,0.132,0.1765,0.24,0.1335,0.05,0.0679,0.0396,0.0194,-0.081,0.0915,0.1467,0.3567,0.1274,0.16,0.2416,0.141,0.144,0.1612,0.1204,0.1615,0.034,0.001,-0.1426,-0.0457,-0.0575,0.3263,0.3262
0.3316,0.2656,0.2968,0.164,0.1927,0.2455,0.1184,0.0369,0.0802,0.0224,0.0048,-0.115,0.048,0.1499,0.397,0.1748,0.201,0.2852,0.1727,0.187,0.1908,0.1361,0.1523,0.0004,-0.0396,-0.202,-0.1072,-0.1026,0.325,0.3488
0.3627,0.3009,0.2871,0.1956,0.2096,0.2421,0.1043,0.0157,0.0835,0.0083,-0.0051,-0.1315,0.0169,0.1671,0.4375,0.2336,0.2522,0.3266,0.2181,0.2462,0.2369,0.1672,0.1468,-0.0151,-0.0648,-0.234,-0.1457,-0.125,0.3175,0.3553
0.3892,0.3322,0.2641,0.2272,0.2275,0.2301,0.0917,-0.0139,0.0766,-0.0018,-0.0103,-0.1289,0.0023,0.1984,0.4755,0.3009,0.3109,0.3614,0.2748,0.3181,0.2967,0.2105,0.1445,-0.0117,-0.0734,-0.2363,-0.159,-0.1234,0.3037,0.3447
0.4099,0.3596,0.2316,0.2586,0.2463,0.2108,0.0802,-0.0509,0.0603,-0.0079,-0.0121,-0.1089,0.0054,0.2412,0.5068,0.372,0.3721,0.3843,0.3373,0.3966,0.365,0.2599,0.143,0.0074,-0.0666,-0.2116,-0.1492,-0.1008,0.2821,0.3165
0.4235,0.3833,0.1939,0.2897,0.2658,0.1865,0.0695,-0.0929,0.0375,-0.01,-0.012,-0.076,0.025,0.2913,0.526,0.4413,0.43,0.3911,0.3986,0.4744,0.4358,0.3077,0.1397,0.0368,-0.0484,-0.166,-0.1215,-0.0636,0.2506,0.2717
0.4288,0.4041,0.1553,0.3199,0.2866,0.1609,0.0602,-0.1359,0.0129,-0.0079,-0.0108,-0.0356,0.0582,0.3441,0.5284,0.5032,0.4789,0.3792,0.4515,0.5446,0.5032,0.3468,0.1322,0.0703,-0.024,-0.108,-0.0827,-0.0199,0.2077,0.2132
0.4259,0.4236,0.1201,0.3492,0.3098,0.1387,0.0539,-0.1747,-0.0083,-0.0006,-0.0085,0.0064,0.1016,0.3954,0.5115,0.5541,0.515,0.3487,0.4908,0.6018,0.5624,0.3723,0.1201,0.1023,0.0016,-0.046,-0.0396,0.0224,0.1535,0.1461
0.4166,0.4437,0.0917,0.3778,0.3371,0.1244,0.053,-0.2038,-0.021,0.013,-0.0038,0.0457,0.1516,0.4424,0.4764,0.5923,0.5368,0.3032,0.5141,0.6431,0.6105,0.3831,0.1052,0.1295,0.0244,0.0129,0.0027,0.0576,0.0904,0.077
0.404,0.4666,0.0729,0.4065,0.3703,0.1223,0.0603,-0.2188,-0.0218,0.0341,0.005,0.0795,0.2048,0.4834,0.4279,0.6188,0.5458,0.2492,0.5227,0.6688,0.6467,0.3817,0.0916,0.1513,0.0422,0.0644,0.0412,0.0829,0.0231,0.0132
0.3933,0.4939,0.0654,0.4366,0.4109,0.1351,0.0778,-0.2169,-0.0093,0.0633,0.0198,0.107,0.2584,0.5185,0.3742,0.637,0.5462,0.1955,0.5211,0.6819,0.6721,0.3732,0.0841,0.1693,0.0552,0.1071,0.0752,0.0986,-0.0418,-0.0384
0.3897,0.5268,0.07,0.4698,0.4596,0.1639,0.1064,-0.1981,0.0154,0.1,0.0415,0.1288,0.3105,0.5486,0.325,0.6517,0.5438,0.1512,0.5155,0.6876,0.6895,0.3644,0.0874,0.1867,0.0653,0.1418,0.1063,0.1074,-0.0971,-0.0725
0.3987,0.5657,0.0865,0.5077,0.5162,0.2077,0.1455,-0.1648,0.0496,0.1422,0.0699,0.1462,0.3597,0.5761,0.2901,0.6685,0.5448,0.1249,0.5128,0.6925,0.7026,0.3619,0.1045,0.2075,0.075,0.1709,0.137,0.1129,-0.1362,-0.0857
0.424,0.6104,0.114,0.5516,0.5796,0.2638,0.193,-0.1215,0.0892,0.1871,0.1033,0.1609,0.406,0.6039,0.2769,0.6927,0.5554,0.1224,0.5197,0.7033,0.7163,0.3711,0.1357,0.235,0.087,0.1964,0.1699,0.1188,-0.1545,-0.0775
0.4671,0.6603,0.151,0.6027,0.6481,0.3282,0.2461,-0.0739,0.1298,0.2317,0.1391,0.1743,0.4503,0.6358,0.2897,0.7286,0.5803,0.1463,0.5412,0.7262,0.736,0.3959,0.1791,0.2714,0.1029,0.2199,0.2065,0.1275,-0.1503,-0.0496
0.5268,0.715,0.1959,0.6613,0.7194,0.3962,0.3019,-0.0279,0.1677,0.2737,0.1749,0.1876,0.4946,0.6758,0.3283,0.779,0.623,0.1954,0.581,0.766,0.7672,0.4384,0.2309,0.3178,0.1231,0.2419,0.2472,0.1401,-0.1252,-0.0058
0.5993,0.7736,0.2466,0.7271,0.7913,0.4629,0.3581,0.0116,0.2002,0.3121,0.2086,0.2019,0.5412,0.7278,0.3887,0.845,0.6849,0.2646,0.6407,0.8256,0.8149,0.4989,0.2868,0.3732,0.1466,0.2619,0.2908,0.1565,-0.0841,0.0487
0.6787,0.8353,0.3007,0.7988,0.8616,0.5237,0.413,0.0418,0.226,0.3473,0.2393,0.2176,0.5924,0.7942,0.4634,0.9252,0.7647,0.3462,0.7192,0.9052,0.8823,0.5756,0.3419,0.4354,0.171,0.2789,0.3353,0.1757,-0.0341,0.1079
0.7577,0.8984,0.3551,0.8735,0.9277,0.5742,0.4656,0.0615,0.2453,0.3807,0.2672,0.235,0.6494,0.875,0.5428,1.0157,0.8588,0.4306,0.8128,1.0018,0.9694,0.6641,0.392,0.5006,0.1937,0.2916,0.378,0.1963,0.0167,0.1652
0.8286,0.9601,0.4056,0.9471,0.9867,0.6106,0.5148,0.0712,0.2584,0.4139,0.2927,0.2538,0.7116,0.9669,0.6167,1.1104,0.9603,0.5083,0.9148,1.109,1.0723,0.7583,0.4337,0.5641,0.212,0.2994,0.4164,0.2167,0.0596,0.2138
0.8836,1.0164,0.4472,1.0141,1.0349,0.6294,0.5593,0.072,0.2656,0.4478,0.3163,0.2731,0.7769,1.0639,0.6755,1.2012,1.0606,0.5707,1.0165,1.2177,1.1828,0.8507,0.4651,0.6214,0.2243,0.3024,0.4491,0.2361,0.0872,0.2469
0.9169,1.0621,0.4744,1.0688,1.069,0.6281,0.5975,0.0649,0.2664,0.4822,0.3378,0.292,0.8417,1.1578,0.7115,1.2798,1.1498,0.6123,1.1088,1.3175,1.2904,0.9337,0.4865,0.6692,0.2307,0.302,0.4759,0.2543,0.0938,0.258
0.9249,1.0927,0.4823,1.1062,1.0865,0.6057,0.6276,0.0499,0.26,0.5159,0.3566,0.3098,0.9025,1.2403,0.7206,1.3389,1.2191,0.6313,1.1834,1.3985,1.3841,1.0015,0.5009,0.7065,0.2337,0.3011,0.499,0.272,0.0762,0.242
0.9084,1.1052,0.4678,1.1242,1.0875,0.5645,0.6484,0.0271,0.2453,0.5472,0.3722,0.3266,0.9567,1.3055,0.7026,1.3745,1.2623,0.63,1.2352,1.4543,1.4559,1.0515,0.5131,0.7351,0.2373,0.3034,0.5219,0.2911,0.0349,0.1971
0.8728,1.1005,0.4322,1.1252,1.0761,0.5102,0.6603,-0.0035,0.2226,0.5751,0.3846,0.3438,1.0039,1.3516,0.6625,1.3875,1.278,0.6148,1.2638,1.4841,1.5027,1.0853,0.5293,0.7598,0.2467,0.3138,0.5497,0.3144,-0.0257,0.1255
0.8295,1.0846,0.3817,1.1171,1.0605,0.4531,0.6655,-0.0403,0.1937,0.5993,0.3948,0.3636,1.0465,1.3817,0.6097,1.3851,1.2708,0.5953,1.2743,1.4937,1.5288,1.1089,0.5558,0.7869,0.2666,0.3363,0.5875,0.3445,-0.0971,0.0355
0.7941,1.069,0.3281,1.1131,1.0531,0.4073,0.6688,-0.0797,0.1622,0.6209,0.4048,0.3885,1.0889,1.4039,0.5579,1.3804,1.2516,0.5831,1.2772,1.4958,1.545,1.1314,0.5977,0.8231,0.2994,0.373,0.6388,0.3836,-0.1682,-0.0593
0.7854,1.0702,0.2882,1.1304,1.069,0.3889,0.6766,-0.1158,0.1335,0.6422,0.417,0.4201,1.137,1.4299,0.5233,1.3915,1.2364,0.5899,1.2874,1.5085,1.5673,1.164,0.6579,0.8731,0.3438,0.4229,0.7045,0.4316,-0.2263,-0.1407
0.8223,1.1068,0.281,1.1876,1.1235,0.4135,0.6965,-0.1408,0.1136,0.6659,0.4339,0.4589,1.1965,1.472,0.5225,1.4382,1.2446,0.6262,1.3218,1.5522,1.6136,1.217,0.7358,0.9383,0.3946,0.4808,0.7819,0.4857,-0.2598,-0.1887
0.9204,1.197,0.3248,1.3006,1.2291,0.4937,0.7355,-0.1464,0.1081,0.6949,0.4572,0.5029,1.2711,1.5413,0.5702,1.5391,1.2959,0.6998,1.3962,1.6463,1.7006,1.2979,0.8278,1.0162,0.4429,0.5378,0.8643,0.5407,-0.2599,-0.1846
1.089,1.3543,0.433,1.4795,1.3928,0.6361,0.7989,-0.1255,0.1211,0.7312,0.4877,0.5489,1.3615,1.6446,0.6766,1.7075,1.4063,0.8144,1.5216,1.8048,1.8394,1.4095,0.9272,1.1,0.4777,0.5828,0.9426,0.5894,-0.2217,-0.1148
1.3289,1.5847,0.6115,1.7257,1.614,0.8398,0.889,-0.0739,0.155,0.776,0.5251,0.5923,1.465,1.7831,0.8461,1.9483,1.5848,0.9687,1.7022,2.033,2.0333,1.549,1.0253,1.18,0.4889,0.6051,1.0063,0.6246,-0.1453,0.0265
1.632,1.8844,0.8568,2.0308,1.8837,1.0952,1.004,0.0082,0.2098,0.8289,0.5684,0.6288,1.5752,1.9513,1.0757,2.2563,1.831,1.1568,1.9332,2.3258,2.2761,1.7084,1.1135,1.246,0.4692,0.5964,1.0458,0.6404,-0.035,0.2359
1.9814,2.2395,1.1556,2.3774,2.185,1.3854,1.1378,0.1158,0.2826,0.8881,0.6156,0.6554,1.6834,2.1377,1.3556,2.6156,2.1342,1.3682,2.2016,2.6675,2.5531,1.8757,1.1846,1.2885,0.4164,0.5535,1.0542,0.6343,0.1013,0.5003
2.3539,2.6273,1.4869,2.7406,2.4952,1.688,1.2803,0.2393,0.3681,0.9503,0.6638,0.6704,1.7795,2.3262,1.6688,3.0017,2.4737,1.5886,2.4876,3.0333,2.8425,2.0371,1.2343,1.3009,0.3335,0.4788,1.0283,0.607,0.2527,0.7987
2.7211,3.0175,1.823,3.0911,2.7879,1.977,1.4187,0.3657,0.4584,1.0104,0.7095,0.6734,1.853,2.4978,1.9925,3.3826,2.8207,1.8007,2.766,3.3915,3.1177,2.1779,1.2608,1.2799,0.2283,0.3794,0.9684,0.5625,0.4062,1.1039
3.0519,3.3752,2.133,3.397,3.0361,2.2261,1.5382,0.4811,0.544,1.0618,0.7483,0.6652,1.8939,2.632,2.2987,3.722,3.1398,1.9847,3.0083,3.7064,3.3501,2.2836,1.2641,1.2252,0.1116,0.2662,0.8784,0.5065,0.5465,1.3853
3.314,3.6637,2.3845,3.627,3.214,2.4104,1.624,0.5722,0.6145,1.0973,0.7752,0.6467,1.8938,2.7092,2.5557,3.9815,3.3926,2.1198,3.185,3.9412,3.511,2.3401,1.2447,1.1396,-0.0047,0.1513,0.7646,0.4456,0.6578,1.6119
3.4768,3.8478,2.5471,3.7525,3.2995,2.5095,1.6627,0.6287,0.6605,1.1095,0.7855,0.619,1.8463,2.7132,2.731,4.1248,3.5416,2.1855,3.268,4.0617,3.5754,2.3355,1.2018,1.0275,-0.1095,0.0461,0.6352,0.3857,0.7245,1.7555
3.5143,3.898,2.5957,3.7515,3.2767,2.5089,1.6445,0.6448,0.6745,1.0922,0.7749,0.5827,1.7487,2.6331,2.7951,4.1223,3.5551,2.1651,3.2345,4.0408,3.5246,2.2603,1.1337,0.8952,-0.1936,-0.04,0.4995,0.3309,0.7338,1.794
3.409,3.7947,2.5139,3.6108,3.1375,2.4023,1.5644,0.6197,0.6527,1.0415,0.7408,0.5383,1.603,2.4661,2.7262,3.9557,3.4127,2.0478,3.0707,3.8627,3.3492,2.1101,1.0383,0.7506,-0.2503,-0.1007,0.3675,0.2838,0.678,1.7149
3.1562,3.5316,2.2979,3.3294,2.8834,2.1927,1.4235,0.5573,0.5953,0.9567,0.6827,0.4862,1.416,2.2182,2.5154,3.6221,3.1102,1.8331,2.776,3.5265,3.0517,1.8871,0.9146,0.6024,-0.2759,-0.1327,0.2489,0.245,0.5573,1.518
2.7657,3.1178,1.9576,2.9189,2.5259,1.8921,1.2297,0.466,0.507,0.8412,0.6028,0.4274,1.1994,1.9046,2.1693,3.1366,2.662,1.5318,2.3646,3.0479,2.6468,1.6012,0.7645,0.4599,-0.2691,-0.1357,0.1522,0.2137,0.3808,1.2163
2.2633,2.578,1.5172,2.4042,2.0863,1.521,0.9964,0.3563,0.3961,0.7022,0.5064,0.3635,0.9682,1.5479,1.7118,2.5322,2.1014,1.1674,1.8658,2.4589,2.1609,1.2703,0.5946,0.3324,-0.231,-0.1117,0.0837,0.1893,0.1658,0.8356
1.6881,1.9512,1.0124,1.8212,1.5938,1.1064,0.7417,0.2401,0.2739,0.5503,0.4009,0.2975,0.7392,1.1757,1.182,1.8566,1.4773,0.7732,1.3219,1.8049,1.6297,0.9191,0.4166,0.2276,-0.1648,-0.0645,0.0466,0.1709,-0.0647,0.4108
1.0887,1.2867,0.486,1.2134,1.0833,0.6794,0.486,0.1281,0.1528,0.3981,0.2955,0.2336,0.5288,0.8171,0.6296,1.1675,0.8483,0.3889,0.783,1.1403,1.0951,0.5771,0.2467,0.1518,-0.0755,0.0004,0.041,0.1588,-0.2854,-0.0183
0.518,0.6391,-0.0168,0.6279,0.5922,0.2716,0.2495,0.0291,0.045,0.2588,0.1997,0.1766,0.3516,0.5002,0.1085,0.5261,0.2754,0.0544,0.301,0.5227,0.6011,0.2751,0.1029,0.1087,0.0299,0.0768,0.0635,0.1538,-0.4733,-0.4125
0.0264,0.0633,-0.4543,0.1111,0.1578,-0.087,0.0509,-0.0507,-0.0396,0.1446,0.1224,0.1317,0.2196,0.2498,-0.3296,-0.0103,-0.1863,-0.1961,-0.0777,0.0064,0.19,0.0414,0.0025,0.0999,0.143,0.1577,0.1091,0.1572,-0.6105,-0.7378
-0.3431,-0.3918,-0.7919,-0.2954,-0.186,-0.3714,-0.0944,-0.1082,-0.0937,0.066,0.0714,0.1044,0.1421,0.0859,-0.642,-0.394,-0.4944,-0.3386,-0.318,-0.3627,-0.1015,-0.1012,-0.0417,0.1252,0.2547,0.2366,0.1722,0.1708,-0.6867,-0.9695
-0.5595,-0.6873,-1.0055,-0.5586,-0.4112,-0.5625,-0.1742,-0.1422,-0.1134,0.0315,0.0528,0.0995,0.1262,0.0229,-0.7995,-0.5916,-0.6236,-0.362,-0.3999,-0.5519,-0.2456,-0.1383,-0.023,0.1836,0.356,0.3083,0.2488,0.1966,-0.6986,-1.0936
-0.6059,-0.798,-1.0824,-0.6556,-0.4971,-0.6483,-0.1804,-0.1533,-0.0978,0.0473,0.0712,0.1219,0.1771,0.07,-0.7885,-0.5871,-0.567,-0.2684,-0.3198,-0.5443,-0.2252,-0.0645,0.0581,0.274,0.4399,0.3702,0.3371,0.2371,-0.6497,-1.107
-0.4803,-0.7138,-1.022,-0.5762,-0.4327,-0.6244,-0.1083,-0.1426,-0.0488,0.1176,0.1294,0.1755,0.2982,0.2305,-0.6115,-0.3813,-0.3345,-0.0712,-0.0886,-0.3388,-0.0355,0.1166,0.1948,0.3962,0.5025,0.4224,0.4387,0.2953,-0.5477,-1.0167
-0.1947,-0.4408,-0.8349,-0.3231,-0.217,-0.4933,0.0432,-0.1117,0.0295,0.2441,0.2283,0.2627,0.4908,0.5019,-0.2846,0.0087,0.0503,0.208,0.2717,0.0499,0.3157,0.3939,0.3757,0.5506,0.5436,0.4686,0.5572,0.3744,-0.4032,-0.8374
0.2271,-0.0006,-0.5414,0.0881,0.1403,-0.2639,0.2705,-0.0623,0.1319,0.4257,0.3662,0.3843,0.7527,0.8754,0.1645,0.5526,0.5543,0.5428,0.7312,0.5938,0.8091,0.7504,0.5867,0.7373,0.5666,0.5145,0.6973,0.4768,-0.2287,-0.5894
0.7516,0.5718,-0.1691,0.6291,0.6185,0.049,0.5655,0.0042,0.2524,0.6575,0.5388,0.538,1.0772,1.3355,0.6999,1.2098,1.1382,0.9049,1.2564,1.2545,1.4148,1.1643,0.8128,0.955,0.5777,0.5664,0.8622,0.6035,-0.0373,-0.2969
1.3381,1.2308,0.2496,1.2613,1.1873,0.4258,0.915,0.0859,0.3846,0.9307,0.7386,0.7182,1.4521,1.8594,1.2806,1.9325,1.7599,1.2665,1.8115,1.9857,2.0944,1.6104,1.0389,1.1991,0.5837,0.6297,1.0519,0.7528,0.1568,0.0145
1.9422,1.9242,0.6805,1.9383,1.8083,0.8428,1.3007,0.181,0.5221,1.2316,0.9546,0.9159,1.859,2.4176,1.863,2.6696,2.3765,1.6018,2.3609,2.7367,2.8035,2.0609,1.2499,1.4609,0.5906,0.707,1.2618,0.92,0.339,0.3188
2.5183,2.5976,1.0907,2.6094,2.4382,1.2736,1.6996,0.2865,0.6587,1.5424,1.1733,1.1193,2.2743,2.9755,2.404,3.3692,2.9455,1.8877,2.8695,3.4559,3.4945,2.4868,1.4322,1.7271,0.6021,0.7975,1.4821,1.0971,0.4947,0.5918
3.0229,3.1996,1.451,3.2245,3.0322,1.6908,2.0858,0.3984,0.7881,1.8421,1.3794,1.3144,2.6701,3.4953,2.8631,3.9825,3.4275,2.105,3.3041,4.0936,4.1201,2.8594,1.5733,1.9809,0.6194,0.8966,1.6989,1.2732,0.6101,0.8124
3.4181,3.6854,1.7379,3.7379,3.5475,2.0673,2.4318,0.511,0.9041,2.108,1.5571,1.487,3.0175,3.9391,3.2058,4.4662,3.7877,2.2393,3.6347,4.6052,4.6364,3.1527,1.6633,2.2035,0.6413,0.9972,1.8958,1.4356,0.6737,0.9641
3.6746,4.0208,1.9346,4.1128,3.9475,2.3785,2.7115,0.6171,1.0006,2.3186,1.692,1.6234,3.2887,4.2732,3.4062,4.7858,3.9987,2.2817,3.8371,4.9548,5.0064,3.3451,1.6961,2.3769,0.6648,1.0905,2.0562,1.5711,0.6784,1.0365
3.7749,4.185,2.032,4.3245,4.2051,2.6045,2.9033,0.7084,1.0716,2.4561,1.7724,1.712,3.4611,4.4712,3.4497,4.919,4.0436,2.2307,3.8951,5.1177,5.2039,3.4224,1.6703,2.4865,0.6862,1.1673,2.1655,1.6671,0.6227,1.0264
3.715,4.1719,2.0291,4.3629,4.3055,2.7318,2.9921,0.7766,1.1118,2.5086,1.7907,1.7448,3.5199,4.5182,3.3351,4.8578,3.9187,2.0925,3.8033,5.0837,5.2161,3.3798,1.5899,2.5231,0.7023,1.2196,2.2134,1.7139,0.5123,0.9385
3.5053,3.9906,1.933,4.2333,4.2473,2.7547,2.9717,0.8145,1.1168,2.472,1.7448,1.7181,3.4605,4.4131,3.0759,4.6107,3.635,1.8814,3.5691,4.8588,5.0461,3.2225,1.4643,2.4844,0.711,1.2419,2.1953,1.7055,0.3596,0.7848
3.1693,3.6638,1.758,3.9551,4.0426,2.6759,2.8456,0.817,1.0841,2.3507,1.6379,1.6333,3.2893,4.1687,2.6981,4.2015,3.2174,1.6186,3.2123,4.4647,4.7125,2.9661,1.3073,2.3756,0.7118,1.231,2.1129,1.6407,0.1824,0.5831
2.7402,3.2244,1.5234,3.5587,3.7145,2.5061,2.6263,0.7823,1.0135,2.1565,1.4786,1.4965,3.0229,3.8102,2.2375,3.6668,2.7024,1.3294,2.7632,3.9367,4.2473,2.6344,1.1349,2.2082,0.7056,1.1873,1.9737,1.5243,0.0012,0.3544
2.2558,2.7108,1.251,3.0799,3.2935,2.2616,2.3334,0.7118,0.9073,1.9073,1.2797,1.319,2.6857,3.3716,1.7341,3.0508,2.1324,1.0401,2.2587,3.3184,3.6914,2.2561,0.9634,1.9983,0.6949,1.1145,1.7902,1.366,-0.1645,0.1197
1.7533,2.161,0.9615,2.5556,2.8134,1.9624,1.9908,0.61,0.7702,1.6241,1.0562,1.115,2.3063,2.8901,1.2261,2.3987,1.5501,0.7739,1.7371,2.6562,3.089,1.861,0.8064,1.7639,0.6825,1.0187,1.5775,1.1797,-0.2993,-0.1032
1.2643,1.6085,0.6726,2.0181,2.3067,1.6297,1.6235,0.4839,0.609,1.3282,0.824,0.9007,1.9135,2.4016,0.7453,1.7516,0.9923,0.5482,1.2328,1.9925,2.4813,1.476,0.6739,1.5225,0.6713,0.9082,1.3518,0.9818,-0.3942,-0.3019
0.8118,1.0793,0.3968,1.4928,1.8016,1.2833,1.255,0.3418,0.4318,1.0387,0.5976,0.6915,1.5331,1.9355,0.3134,1.1412,0.4863,0.3727,0.7722,1.362,1.9024,1.122,0.5706,1.289,0.6636,0.792,1.128,0.788,-0.4476,-0.4701
0.4094,0.5908,0.1414,0.9977,1.3202,0.9404,0.9049,0.1922,0.2473,0.7704,0.3886,0.5006,1.1846,1.5128,-0.0585,0.5886,0.0476,0.2491,0.3722,0.7886,1.3761,0.8129,0.4971,1.0745,0.6609,0.6791,0.9184,0.612,-0.4643,-0.6068
0.0625,0.1536,-0.0904,0.5437,0.8781,0.6151,0.5881,0.0435,0.0647,0.5335,0.2054,0.3368,0.8809,1.1453,-0.3683,0.1044,-0.3184,0.1725,0.04,0.2859,0.9157,0.5557,0.4506,0.8862,0.6632,0.5768,0.7321,0.4629,-0.454,-0.7155
-0.2298,-0.227,-0.2977,0.1377,0.4856,0.3182,0.3146,-0.0968,-0.1074,0.3335,0.053,0.2049,0.6279,0.8372,-0.6201,-0.3081,-0.6141,0.1332,-0.2241,-0.1403,0.5262,0.3522,0.4268,0.7277,0.6699,0.4911,0.5747,0.3451,-0.4286,-0.8012
-0.4709,-0.548,-0.4808,-0.2157,0.1487,0.0573,0.0902,-0.2228,-0.2609,0.1724,-0.0671,0.1052,0.4262,0.5871,-0.8203,-0.6498,-0.8455,0.1202,-0.4239,-0.4892,0.2067,0.2007,0.4217,0.6002,0.68,0.4255,0.4493,0.2583,-0.3991,-0.8688
-0.6643,-0.8078,-0.639,-0.5122,-0.1293,-0.1622,-0.083,-0.3299,-0.389,0.0495,-0.1554,0.0349,0.273,0.3914,-0.9749,-0.9223,-1.0186,0.1231,-0.5642,-0.762,-0.0456,0.0988,0.4327,0.5041,0.6927,0.3824,0.3568,0.1989,-0.3739,-0.9218
-0.8118,-1.0047,-0.7706,-0.7472,-0.3464,-0.3373,-0.205,-0.4152,-0.4867,-0.0368,-0.2144,-0.0099,0.1645,0.2464,-1.0869,-1.126,-1.1373,0.1347,-0.6485,-0.9594,-0.2336,0.044,0.4592,0.4393,0.7081,0.3627,0.2972,0.1622,-0.3565,-0.9612
-0.9124,-1.1373,-0.8723,-0.9161,-0.5017,-0.4667,-0.2777,-0.4772,-0.5508,-0.0883,-0.2468,-0.0333,0.0973,0.1498,-1.1567,-1.2595,-1.2021,0.152,-0.6786,-1.0813,-0.3583,0.035,0.5021,0.4067,0.7277,0.367,0.2704,0.1444,-0.3459,-0.9855
-0.9634,-1.2048,-0.9398,-1.0149,-0.5948,-0.5502,-0.3037,-0.5153,-0.5799,-0.1063,-0.255,-0.0381,0.0695,0.1015,-1.1823,-1.3202,-1.2112,0.1764,-0.6544,-1.127,-0.419,0.0709,0.5631,0.4075,0.7537,0.3957,0.2762,0.1432,-0.3365,-0.9916
-0.9612,-1.2079,-0.969,-1.0417,-0.626,-0.589,-0.2859,-0.5296,-0.5746,-0.0915,-0.2409,-0.0253,0.081,0.1026,-1.161,-1.3059,-1.1617,0.2117,-0.5758,-1.0967,-0.4141,0.1506,0.643,0.443,0.7888,0.4483,0.3139,0.1587,-0.3205,-0.976
-0.9039,-1.1492,-0.9575,-0.9979,-0.5976,-0.5856,-0.2275,-0.5203,-0.5368,-0.0444,-0.2054,0.0054,0.1319,0.1542,-1.0922,-1.2168,-1.053,0.2629,-0.4447,-0.9927,-0.3432,0.2712,0.7409,0.5133,0.8347,0.5232,0.3822,0.1922,-0.2906,-0.9358
-0.793,-1.0344,-0.9053,-0.8889,-0.5134,-0.5432,-0.1319,-0.4877,-0.4693,0.0344,-0.1491,0.0551,0.2218,0.256,-0.9788,-1.0575,-0.8883,0.333,-0.2664,-0.8214,-0.2086,0.4269,0.8527,0.6158,0.8912,0.617,0.4779,0.245,-0.2422,-0.8709
-0.6348,-0.8719,-0.8162,-0.7242,-0.3802,-0.4664,-0.0033,-0.4324,-0.3758,0.1428,-0.0726,0.1244,0.3485,0.4042,-0.8281,-0.8375,-0.6763,0.4214,-0.0508,-0.5933,-0.0173,0.6089,0.9713,0.7449,0.9554,0.724,0.5956,0.3171,-0.1759,-0.7844
-0.4408,-0.6732,-0.6976,-0.5169,-0.207,-0.3607,0.1531,-0.3559,-0.2607,0.2775,0.0232,0.2128,0.5071,0.5917,-0.652,-0.5717,-0.4312,0.5228,0.1882,-0.3235,0.2194,0.8051,1.0869,0.8922,1.0224,0.8368,0.728,0.4064,-0.0981,-0.6833
-0.2263,-0.4519,-0.56,-0.2827,-0.0051,-0.2325,0.3308,-0.2606,-0.1288,0.4334,0.1362,0.3181,0.6901,0.8075,-0.4649,-0.2785,-0.171,0.6275,0.4341,-0.0296,0.4857,1.0021,1.1892,1.0472,1.0855,0.9472,0.8666,0.5089,-0.0195,-0.5769
-0.0094,-0.2227,-0.4154,-0.0379,0.213,-0.089,0.5217,-0.15,0.0142,0.6035,0.2632,0.4364,0.888,1.0379,-0.2823,0.0212,0.0844,0.7234,0.6696,0.2691,0.7632,1.1861,1.2686,1.1991,1.1377,1.0471,1.0025,0.6184,0.0465,-0.4763
0.1913,-0.0009,-0.2758,0.2008,0.4333,0.062,0.7165,-0.0288,0.1622,0.7792,0.399,0.5616,1.0897,1.2674,-0.1192,0.3063,0.3161,0.7975,0.8786,0.5531,1.0318,1.345,1.3178,1.3377,1.1727,1.1298,1.127,0.7279,0.0871,-0.3917
0.3587,0.1983,-0.1525,0.4179,0.6418,0.2113,0.9047,0.0972,0.308,0.9507,0.5368,0.6864,1.2833,1.4803,0.0118,0.557,0.5075,0.8391,1.0479,0.8045,1.2721,1.4691,1.3324,1.4545,1.1858,1.1902,1.2327,0.8297,0.0925,-0.3313
0.4781,0.361,-0.0552,0.5991,0.8243,0.3491,1.0751,0.2213,0.4441,1.107,0.6679,0.8023,1.4569,1.6615,0.101,0.7562,0.6465,0.841,1.1678,1.0073,1.4664,1.5514,1.3107,1.543,1.1743,1.2256,1.3131,0.9167,0.0576,-0.3005
0.5393,0.4754,0.0087,0.7321,0.9674,0.465,1.2165,0.336,0.5627,1.2371,0.7828,0.9005,1.599,1.7979,0.1426,0.8906,0.7257,0.8014,1.2323,1.1486,1.6004,1.5881,1.2537,1.5984,1.1379,1.2353,1.3638,0.9824,-0.0167,-0.3011
0.5366,0.532,0.0346,0.8072,1.0594,0.5486,1.3186,0.4333,0.6563,1.3307,0.8718,0.9726,1.6997,1.8794,0.1341,0.9515,0.7431,0.7232,1.2396,1.219,1.664,1.5782,1.1639,1.618,1.0786,1.22,1.3819,1.0218,-0.1241,-0.3316
0.4699,0.5254,0.0203,0.818,1.0915,0.5907,1.3727,0.5061,0.7187,1.3794,0.9263,1.0119,1.7512,1.8995,0.077,0.9353,0.701,0.6143,1.1911,1.2134,1.652,1.5232,1.0455,1.6007,1.0005,1.1812,1.3661,1.0311,-0.2538,-0.3879
0.3444,0.4545,-0.0329,0.7618,1.0583,0.584,1.3729,0.5478,0.7453,1.3777,0.94,1.0136,1.7486,1.8558,-0.0247,0.8436,0.6057,0.4849,1.0914,1.1312,1.5642,1.4266,0.904,1.5473,0.9088,1.1215,1.3172,1.0084,-0.3926,-0.4642
0.1698,0.3232,-0.1213,0.6406,0.9591,0.5245,1.3168,0.5542,0.7342,1.3236,0.9102,0.9759,1.6907,1.7505,-0.1645,0.6831,0.4657,0.3466,0.9474,0.9767,1.4057,1.2933,0.746,1.4603,0.8098,1.0445,1.2379,0.9543,-0.5265,-0.5539
-0.0405,0.1401,-0.2387,0.4611,0.7982,0.4119,1.2065,0.5233,0.6868,1.22,0.8386,0.9009,1.5806,1.5897,-0.3341,0.4651,0.2911,0.21,0.7677,0.7589,1.1862,1.1296,0.5795,1.3447,0.7103,0.9549,1.1333,0.8722,-0.6432,-0.6508
-0.2709,-0.082,-0.3771,0.2346,0.5848,0.2503,1.0486,0.456,0.6074,1.0742,0.7314,0.7951,1.4258,1.384,-0.524,0.2041,0.0924,0.0836,0.5618,0.4912,0.9192,0.9427,0.413,1.2079,0.6171,0.8599,1.011,0.7691,-0.7331,-0.7497
-0.5055,-0.3277,-0.528,-0.0242,0.3326,0.0482,0.8545,0.3567,0.5038,0.8983,0.5995,0.669,1.2383,1.1468,-0.7242,-0.0829,-0.1205,-0.0272,0.34,0.1899,0.6209,0.7406,0.2555,1.0592,0.5373,0.7683,0.8807,0.6554,-0.7902,-0.8469
-0.7296,-0.5807,-0.6826,-0.2984,0.0582,-0.1824,0.6388,0.2325,0.3859,0.7074,0.4572,0.5365,1.0326,0.8934,-0.9244,-0.3784,-0.3385,-0.1203,0.1122,-0.1268,0.3086,0.532,0.1147,0.9095,0.477,0.6899,0.7537,0.5441,-0.8133,-0.9402
-0.9316,-0.8255,-0.8336,-0.571,-0.2207,-0.4274,0.4183,0.0928,0.2649,0.5183,0.3198,0.4126,0.8244,0.6392,-1.1154,-0.6659,-0.5536,-0.1961,-0.1127,-0.4408,-0.0006,0.3253,-0.0039,0.7695,0.441,0.6344,0.6415,0.4488,-0.805,-1.029
-1.1036,-1.0491,-0.9747,-0.8265,-0.4869,-0.6716,0.2092,-0.052,0.1517,0.3468,0.2013,0.3113,0.6285,0.398,-1.2886,-0.9309,-0.7585,-0.2566,-0.3263,-0.7358,-0.2911,0.1289,-0.0975,0.6487,0.4316,0.6092,0.5538,0.3811,-0.7712,-1.1131
-1.2412,-1.2414,-1.1013,-1.0518,-0.7255,-0.9005,0.026,-0.1912,0.0552,0.2061,0.1125,0.2426,0.4569,0.1812,-1.4367,-1.1614,-0.9465,-0.3042,-0.5216,-0.9977,-0.5503,-0.0497,-0.1665,0.5534,0.4485,0.618,0.497,0.3486,-0.7198,-1.1919
-1.3428,-1.3948,-1.2097,-1.237,-0.9245,-1.1009,-0.1204,-0.3151,-0.0184,0.1045,0.0589,0.211,0.3177,-0.0033,-1.5538,-1.3485,-1.1106,-0.3404,-0.6918,-1.2158,-0.7682,-0.2037,-0.213,0.4868,0.488,0.659,0.4731,0.353,-0.6589,-1.2637
-1.4082,-1.5043,-1.296,-1.3751,-1.0755,-1.2619,-0.2238,-0.416,-0.0667,0.0451,0.0407,0.2152,0.2147,-0.1508,-1.6349,-1.4858,-1.244,-0.3653,-0.8307,-1.3824,-0.9384,-0.327,-0.2403,0.4483,0.5439,0.7261,0.4791,0.3899,-0.5951,-1.3245
-1.4377,-1.5663,-1.3566,-1.462,-1.1744,-1.3753,-0.2824,-0.4883,-0.0905,0.0261,0.0532,0.2481,0.1475,-0.2595,-1.6769,-1.5696,-1.3397,-0.3775,-0.9331,-1.4932,-1.0579,-0.4155,-0.2512,0.4341,0.6081,0.8086,0.508,0.4498,-0.5332,-1.3693
-1.4319,-1.5794,-1.3872,-1.4958,-1.2205,-1.4361,-0.2989,-0.5294,-0.0937,0.0409,0.088,0.2989,0.1125,-0.3306,-1.6787,-1.599,-1.3925,-0.3745,-0.9954,-1.547,-1.1268,-0.4668,-0.248,0.4382,0.6716,0.894,0.5496,0.52,-0.4753,-1.392
-1.3912,-1.5435,-1.3841,-1.4776,-1.2167,-1.4429,-0.2792,-0.5392,-0.0813,0.0807,0.1358,0.3557,0.1039,-0.3673,-1.6418,-1.5758,-1.3995,-0.3543,-1.0163,-1.5455,-1.1483,-0.4814,-0.2331,0.4534,0.7261,0.97,0.5927,0.5877,-0.4218,-1.3876
-1.317,-1.4612,-1.3447,-1.4108,-1.1687,-1.398,-0.2309,-0.5202,-0.0584,0.1358,0.1879,0.4077,0.1152,-0.3745,-1.5698,-1.5045,-1.3616,-0.3161,-0.9978,-1.4935,-1.1282,-0.4631,-0.2087,0.4727,0.7649,1.0263,0.6273,0.642,-0.3718,-1.3529
-1.2123,-1.3376,-1.2687,-1.3015,-1.0841,-1.3074,-0.1624,-0.4763,-0.0288,0.198,0.2378,0.4474,0.1402,-0.3577,-1.4692,-1.3926,-1.2835,-0.2613,-0.9449,-1.3982,-1.0735,-0.4181,-0.178,0.49,0.7835,1.0563,0.6462,0.6761,-0.3241,-1.2881
-1.0819,-1.1808,-1.1588,-1.1582,-0.9716,-1.1798,-0.081,-0.4127,0.0056,0.2609,0.2824,0.471,0.1737,-0.3225,-1.3478,-1.25,-1.1738,-0.1936,-0.8658,-1.2689,-0.9926,-0.3551,-0.1447,0.501,0.7802,1.0574,0.6459,0.6878,-0.278,-1.1962
-0.933,-1.0018,-1.0211,-0.9919,-0.8407,-1.0263,0.0067,-0.3346,0.0449,0.3211,0.3207,0.4788,0.2112,-0.2749,-1.2145,-1.0888,-1.044,-0.1183,-0.7704,-1.1172,-0.8942,-0.2835,-0.1135,0.5031,0.7552,1.0306,0.6266,0.6789,-0.2336,-1.0834
-0.7747,-0.814,-0.865,-0.8151,-0.7008,-0.8587,0.0957,-0.2472,0.0901,0.3769,0.3538,0.4734,0.2493,-0.2203,-1.0788,-0.9223,-0.9073,-0.042,-0.6696,-0.9561,-0.7869,-0.2123,-0.0887,0.4955,0.7109,0.9795,0.5914,0.6535,-0.1919,-0.9577
-0.6177,-0.6317,-0.7025,-0.641,-0.5616,-0.6888,0.1816,-0.1553,0.1419,0.4276,0.3825,0.4584,0.2847,-0.1644,-0.9489,-0.7639,-0.7764,0.029,-0.5735,-0.7989,-0.6796,-0.1494,-0.0737,0.4788,0.6502,0.9092,0.5452,0.617,-0.1545,-0.8278
-0.4725,-0.4683,-0.5468,-0.4821,-0.4317,-0.5275,0.2605,-0.0639,0.1993,0.4724,0.4072,0.4373,0.3145,-0.1123,-0.832,-0.6255,-0.6619,0.0896,-0.4903,-0.6582,-0.5801,-0.1001,-0.07,0.4544,0.577,0.8254,0.4933,0.5742,-0.1232,-0.7024
-0.3487,-0.3349,-0.4109,-0.3489,-0.3189,-0.3835,0.3282,0.022,0.2589,0.5095,0.4263,0.4125,0.3354,-0.0684,-0.7328,-0.5162,-0.571,0.1365,-0.4254,-0.5443,-0.4953,-0.0671,-0.0769,0.4243,0.4958,0.7342,0.4411,0.5287,-0.0993,-0.5889
-0.2533,-0.2385,-0.3055,-0.2488,-0.2289,-0.2632,0.3806,0.0971,0.3146,0.536,0.4375,0.385,0.3447,-0.0363,-0.6537,-0.441,-0.5068,0.1693,-0.3806,-0.4637,-0.4297,-0.0503,-0.0914,0.3908,0.4115,0.6414,0.3923,0.4826,-0.0836,-0.493
-0.1902,-0.1817,-0.2379,-0.1854,-0.1655,-0.1702,0.4136,0.1557,0.3589,0.5484,0.4377,0.3545,0.3402,-0.0181,-0.5946,-0.4006,-0.4684,0.1897,-0.3552,-0.4188,-0.3859,-0.0475,-0.1096,0.356,0.3291,0.5521,0.3495,0.4366,-0.0759,-0.4186
-0.159,-0.1625,-0.2099,-0.1581,-0.1296,-0.1058,0.4241,0.1931,0.3835,0.5438,0.4244,0.3205,0.3209,-0.0144,-0.5532,-0.3915,-0.4517,0.2014,-0.3462,-0.4077,-0.3637,-0.0557,-0.1271,0.3216,0.2539,0.4704,0.3135,0.3905,-0.0748,-0.3672
-0.1559,-0.1753,-0.2182,-0.1634,-0.1197,-0.0689,0.4105,0.2061,0.3822,0.5202,0.3966,0.2826,0.287,-0.0242,-0.5256,-0.4073,-0.4513,0.2092,-0.3497,-0.4245,-0.3609,-0.0715,-0.1406,0.2888,0.1903,0.3992,0.2834,0.3438,-0.0778,-0.3375
-0.1745,-0.2117,-0.2547,-0.1949,-0.1323,-0.057,0.3731,0.1942,0.3517,0.4782,0.3554,0.2413,0.2405,-0.045,-0.5074,-0.4397,-0.4609,0.2183,-0.3618,-0.4609,-0.3733,-0.092,-0.1479,0.258,0.1415,0.3397,0.2576,0.2964,-0.0813,-0.3261
-0.2066,-0.2624,-0.308,-0.2452,-0.1623,-0.0663,0.3154,0.1604,0.2933,0.4204,0.3042,0.1983,0.1851,-0.0727,-0.494,-0.4797,-0.475,0.2327,-0.3789,-0.5073,-0.3956,-0.1148,-0.1482,0.2296,0.1096,0.292,0.2342,0.2489,-0.0814,-0.3277
-0.2444,-0.3185,-0.3658,-0.3064,-0.2041,-0.0922,0.2431,0.1107,0.2126,0.3522,0.2485,0.1562,0.1256,-0.1027,-0.4819,-0.5198,-0.4893,0.2549,-0.398,-0.5547,-0.4222,-0.1379,-0.1418,0.2038,0.095,0.255,0.2116,0.2029,-0.0747,-0.3361
-0.2819,-0.3727,-0.4171,-0.3716,-0.2519,-0.1295,0.1637,0.0537,0.1187,0.2803,0.1946,0.1182,0.068,-0.1301,-0.4691,-0.554,-0.5008,0.285,-0.4167,-0.5956,-0.4482,-0.1594,-0.1295,0.1812,0.0969,0.2273,0.1893,0.1611,-0.0596,-0.3459
-0.3154,-0.4205,-0.4544,-0.435,-0.3005,-0.1728,0.0858,-0.0015,0.0227,0.2125,0.1491,0.0872,0.0178,-0.1511,-0.4552,-0.5789,-0.5081,0.3207,-0.4329,-0.6252,-0.4695,-0.1778,-0.1124,0.1624,0.1133,0.2075,0.1683,0.1265,-0.0364,-0.3531
-0.3439,-0.4601,-0.4746,-0.4926,-0.3457,-0.2169,0.0173,-0.0465,-0.0646,0.1556,0.1173,0.0652,-0.0199,-0.1635,-0.4416,-0.5938,-0.5113,0.358,-0.445,-0.6416,-0.4843,-0.1918,-0.0917,0.1482,0.1416,0.1944,0.1505,0.1022,-0.0079,-0.3558
-0.3685,-0.4921,-0.4791,-0.5419,-0.3845,-0.2572,-0.0354,-0.0756,-0.1344,0.1148,0.1024,0.0531,-0.0427,-0.1674,-0.4303,-0.5997,-0.5112,0.3921,-0.452,-0.6458,-0.4921,-0.2009,-0.0684,0.1393,0.1786,0.187,0.1383,0.0903,0.0214,-0.3547
-0.3911,-0.5186,-0.4727,-0.5816,-0.4158,-0.2901,-0.0691,-0.0864,-0.1816,0.0926,0.1043,0.0502,-0.0502,-0.1648,-0.4235,-0.5992,-0.5089,0.4186,-0.4531,-0.6408,-0.4942,-0.2053,-0.0432,0.1356,0.2208,0.1846,0.1343,0.0915,0.0467,-0.3517
-0.4134,-0.5417,-0.4618,-0.6118,-0.4393,-0.3132,-0.0835,-0.0802,-0.2055,0.0885,0.1205,0.0549,-0.045,-0.1594,-0.4222,-0.5948,-0.5053,0.4345,-0.4481,-0.6301,-0.4926,-0.2057,-0.0167,0.1369,0.2647,0.1872,0.14,0.105,0.0642,-0.3495
-0.4362,-0.5624,-0.4525,-0.6326,-0.4557,-0.3251,-0.0812,-0.0616,-0.2092,0.099,0.1456,0.0651,-0.0316,-0.1548,-0.4254,-0.5883,-0.5002,0.4396,-0.4369,-0.6171,-0.4891,-0.2029,0.0105,0.1424,0.3073,0.1948,0.1559,0.1285,0.0723,-0.3497
-0.458,-0.5799,-0.4483,-0.6446,-0.4661,-0.3255,-0.067,-0.0366,-0.1995,0.1187,0.1732,0.0787,-0.0154,-0.1542,-0.4298,-0.5798,-0.4922,0.436,-0.4192,-0.6035,-0.4847,-0.1979,0.0378,0.1508,0.3459,0.2077,0.1811,0.1586,0.0726,-0.352
-0.4757,-0.5917,-0.4496,-0.6478,-0.471,-0.3143,-0.0466,-0.0114,-0.1846,0.1412,0.1968,0.0937,-0.0011,-0.1589,-0.4305,-0.5681,-0.4791,0.4282,-0.3949,-0.5888,-0.4791,-0.1912,0.0645,0.1611,0.3783,0.2258,0.2131,0.1915,0.0699,-0.3539
-0.4846,-0.5941,-0.4532,-0.6419,-0.4707,-0.2923,-0.0255,0.009,-0.1726,0.1604,0.2109,0.1084,0.0074,-0.1686,-0.4217,-0.5504,-0.4582,0.4217,-0.364,-0.5712,-0.4712,-0.1826,0.0897,0.1722,0.4028,0.2482,0.2488,0.223,0.0706,-0.3507
-0.4797,-0.5837,-0.4537,-0.6263,-0.465,-0.2605,-0.008,0.022,-0.1701,0.1714,0.2125,0.1211,0.0085,-0.1815,-0.3986,-0.5237,-0.4276,0.4217,-0.3269,-0.5476,-0.4592,-0.1715,0.1129,0.1831,0.4183,0.2728,0.2845,0.2494,0.0816,-0.3368
-0.4568,-0.5585,-0.4448,-0.6008,-0.4534,-0.2209,0.0029,0.0277,-0.1808,0.1712,0.2008,0.1305,0.0022,-0.1952,-0.3583,-0.4858,-0.3864,0.4321,-0.2843,-0.5151,-0.4415,-0.1569,0.1337,0.193,0.424,0.2967,0.3163,0.2677,0.1081,-0.3074
-0.4136,-0.5186,-0.4216,-0.5657,-0.436,-0.1762,0.0064,0.0278,-0.2052,0.159,0.1775,0.1353,-0.0101,-0.2071,-0.3013,-0.4363,-0.3355,0.4544,-0.2377,-0.4724,-0.4173,-0.138,0.152,0.201,0.4196,0.316,0.3409,0.2755,0.152,-0.2597
-0.3509,-0.467,-0.3823,-0.5224,-0.4133,-0.1296,0.0028,0.0258,-0.2402,0.1361,0.1461,0.1348,-0.0258,-0.2152,-0.2309,-0.3766,-0.2776,0.4873,-0.1893,-0.4199,-0.3869,-0.1143,0.1678,0.2063,0.4053,0.3272,0.3553,0.2719,0.2111,-0.1941
-0.2727,-0.4085,-0.3287,-0.474,-0.3865,-0.0849,-0.0062,0.0249,-0.2808,0.1054,0.1113,0.1286,-0.0423,-0.2187,-0.1527,-0.3109,-0.2164,0.5274,-0.1413,-0.3605,-0.3518,-0.0861,0.1816,0.2082,0.3819,0.3274,0.3578,0.257,0.2795,-0.1146
-0.1856,-0.3495,-0.2664,-0.4246,-0.3572,-0.0456,-0.0186,0.0275,-0.3202,0.0707,0.0779,0.1174,-0.0571,-0.2174,-0.0732,-0.2445,-0.1565,0.5699,-0.0962,-0.2984,-0.3138,-0.0544,0.1936,0.206,0.351,0.3152,0.3476,0.232,0.3483,-0.028
-0.0983,-0.2961,-0.2034,-0.3786,-0.3276,-0.0144,-0.032,0.0347,-0.3521,0.0363,0.0505,0.1029,-0.0684,-0.2116,0.001,-0.1832,-0.1022,0.6094,-0.0564,-0.2388,-0.2749,-0.0215,0.2035,0.1997,0.3151,0.2911,0.3253,0.1994,0.4078,0.057
-0.02,-0.2532,-0.1481,-0.3403,-0.2994,0.0071,-0.044,0.0458,-0.3713,0.0064,0.0325,0.0876,-0.0752,-0.2019,0.0648,-0.1321,-0.057,0.6414,-0.0235,-0.1859,-0.237,0.0101,0.2109,0.1894,0.2772,0.2576,0.2931,0.1625,0.4493,0.1315
0.0419,-0.2232,-0.1078,-0.3121,-0.2736,0.0187,-0.0523,0.0591,-0.3745,-0.0154,0.0263,0.0743,-0.077,-0.1884,0.1149,-0.0939,-0.0231,0.6624,0.0015,-0.1425,-0.2009,0.0376,0.215,0.1763,0.2408,0.2186,0.2545,0.1255,0.4673,0.1881
0.083,-0.2058,-0.0867,-0.2941,-0.2499,0.022,-0.0548,0.0722,-0.3608,-0.026,0.0328,0.066,-0.0733,-0.1706,0.1502,-0.0689,-0.001,0.6713,0.0184,-0.109,-0.1662,0.0586,0.215,0.1622,0.2093,0.1789,0.2141,0.0923,0.4602,0.2222
0.1031,-0.1972,-0.0852,-0.2836,-0.2268,0.0203,-0.0493,0.0835,-0.3313,-0.0232,0.0516,0.0651,-0.0632,-0.1474,0.1722,-0.0541,0.0106,0.6695,0.0286,-0.0832,-0.1319,0.0721,0.2102,0.1494,0.1854,0.1432,0.1772,0.0668,0.4311,0.2332
0.1066,-0.1911,-0.0999,-0.2753,-0.2014,0.0178,-0.0339,0.0917,-0.2888,-0.0058,0.0812,0.073,-0.0454,-0.117,0.1842,-0.0444,0.0148,0.6603,0.034,-0.0611,-0.0958,0.0782,0.2009,0.1403,0.1708,0.1154,0.1488,0.0516,0.3869,0.2242
0.1012,-0.1801,-0.1241,-0.2627,-0.1703,0.0191,-0.0075,0.0969,-0.2372,0.0259,0.1189,0.0898,-0.0181,-0.078,0.1914,-0.0336,0.0159,0.649,0.0377,-0.0374,-0.0556,0.0784,0.1879,0.1373,0.1659,0.0983,0.1328,0.0483,0.3372,0.2014
0.0966,-0.1566,-0.1498,-0.2392,-0.1301,0.0287,0.0303,0.1001,-0.1812,0.0704,0.1612,0.1144,0.02,-0.0294,0.1994,-0.0153,0.0188,0.6407,0.0425,-0.0072,-0.0094,0.075,0.1728,0.1415,0.1698,0.0928,0.1313,0.057,0.2918,0.1731
0.1016,-0.1154,-0.1691,-0.1999,-0.079,0.0495,0.0785,0.1022,-0.1255,0.1244,0.2045,0.1446,0.0689,0.0283,0.213,0.0151,0.0273,0.6398,0.0508,0.0331,0.0439,0.0704,0.1573,0.1528,0.1808,0.0983,0.1441,0.0762,0.2597,0.1473
0.1226,-0.0544,-0.1761,-0.1434,-0.0173,0.0825,0.1345,0.1044,-0.0746,0.1837,0.245,0.1771,0.1267,0.093,0.2353,0.0593,0.044,0.6482,0.0635,0.0845,0.1035,0.0662,0.1426,0.1695,0.1958,0.1125,0.1689,0.1031,0.2465,0.1306
0.1613,0.0239,-0.1679,-0.0722,0.0519,0.126,0.1945,0.1069,-0.0316,0.2431,0.2793,0.2084,0.1896,0.1607,0.2665,0.1157,0.0689,0.665,0.0797,0.145,0.1666,0.0628,0.1288,0.1883,0.2115,0.1324,0.2011,0.1339,0.254,0.1264
0.215,0.113,-0.1452,0.0073,0.1232,0.1758,0.2534,0.1092,0.0017,0.2975,0.3054,0.2351,0.2518,0.2259,0.3034,0.1795,0.0993,0.6864,0.0968,0.2095,0.2284,0.0594,0.1144,0.205,0.2241,0.154,0.235,0.1643,0.2794,0.1344
0.2767,0.2038,-0.1121,0.0862,0.1896,0.2257,0.3057,0.1105,0.0253,0.3423,0.3222,0.2542,0.3065,0.2823,0.3401,0.2435,0.1308,0.7064,0.1106,0.2712,0.2828,0.0537,0.0967,0.2151,0.2301,0.1734,0.2644,0.1901,0.3162,0.151
0.3376,0.2867,-0.0743,0.1555,0.2444,0.2698,0.3465,0.1099,0.0411,0.3743,0.33,0.2637,0.3474,0.3242,0.3695,0.3004,0.158,0.7179,0.117,0.323,0.3239,0.0435,0.0722,0.215,0.2263,0.1871,0.2837,0.2077,0.3553,0.1705
0.3893,0.3541,-0.038,0.2083,0.2827,0.3031,0.3722,0.107,0.0517,0.3917,0.3302,0.2628,0.3693,0.3469,0.3852,0.3442,0.1759,0.7144,0.1131,0.3596,0.3471,0.0269,0.0379,0.2023,0.2107,0.1922,0.2887,0.2145,0.3869,0.1867
0.4258,0.4014,-0.0086,0.2416,0.3028,0.323,0.3816,0.102,0.0605,0.3945,0.3246,0.2519,0.3699,0.3483,0.3829,0.3719,0.1814,0.6912,0.0981,0.3783,0.3505,0.0037,-0.0072,0.1767,0.1824,0.187,0.2768,0.2094,0.4024,0.1943
0.4446,0.4287,0.0106,0.2569,0.3062,0.3298,0.3756,0.0955,0.0703,0.3839,0.3153,0.2322,0.3498,0.3291,0.3622,0.384,0.1743,0.6472,0.0739,0.3802,0.3352,-0.0246,-0.0615,0.1398,0.1421,0.1708,0.248,0.193,0.3955,0.1899
0.4474,0.4395,0.0185,0.2593,0.2976,0.3263,0.3571,0.0885,0.0827,0.3626,0.3042,0.2062,0.313,0.293,0.3261,0.3846,0.1572,0.5856,0.0455,0.3698,0.3057,-0.0541,-0.1204,0.0952,0.0923,0.1445,0.2046,0.1672,0.3639,0.1733
0.4388,0.4404,0.0163,0.2564,0.2837,0.3171,0.3308,0.0819,0.0984,0.334,0.2928,0.1772,0.2665,0.2468,0.2813,0.3803,0.1358,0.514,0.0198,0.3544,0.269,-0.0794,-0.1766,0.0479,0.037,0.1108,0.1512,0.1359,0.3094,0.1467
0.4256,0.4394,0.0067,0.2565,0.2719,0.3073,0.3019,0.0761,0.1166,0.302,0.2826,0.149,0.2191,0.1991,0.2363,0.379,0.1182,0.4435,0.005,0.3425,0.2337,-0.0943,-0.2214,0.0045,-0.018,0.0737,0.0948,0.104,0.2375,0.1144
0.4149,0.4445,-0.0058,0.2674,0.269,0.3023,0.2755,0.0711,0.1357,0.2709,0.2752,0.1258,0.1799,0.1596,0.2009,0.3884,0.1132,0.3867,0.009,0.3429,0.209,-0.0921,-0.2462,-0.0285,-0.0661,0.0386,0.0437,0.0771,0.1569,0.0819
0.4128,0.4623,-0.0165,0.2943,0.2804,0.306,0.256,0.0664,0.1538,0.2445,0.2718,0.1113,0.1572,0.1376,0.1835,0.4143,0.1287,0.3557,0.0376,0.3625,0.2027,-0.0678,-0.2438,-0.0445,-0.0998,0.0122,0.0065,0.0607,0.0778,0.0547
0.4236,0.4966,-0.0208,0.3398,0.309,0.3208,0.2467,0.0613,0.169,0.2263,0.2733,0.1085,0.1565,0.1401,0.1904,0.46,0.1699,0.359,0.0933,0.4056,0.2205,-0.0181,-0.2099,-0.0383,-0.1127,0.001,-0.009,0.0598,0.0107,0.0367
0.4488,0.5479,-0.0155,0.4029,0.3546,0.3468,0.2492,0.0552,0.1799,0.2185,0.2803,0.119,0.1802,0.171,0.2239,0.5254,0.2375,0.3998,0.1743,0.4722,0.2644,0.0565,-0.1444,-0.0071,-0.0997,0.0109,0.0028,0.0775,-0.0357,0.0298
0.4877,0.6133,0.0013,0.4798,0.4147,0.3821,0.2633,0.0473,0.1853,0.2223,0.2923,0.1428,0.2271,0.23,0.2826,0.6068,0.3279,0.4755,0.2749,0.5589,0.3334,0.1526,-0.0511,0.0497,-0.0588,0.0454,0.0442,0.1149,-0.0556,0.0335
0.5379,0.6875,0.0297,0.565,0.4851,0.4235,0.2875,0.0371,0.1846,0.2376,0.3084,0.178,0.2927,0.3137,0.3622,0.6988,0.4337,0.5785,0.3868,0.6596,0.4233,0.2642,0.0627,0.1293,0.0083,0.1051,0.1138,0.1704,-0.047,0.0453
0.5965,0.7647,0.0686,0.6526,0.5608,0.4673,0.3195,0.0242,0.1773,0.2632,0.3271,0.2214,0.3711,0.4156,0.4564,0.7953,0.5463,0.6983,0.5018,0.7674,0.5287,0.3842,0.1882,0.2267,0.0969,0.1872,0.2061,0.2401,-0.0116,0.0623
0.6609,0.84,0.1165,0.7384,0.6379,0.5105,0.3568,0.0087,0.1634,0.2967,0.3463,0.2688,0.4555,0.5287,0.5588,0.8913,0.658,0.8238,0.6136,0.8764,0.6443,0.5057,0.3162,0.3353,0.1989,0.2853,0.3127,0.3177,0.0457,0.082
0.7297,0.911,0.1722,0.8205,0.7144,0.5512,0.3972,-0.0089,0.1433,0.3354,0.3642,0.3156,0.5405,0.6463,0.6637,0.9844,0.7635,0.9461,0.7188,0.9832,0.7658,0.6234,0.4389,0.4474,0.3048,0.3904,0.4235,0.3959,0.1178,0.1035
0.8028,0.9785,0.2348,0.8995,0.7901,0.5893,0.4396,-0.0272,0.1178,0.3765,0.379,0.3576,0.6218,0.7634,0.7669,1.0748,0.861,1.059,0.8173,1.0872,0.8906,0.7339,0.5503,0.5555,0.4048,0.4927,0.5284,0.4671,0.1972,0.1279
0.8813,1.0461,0.3041,0.9782,0.8667,0.6262,0.4836,-0.0443,0.0888,0.4176,0.3895,0.3916,0.6974,0.8767,0.8657,1.1647,0.9515,1.16,0.9109,1.1899,1.0174,0.8351,0.6468,0.6529,0.49,0.5824,0.6184,0.5247,0.2773,0.1576
0.9666,1.1186,0.3803,1.0602,0.9463,0.6642,0.5297,-0.0576,0.0586,0.4571,0.395,0.4155,0.7667,0.9846,0.9586,1.2575,1.0379,1.2492,1.0018,1.2939,1.145,0.9261,0.726,0.7345,0.5536,0.6522,0.6875,0.564,0.3532,0.1958
1.06,1.2008,0.4635,1.1487,1.0312,0.706,0.5791,-0.0644,0.0308,0.4946,0.3962,0.4288,0.8305,1.0864,1.0451,1.3561,1.1235,1.3282,1.0915,1.4016,1.2723,1.0065,0.7871,0.7974,0.5918,0.698,0.7329,0.5834,0.4224,0.245
1.1617,1.296,0.5535,1.2459,1.1227,0.7544,0.6332,-0.0619,0.009,0.531,0.3947,0.433,0.8904,1.1822,1.1253,1.4625,1.2111,1.3992,1.1806,1.5141,1.3972,1.0768,0.8303,0.8411,0.6042,0.7192,0.7556,0.5841,0.4837,0.3065
1.271,1.405,0.6495,1.3519,1.2212,0.8116,0.6935,-0.0478,-0.0025,0.5681,0.3937,0.4306,0.9486,1.2722,1.2001,1.5771,1.3023,1.4639,1.2685,1.6315,1.5176,1.1377,0.8575,0.8677,0.5931,0.7184,0.7595,0.57,0.5373,0.3799
1.3861,1.5259,0.7502,1.4659,1.3259,0.8791,0.7612,-0.0201,0.0003,0.6084,0.3969,0.4252,1.0073,1.3573,1.2712,1.6988,1.3977,1.5237,1.3546,1.7525,1.6319,1.1914,0.8721,0.8812,0.5631,0.7002,0.7509,0.5466,0.5834,0.4631
1.5044,1.6549,0.8534,1.5858,1.4355,0.9572,0.8365,0.0217,0.0204,0.654,0.408,0.4205,1.0688,1.4385,1.3405,1.8253,1.4972,1.5797,1.4385,1.8758,1.7398,1.2408,0.8793,0.8877,0.5203,0.6699,0.7369,0.5201,0.622,0.5527
1.6228,1.7866,0.9562,1.7091,1.5478,1.0451,0.9187,0.0765,0.0592,0.7064,0.4298,0.4197,1.1348,1.5177,1.4102,1.954,1.6001,1.6326,1.5211,1.9998,1.8426,1.2899,0.8858,0.8938,0.4716,0.6331,0.7247,0.4963,0.6529,0.6443
1.738,1.9154,1.0551,1.8329,1.6603,1.1402,1.0056,0.1414,0.1156,0.7656,0.4633,0.4255,1.2062,1.5964,1.4821,2.0817,1.7053,1.6831,1.6039,2.1232,1.9425,1.3431,0.8987,0.9059,0.4236,0.5949,0.7202,0.4801,0.6751,0.7327
1.846,2.0357,1.1462,1.954,1.7699,1.2385,1.0937,0.2116,0.1863,0.8305,0.5074,0.4398,1.2827,1.6757,1.5566,2.2056,1.8115,1.7317,1.6885,2.2446,2.0419,1.4039,0.9234,0.929,0.3825,0.5598,0.7273,0.4751,0.6879,0.8128
1.9431,2.1433,1.2251,2.069,1.8732,1.335,1.1788,0.2813,0.2655,0.8988,0.5594,0.4632,1.3628,1.7558,1.6328,2.3226,1.9169,1.7784,1.7761,2.3618,2.1419,1.4744,0.9626,0.9659,0.353,0.5315,0.748,0.4832,0.6902,0.8794
2.0253,2.2354,1.288,2.1737,1.967,1.4241,1.2562,0.3444,0.3459,0.9674,0.6148,0.4956,1.4437,1.835,1.7079,2.4298,2.0187,1.8223,1.8664,2.4722,2.2415,1.5543,1.0155,1.0164,0.3383,0.5126,0.7815,0.5049,0.6816,0.928
2.0893,2.3107,1.3317,2.2642,2.048,1.5003,1.3217,0.396,0.4199,1.0329,0.6688,0.5353,1.5213,1.9096,1.7775,2.5241,2.1136,1.8611,1.957,2.572,2.3375,1.6401,1.0775,1.0773,0.3396,0.5046,0.8249,0.5386,0.6616,0.9548
2.1323,2.369,1.3538,2.3367,2.1131,1.5593,1.372,0.4323,0.4809,1.0915,0.716,0.5792,1.5906,1.9744,1.8366,2.6024,2.1972,1.8918,2.0434,2.657,2.4241,1.7258,1.1409,1.1426,0.3558,0.5073,0.8736,0.5808,0.63,0.9574
2.153,2.4112,1.3534,2.3882,2.1599,1.5979,1.4046,0.4522,0.5241,1.1396,0.7523,0.6229,1.6465,2.0235,1.8801,2.6618,2.2644,1.9106,2.1192,2.723,2.4947,1.803,1.197,1.2046,0.3841,0.5188,0.9215,0.6267,0.5875,0.9354
2.1519,2.438,1.3309,2.4169,2.1864,1.615,1.4187,0.4564,0.5478,1.1739,0.7745,0.6613,1.6837,2.0511,1.9039,2.7001,2.3107,1.9143,2.1775,2.7666,2.5428,1.863,1.237,1.2552,0.4196,0.5356,0.9623,0.6702,0.5356,0.8905
2.1312,2.4507,1.2884,2.4227,2.1915,1.6112,1.4143,0.4471,0.5527,1.1919,0.7812,0.6894,1.6986,2.0534,1.9066,2.7165,2.3326,1.9017,2.212,2.786,2.5639,1.898,1.2548,1.2872,0.4572,0.5539,0.9906,0.7058,0.4773,0.8267
2.0955,2.4501,1.2296,2.4069,2.1755,1.5892,1.3931,0.428,0.5419,1.1926,0.7733,0.7039,1.6895,2.0293,1.8893,2.712,2.3292,1.874,2.2193,2.7817,2.5566,1.9035,1.248,1.2966,0.492,0.57,1.0029,0.7293,0.4171,0.7502
2.0505,2.437,1.1595,2.3724,2.1398,1.5526,1.3579,0.4029,0.5199,1.1764,0.7533,0.7036,1.6577,1.9816,1.8561,2.6894,2.3024,1.8353,2.1993,2.7567,2.5232,1.8796,1.2189,1.2827,0.5205,0.5814,0.9984,0.739,0.3607,0.6684
2.0024,2.4123,1.0842,2.3231,2.0871,1.5061,1.3124,0.3755,0.4919,1.1459,0.7251,0.6896,1.6071,1.9158,1.8128,2.6526,2.2566,1.7916,2.1558,2.7153,2.4691,1.8304,1.1735,1.2488,0.541,0.5871,0.9792,0.7355,0.3138,0.5891
1.9568,2.3768,1.0094,2.263,2.0206,1.4538,1.2608,0.349,0.4625,1.1047,0.6931,0.665,1.5433,1.8394,1.7658,2.6056,2.1974,1.7494,2.0949,2.6629,2.4013,1.7633,1.1201,1.2004,0.5531,0.5869,0.949,0.7212,0.281,0.5189
1.9178,2.3314,0.9402,2.1964,1.9441,1.3992,1.2068,0.3253,0.4352,1.0572,0.6614,0.6338,1.4729,1.7598,1.72,2.5515,2.1306,1.7137,2.0234,2.6038,2.3267,1.6866,1.0667,1.144,0.5572,0.5814,0.9123,0.6994,0.2652,0.4627
1.8873,2.2778,0.8806,2.1272,1.8614,1.3445,1.1535,0.3053,0.412,1.0073,0.6329,0.6,1.4017,1.683,1.6789,2.4926,2.0606,1.6869,1.9475,2.5415,2.2511,1.6076,1.0189,1.0852,0.5533,0.571,0.8732,0.6731,0.2664,0.4235
1.8655,2.2189,0.8334,2.0596,1.7768,1.2917,1.1029,0.2893,0.3929,0.9583,0.6096,0.567,1.3343,1.6128,1.6433,2.4302,1.9902,1.6688,1.8715,2.4785,2.1784,1.5314,0.9793,1.0276,0.5411,0.5556,0.8344,0.6446,0.2822,0.4019
1.8515,2.1591,0.8003,1.998,1.6951,1.2428,1.0565,0.2765,0.3768,0.9125,0.5918,0.5372,1.2743,1.5514,1.6131,2.3662,1.9217,1.6571,1.7983,2.4168,2.1113,1.4608,0.9472,0.9728,0.5201,0.5351,0.7975,0.6153,0.3084,0.3969
1.8443,2.1044,0.7824,1.9473,1.6222,1.2005,1.0156,0.2664,0.3614,0.8717,0.5793,0.5123,1.224,1.4999,1.5875,2.3038,1.8568,1.6488,1.7299,2.3592,2.052,1.3968,0.9198,0.9208,0.4899,0.5094,0.7634,0.5863,0.3397,0.4063
1.8435,2.0616,0.7802,1.9123,1.5642,1.1683,0.9816,0.2587,0.345,0.8373,0.5714,0.4931,1.1857,1.4592,1.5666,2.2477,1.7984,1.6417,1.6684,2.3091,2.0031,1.3398,0.8942,0.8719,0.4511,0.4793,0.7325,0.5585,0.3714,0.4273
1.8493,2.0365,0.7936,1.8968,1.5269,1.1498,0.9566,0.2533,0.3265,0.8109,0.5673,0.4798,1.1612,1.4306,1.5515,2.2037,1.7498,1.6346,1.616,2.2706,1.9672,1.2905,0.8684,0.8269,0.406,0.4466,0.706,0.5331,0.3997,0.4566
1.8623,2.033,0.8214,1.9025,1.5141,1.1481,0.9429,0.251,0.3059,0.7939,0.5667,0.4721,1.1518,1.4158,1.5436,2.1766,1.7145,1.6276,1.5755,2.2468,1.9469,1.2505,0.8423,0.7879,0.358,0.4146,0.6855,0.5119,0.4226,0.4905
1.8823,2.0508,0.8604,1.9283,1.5269,1.164,0.9421,0.253,0.2848,0.7877,0.5694,0.469,1.1577,1.4156,1.5438,2.1692,1.6947,1.6211,1.5486,2.2393,1.9436,1.2215,0.817,0.758,0.3117,0.3874,0.6729,0.4968,0.4394,0.5251
1.9075,2.0856,0.9054,1.9695,1.5623,1.1954,0.9553,0.2603,0.2657,0.7929,0.5754,0.4697,1.1776,1.4298,1.5517,2.1803,1.6897,1.6148,1.5359,2.2462,1.9564,1.2051,0.7945,0.74,0.2717,0.3693,0.6696,0.4896,0.4501,0.5559
1.9343,2.1286,0.9492,2.0186,1.6137,1.2373,0.9816,0.274,0.2516,0.8091,0.5847,0.4731,1.2082,1.4562,1.5644,2.2048,1.6958,1.6069,1.5351,2.2626,1.9822,1.2016,0.7766,0.7359,0.2421,0.3638,0.6761,0.4913,0.4545,0.5779
1.957,2.1687,0.9835,2.0662,1.672,1.2828,1.0189,0.2943,0.2455,0.8349,0.5969,0.4786,1.2451,1.4907,1.5772,2.2337,1.7057,1.5944,1.5417,2.2807,2.0152,1.2096,0.764,0.7461,0.2253,0.3732,0.6915,0.5024,0.4513,0.5859
1.9689,2.1941,0.9999,2.1023,1.7274,1.3236,1.0639,0.3208,0.2498,0.8681,0.6119,0.4865,1.2832,1.5284,1.5839,2.2565,1.7106,1.5735,1.5498,2.2912,2.0485,1.2266,0.7562,0.7693,0.2223,0.3978,0.7145,0.5227,0.4381,0.575
1.9633,2.1947,0.9918,2.1184,1.7712,1.3525,1.113,0.3519,0.2664,0.9064,0.6296,0.4981,1.3185,1.5643,1.5783,2.2626,1.7016,1.541,1.553,2.2857,2.0754,1.2491,0.7519,0.8034,0.2325,0.4363,0.7436,0.5516,0.4119,0.5418
1.9349,2.1643,0.9552,2.109,1.7974,1.364,1.1627,0.3853,0.2958,0.9473,0.6505,0.5156,1.3485,1.5947,1.5553,2.2441,1.6721,1.4951,1.5462,2.2582,2.0907,1.2735,0.7494,0.8456,0.2546,0.4864,0.7778,0.589,0.3699,0.4845
1.8813,2.1012,0.8899,2.072,1.8038,1.3553,1.2102,0.4181,0.3373,0.9893,0.6752,0.5417,1.373,1.6179,1.5122,2.1966,1.6193,1.4361,1.5266,2.2066,2.0918,1.297,0.7475,0.8937,0.2871,0.5453,0.8175,0.635,0.3105,0.4039
1.8033,2.0089,0.7995,2.0097,1.7916,1.3267,1.2534,0.447,0.3878,1.0307,0.7038,0.5781,1.3936,1.6343,1.4492,2.1211,1.5452,1.3667,1.4946,2.134,2.0795,1.3175,0.7451,0.9455,0.3284,0.6103,0.8637,0.6895,0.2342,0.3033
1.7053,1.8951,0.691,1.9274,1.7646,1.2808,1.2906,0.4688,0.4427,1.0696,0.7358,0.6251,1.4128,1.6458,1.3698,2.0231,1.4562,1.2914,1.4529,2.0474,2.0573,1.3342,0.7417,0.9992,0.3767,0.6782,0.9174,0.7516,0.144,0.1882
1.5948,1.771,0.5738,1.8335,1.7286,1.2226,1.3202,0.4809,0.4956,1.104,0.7693,0.6804,1.433,1.6555,1.2799,1.9122,1.3614,1.2158,1.4065,1.9569,2.0311,1.3465,0.7373,1.0526,0.4298,0.7459,0.9785,0.8189,0.0453,0.0659
1.4807,1.6487,0.4576,1.7375,1.6898,1.158,1.3407,0.4815,0.5399,1.1316,0.8013,0.739,1.4557,1.6665,1.1873,1.8002,1.2709,1.1448,1.3609,1.8738,2.0073,1.3544,0.7316,1.1035,0.4851,0.8096,1.0451,0.8871,-0.0552,-0.0561
1.3729,1.5402,0.3515,1.6491,1.654,1.0938,1.3512,0.4708,0.5699,1.1507,0.8285,0.795,1.4812,1.6814,1.0997,1.6988,1.1937,1.0828,1.3211,1.8078,1.9919,1.3578,0.7244,1.1496,0.5392,0.8657,1.1139,0.9512,-0.1498,-0.1701
1.2801,1.4547,0.2623,1.5765,1.6263,1.0361,1.3519,0.4504,0.5825,1.1607,0.8483,0.8421,1.5088,1.7022,1.0245,1.6179,1.1362,1.0322,1.2907,1.7657,1.9893,1.3567,0.7154,1.1888,0.589,0.9112,1.18,1.0061,-0.2311,-0.2695
1.2085,1.3979,0.1944,1.5255,1.6099,0.9901,1.3438,0.4234,0.5772,1.1629,0.859,0.8758,1.5372,1.7293,0.9666,1.5633,1.1009,0.9946,1.2715,1.7498,2.0013,1.3515,0.7047,1.2201,0.6317,0.9444,1.2386,1.0483,-0.2928,-0.3493
1.1618,1.3709,0.1492,1.4989,1.6062,0.9592,1.3296,0.3942,0.5566,1.1601,0.8608,0.8935,1.5654,1.7624,0.9283,1.5361,1.0869,0.9706,1.2632,1.7578,2.0268,1.3433,0.693,1.2434,0.6659,0.9649,1.2858,1.076,-0.3305,-0.4062
1.1399,1.3705,0.1255,1.4958,1.6146,0.9447,1.3126,0.3671,0.5253,1.1561,0.8547,0.8955,1.5926,1.7997,0.9087,1.5331,1.0899,0.9599,1.2639,1.7835,2.0623,1.334,0.6818,1.2599,0.691,0.9741,1.3189,1.0892,-0.3425,-0.4389
1.1397,1.3897,0.1203,1.512,1.6329,0.9461,1.2964,0.3462,0.4892,1.1548,0.8429,0.8839,1.6185,1.8387,0.904,1.5469,1.1032,0.9617,1.2702,1.8182,2.1021,1.3257,0.6732,1.2715,0.7076,0.9743,1.3374,1.0893,-0.3302,-0.4483
1.155,1.4193,0.129,1.5405,1.6569,0.9608,1.2842,0.3342,0.4545,1.1596,0.8274,0.8623,1.6433,1.8763,0.908,1.5679,1.1188,0.9738,1.278,1.8517,2.1395,1.3205,0.6696,1.2805,0.7167,0.968,1.3421,1.078,-0.2979,-0.4373
1.1777,1.4492,0.1465,1.5726,1.6815,0.985,1.2783,0.3326,0.4264,1.172,0.8101,0.8348,1.667,1.9087,0.9128,1.5855,1.1282,0.9924,1.2821,1.8743,2.1671,1.3194,0.6721,1.2884,0.7196,0.9575,1.3349,1.0572,-0.2526,-0.4105
1.1985,1.4695,0.1678,1.5989,1.7014,1.0143,1.2793,0.3416,0.4086,1.1919,0.7924,0.8053,1.6887,1.9325,0.9105,1.5896,1.1232,1.0122,1.2769,1.8775,2.1785,1.3214,0.6803,1.2958,0.717,0.9442,1.3184,1.0282,-0.2027,-0.3739
1.2089,1.4724,0.1887,1.6111,1.7114,1.0441,1.2862,0.3596,0.4029,1.2171,0.7754,0.7769,1.7071,1.9444,0.8937,1.5726,1.0977,1.0272,1.2572,1.8558,2.1686,1.3235,0.692,1.3018,0.7092,0.9287,1.2946,0.9926,-0.1562,-0.3337
1.202,1.4534,0.2061,1.6031,1.7078,1.0704,1.297,0.3845,0.4093,1.2441,0.7598,0.7519,1.7197,1.942,0.8579,1.5303,1.0482,1.0319,1.2194,1.8071,2.135,1.3216,0.7036,1.3041,0.6964,0.9112,1.2654,0.9521,-0.1205,-0.296
1.1744,1.4118,0.2186,1.5724,1.6888,1.0905,1.3083,0.4136,0.4253,1.2685,0.7463,0.7316,1.7242,1.9242,0.8013,1.4629,0.9749,1.0225,1.1623,1.7332,2.0782,1.3117,0.7113,1.3001,0.6789,0.8922,1.2324,0.9091,-0.1002,-0.2654
1.1258,1.3507,0.2262,1.5202,1.6549,1.1028,1.3168,0.4438,0.4469,1.2858,0.7354,0.7169,1.7183,1.8911,0.726,1.3744,0.8823,0.9981,1.0879,1.6393,2.0017,1.291,0.7128,1.287,0.6579,0.8726,1.1971,0.8669,-0.0979,-0.2452
1.0589,1.2762,0.2296,1.4509,1.6083,1.107,1.3192,0.4727,0.4689,1.2922,0.7271,0.7083,1.701,1.8443,0.6365,1.2722,0.7779,0.9605,1.0013,1.533,1.911,1.2592,0.7075,1.2635,0.6355,0.8541,1.1612,0.8292,-0.1134,-0.2368
0.9785,1.1956,0.2299,1.3707,1.5526,1.1034,1.3128,0.4982,0.4855,1.2852,0.7211,0.7059,1.672,1.7861,0.5387,1.1647,0.6707,0.9142,0.9094,1.4223,1.8123,1.2182,0.6972,1.2294,0.6146,0.8394,1.1266,0.7997,-0.1448,-0.2402
0.8895,1.1155,0.2279,1.2857,1.4912,1.0925,1.2957,0.519,0.4919,1.2634,0.7166,0.7094,1.6323,1.7192,0.4383,1.0596,0.5693,0.8651,0.8193,1.3142,1.7113,1.1713,0.6851,1.1857,0.5982,0.8307,1.0949,0.7815,-0.1887,-0.2539
0.7964,1.0408,0.2242,1.2007,1.4271,1.0751,1.2676,0.5347,0.4848,1.2275,0.7122,0.7183,1.5837,1.6459,0.3396,0.9619,0.4796,0.8187,0.7363,1.213,1.6116,1.1224,0.6748,1.1346,0.5888,0.8296,1.067,0.7756,-0.2411,-0.276
0.7024,0.9734,0.219,1.1186,1.3621,1.0525,1.2293,0.5459,0.4637,1.1795,0.7071,0.7314,1.5282,1.5685,0.2447,0.8736,0.4039,0.7791,0.6631,1.1199,1.5151,1.0744,0.6687,1.0784,0.587,0.8365,1.043,0.7814,-0.2984,-0.3039
0.6092,0.9128,0.2128,1.0402,1.2974,1.0262,1.1833,0.5538,0.431,1.123,0.7005,0.7472,1.4684,1.4887,0.1538,0.7938,0.3403,0.7472,0.599,1.0338,1.4218,1.0289,0.6676,1.0193,0.5919,0.8498,1.0219,0.796,-0.3571,-0.3347
0.5179,0.857,0.2066,0.9652,1.2337,0.9987,1.1334,0.5605,0.3915,1.0627,0.6928,0.7638,1.4069,1.4083,0.066,0.7193,0.2843,0.7211,0.5406,0.952,1.3308,0.9858,0.6701,0.9593,0.6008,0.8668,1.0021,0.815,-0.4149,-0.3658
