FP1,F3,F7,FC3,C3,C5,P3,P7,PO7,PO3,O1,Oz,Pz,CPz,FP2,Fz,F4,F8,FC4,FCz,Cz,C4,C6,P4,P8,PO8,PO4,O2,(corr) HEOG,(corr) VEOG
-0.6738,-1.028,-0.8233,-0.9045,-0.6268,-0.8077,-0.3552,-0.3029,-0.1461,-0.0314,-0.0588,-0.0721,-0.1108,-0.4165,-0.8988,-0.9894,-1.0066,-1.2412,-0.983,-0.8294,-0.6281,-0.6151,-0.6522,-0.231,0.0119,0.0909,-0.0433,-0.0677,-0.2483,0.0345
-0.797,-0.954,-0.795,-0.8505,-0.5423,-0.7261,-0.2451,-0.2404,-0.1032,0.0277,-0.0046,-0.0039,0.0165,-0.2925,-0.8424,-0.9371,-0.901,-1.042,-0.8267,-0.7835,-0.5429,-0.4544,-0.47,-0.0759,0.0897,0.1546,0.074,0.0237,-0.2063,0.0457
-0.9046,-0.8868,-0.7673,-0.8035,-0.4715,-0.6538,-0.1533,-0.1882,-0.0705,0.0723,0.0382,0.0491,0.1189,-0.189,-0.7928,-0.8919,-0.8086,-0.86,-0.691,-0.747,-0.4737,-0.3144,-0.3048,0.0539,0.1521,0.2016,0.1669,0.0966,-0.1707,0.0743
-0.9831,-0.8316,-0.7397,-0.7689,-0.4251,-0.5973,-0.0944,-0.1529,-0.0556,0.0914,0.061,0.0758,0.176,-0.1235,-0.7559,-0.8603,-0.7415,-0.7099,-0.5933,-0.7278,-0.4341,-0.2133,-0.1729,0.1369,0.1868,0.2193,0.2164,0.1373,-0.1459,0.1347
-1.0247,-0.7929,-0.712,-0.7508,-0.4104,-0.5611,-0.0775,-0.1373,-0.0619,0.0785,0.0595,0.0705,0.175,-0.1075,-0.7359,-0.8469,-0.7075,-0.6005,-0.5448,-0.7309,-0.4331,-0.1641,-0.0875,0.1592,0.1861,0.2009,0.2114,0.1388,-0.1328,0.2314
-1.0286,-0.7736,-0.6843,-0.7516,-0.4298,-0.5466,-0.1041,-0.1398,-0.0876,0.0338,0.0344,0.0337,0.1126,-0.1448,-0.7344,-0.8534,-0.7094,-0.5344,-0.549,-0.758,-0.473,-0.1724,-0.0566,0.1164,0.1479,0.1462,0.15,0.1011,-0.1293,0.3565
-0.9999,-0.7743,-0.6562,-0.7706,-0.4801,-0.552,-0.1686,-0.155,-0.1262,-0.0368,-0.0086,-0.028,-0.0046,-0.2314,-0.7509,-0.8792,-0.7454,-0.5085,-0.602,-0.8073,-0.5498,-0.2365,-0.0825,0.014,0.0758,0.0616,0.0399,0.0314,-0.1306,0.4913
-0.9473,-0.7927,-0.6279,-0.8042,-0.5531,-0.5722,-0.259,-0.1745,-0.1683,-0.1223,-0.0604,-0.1035,-0.162,-0.3561,-0.7827,-0.9207,-0.8103,-0.5159,-0.6935,-0.874,-0.6543,-0.3477,-0.1613,-0.134,-0.0215,-0.0419,-0.1035,-0.0579,-0.1313,0.6103
-0.8811,-0.8234,-0.5989,-0.8453,-0.6363,-0.5992,-0.3593,-0.19,-0.2036,-0.2088,-0.1101,-0.1796,-0.3396,-0.5029,-0.8251,-0.9723,-0.8963,-0.5476,-0.8091,-0.9502,-0.7729,-0.4918,-0.2828,-0.3072,-0.1323,-0.1501,-0.2594,-0.1516,-0.1267,0.6889
-0.8108,-0.8588,-0.5694,-0.885,-0.7153,-0.624,-0.4524,-0.1941,-0.2233,-0.2825,-0.1475,-0.2434,-0.5149,-0.6527,-0.872,-1.0264,-0.9935,-0.5946,-0.9319,-1.0264,-0.8904,-0.6507,-0.4315,-0.4822,-0.2432,-0.2488,-0.4058,-0.2348,-0.1145,0.7114
-0.7446,-0.8902,-0.5401,-0.9134,-0.7762,-0.6378,-0.523,-0.1827,-0.222,-0.3316,-0.1649,-0.285,-0.6666,-0.7866,-0.9164,-1.0744,-1.0899,-0.6482,-1.0453,-1.0918,-0.9915,-0.8049,-0.5885,-0.636,-0.3412,-0.3254,-0.5223,-0.2951,-0.0951,0.6767
-0.6886,-0.9094,-0.5124,-0.9222,-0.8075,-0.6338,-0.5598,-0.1555,-0.1982,-0.3488,-0.1588,-0.299,-0.7773,-0.8884,-0.951,-1.1074,-1.1726,-0.7009,-1.1341,-1.1364,-1.0632,-0.9356,-0.7335,-0.7491,-0.4157,-0.371,-0.5938,-0.3251,-0.0713,0.5997
-0.647,-0.91,-0.4874,-0.9055,-0.8025,-0.6083,-0.5565,-0.1152,-0.1542,-0.3315,-0.1299,-0.2847,-0.8359,-0.9464,-0.9694,-1.1175,-1.2287,-0.7463,-1.1868,-1.1515,-1.0963,-1.0271,-0.8474,-0.8082,-0.4591,-0.3815,-0.6121,-0.3226,-0.0476,0.5063
-0.6213,-0.8889,-0.4659,-0.8613,-0.7596,-0.5604,-0.5128,-0.0671,-0.0955,-0.2824,-0.0827,-0.2462,-0.8381,-0.9547,-0.9667,-1.0994,-1.2475,-0.7784,-1.1961,-1.132,-1.0859,-1.0681,-0.9147,-0.8069,-0.4682,-0.3573,-0.5768,-0.2909,-0.0285,0.4248
-0.6106,-0.8461,-0.4472,-0.7916,-0.6823,-0.4917,-0.4332,-0.0171,-0.0288,-0.2082,-0.0243,-0.1903,-0.7861,-0.9133,-0.9403,-1.051,-1.2229,-0.7925,-1.1603,-1.0768,-1.0322,-1.0533,-0.9256,-0.7458,-0.4438,-0.3031,-0.4938,-0.2371,-0.0178,0.3754
-0.6106,-0.7851,-0.4284,-0.7015,-0.5777,-0.406,-0.3261,0.0295,0.0389,-0.1182,0.0373,-0.1253,-0.6877,-0.8273,-0.8903,-0.9744,-1.1546,-0.7845,-1.0824,-0.9888,-0.9397,-0.9833,-0.8769,-0.6314,-0.3901,-0.2262,-0.3739,-0.1701,-0.0176,0.3642
-0.6147,-0.7114,-0.4053,-0.5986,-0.4559,-0.308,-0.2021,0.0689,0.1014,-0.023,0.0943,-0.0588,-0.5543,-0.7056,-0.8189,-0.8749,-1.0486,-0.7526,-0.9705,-0.8746,-0.8164,-0.8647,-0.773,-0.475,-0.3136,-0.1351,-0.2299,-0.0984,-0.0279,0.381
-0.6145,-0.6307,-0.3725,-0.4908,-0.3276,-0.2036,-0.073,0.0993,0.1543,0.0677,0.1407,0.0033,-0.399,-0.56,-0.7304,-0.7605,-0.9158,-0.6973,-0.8354,-0.7433,-0.6728,-0.7094,-0.6253,-0.2904,-0.2223,-0.0381,-0.0744,-0.0287,-0.0466,0.4044
-0.6009,-0.5478,-0.3254,-0.385,-0.2031,-0.0989,0.0502,0.121,0.1952,0.1457,0.173,0.0574,-0.2351,-0.4029,-0.6301,-0.6397,-0.7693,-0.6216,-0.6898,-0.6044,-0.5204,-0.5329,-0.4504,-0.0928,-0.1241,0.0578,0.0819,0.0354,-0.0703,0.4096
-0.5663,-0.465,-0.2615,-0.286,-0.0909,-0.0006,0.158,0.1355,0.2238,0.2062,0.1901,0.1025,-0.0746,-0.2469,-0.523,-0.5198,-0.6218,-0.531,-0.5461,-0.4667,-0.3703,-0.3529,-0.2686,0.1025,-0.0268,0.1469,0.2304,0.0924,-0.0942,0.3779
-0.5054,-0.3826,-0.1822,-0.1961,0.0026,0.0853,0.2438,0.1449,0.2415,0.2472,0.1934,0.1393,0.0727,-0.1031,-0.4133,-0.4059,-0.483,-0.4323,-0.4144,-0.3369,-0.2321,-0.1869,-0.1001,0.2807,0.0626,0.2251,0.3646,0.1429,-0.1139,0.3032
-0.4165,-0.2994,-0.0931,-0.1157,0.0742,0.1535,0.304,0.1515,0.2507,0.2703,0.1863,0.1695,0.1996,0.0198,-0.304,-0.3004,-0.3584,-0.333,-0.3015,-0.2197,-0.113,-0.0498,0.0378,0.4287,0.138,0.2889,0.4791,0.1877,-0.1256,0.194
-0.3019,-0.214,-0.0032,-0.0438,0.1232,0.2008,0.3386,0.1569,0.2549,0.2794,0.1733,0.1953,0.3016,0.1158,-0.197,-0.2033,-0.2495,-0.2395,-0.2099,-0.1171,-0.0175,0.0483,0.1333,0.5355,0.1944,0.3352,0.5687,0.2269,-0.1278,0.0706
-0.1674,-0.1266,0.0767,0.0204,0.1511,0.2258,0.3505,0.1624,0.2573,0.2803,0.1593,0.2183,0.3764,0.1818,-0.0934,-0.1133,-0.1539,-0.1566,-0.1378,-0.0296,0.0527,0.1034,0.1819,0.5933,0.2282,0.361,0.6283,0.2592,-0.1208,-0.0425
-0.0226,-0.039,0.1365,0.0771,0.1613,0.2295,0.3453,0.1682,0.2613,0.2789,0.1492,0.2393,0.4238,0.2182,0.0057,-0.0285,-0.0675,-0.0867,-0.0801,0.0433,0.0987,0.118,0.1865,0.5986,0.2376,0.3636,0.6532,0.2818,-0.1072,-0.1235
0.1208,0.0449,0.1691,0.1255,0.1579,0.2146,0.3293,0.174,0.2688,0.28,0.1463,0.258,0.445,0.2279,0.0988,0.0523,0.0144,-0.0298,-0.0297,0.1025,0.1235,0.1003,0.1563,0.553,0.2235,0.3415,0.6394,0.2913,-0.0914,-0.1605
0.2504,0.1203,0.1723,0.1642,0.1456,0.1856,0.3086,0.1783,0.2796,0.2857,0.1518,0.2732,0.4423,0.2159,0.1836,0.1294,0.0953,0.0166,0.0207,0.1495,0.1318,0.0627,0.1051,0.4635,0.1893,0.2947,0.5855,0.2844,-0.0778,-0.1534
0.355,0.1833,0.149,0.1919,0.129,0.1479,0.2876,0.179,0.2915,0.2949,0.1645,0.2827,0.4188,0.1892,0.2579,0.2019,0.1773,0.0569,0.0769,0.1862,0.1299,0.0199,0.049,0.3419,0.1412,0.2262,0.4939,0.2589,-0.0704,-0.1131
0.4268,0.2314,0.1075,0.2087,0.1126,0.1079,0.2686,0.1735,0.2994,0.303,0.1803,0.2838,0.378,0.1558,0.32,0.2689,0.2606,0.0973,0.1427,0.2159,0.1251,-0.0136,0.0037,0.2039,0.0872,0.1416,0.3709,0.2153,-0.0715,-0.0577
0.4636,0.2653,0.0599,0.2171,0.1006,0.0722,0.251,0.1591,0.2971,0.3035,0.1937,0.2743,0.3239,0.124,0.3698,0.33,0.3443,0.1444,0.2197,0.2432,0.1251,-0.0255,-0.0177,0.0668,0.0357,0.0493,0.2271,0.1563,-0.081,-0.0078
0.4689,0.2884,0.0196,0.2215,0.0966,0.0473,0.2326,0.1341,0.278,0.2894,0.1978,0.2523,0.2608,0.1011,0.4087,0.3859,0.4265,0.2042,0.3073,0.2737,0.1371,-0.0072,-0.0064,-0.053,-0.0057,-0.041,0.0759,0.0874,-0.0964,0.0198
0.4515,0.3056,-0.0011,0.2275,0.103,0.0382,0.2097,0.0982,0.2368,0.2545,0.1864,0.2168,0.1924,0.0922,0.4397,0.4379,0.505,0.2797,0.4028,0.3127,0.1662,0.0447,0.0399,-0.1429,-0.0318,-0.1199,-0.0684,0.015,-0.1134,0.0155
0.4235,0.3228,0.0065,0.2409,0.1202,0.0477,0.1787,0.0525,0.1711,0.1956,0.1546,0.1679,0.1219,0.0989,0.4661,0.4877,0.5771,0.3702,0.5017,0.3638,0.2141,0.1276,0.1172,-0.1954,-0.0407,-0.18,-0.1935,-0.0542,-0.1269,-0.0213
0.3973,0.3449,0.0455,0.2659,0.147,0.0752,0.1366,0,0.0827,0.1131,0.1003,0.1066,0.0518,0.1194,0.4904,0.5362,0.6394,0.4705,0.5983,0.4278,0.2785,0.2335,0.2159,-0.2094,-0.0337,-0.2168,-0.29,-0.115,-0.1324,-0.0833
0.3825,0.3752,0.1131,0.3044,0.1804,0.1176,0.0828,-0.0553,-0.0224,0.0118,0.0251,0.0358,-0.0159,0.1492,0.5139,0.5835,0.6889,0.5723,0.6858,0.5021,0.3531,0.3507,0.3226,-0.1891,-0.0141,-0.2294,-0.3531,-0.1635,-0.1269,-0.1575
0.3841,0.4147,0.2006,0.3556,0.2168,0.1693,0.019,-0.1083,-0.134,-0.0996,-0.0652,-0.0401,-0.0784,0.1821,0.5364,0.6284,0.7236,0.6656,0.7579,0.5812,0.4299,0.4658,0.4235,-0.1424,0.0137,-0.2191,-0.3817,-0.1975,-0.1096,-0.2288
0.4018,0.4626,0.2961,0.4164,0.2526,0.224,-0.0498,-0.1537,-0.2395,-0.2094,-0.1612,-0.1148,-0.1324,0.2132,0.5574,0.6692,0.7439,0.7415,0.8104,0.6584,0.5005,0.567,0.5067,-0.0793,0.0456,-0.1896,-0.3781,-0.2161,-0.0818,-0.2832
0.4317,0.5169,0.3869,0.4824,0.2854,0.2756,-0.1166,-0.1863,-0.3258,-0.3051,-0.2513,-0.1813,-0.1734,0.2396,0.5763,0.7048,0.7532,0.7942,0.8423,0.7278,0.5591,0.6458,0.5647,-0.0091,0.0785,-0.1451,-0.3472,-0.2194,-0.0461,-0.311
0.4684,0.5751,0.4625,0.5488,0.3148,0.3196,-0.1727,-0.2022,-0.3822,-0.3753,-0.3238,-0.233,-0.196,0.2621,0.5942,0.7359,0.7582,0.8217,0.8565,0.7857,0.6039,0.6991,0.5958,0.0601,0.1103,-0.0908,-0.2947,-0.2082,-0.0048,-0.3096
0.5083,0.6358,0.5176,0.6119,0.3423,0.3543,-0.21,-0.1992,-0.4021,-0.412,-0.3693,-0.2648,-0.1953,0.2844,0.6139,0.7652,0.7674,0.8264,0.8594,0.8321,0.6375,0.7286,0.6032,0.123,0.1396,-0.0322,-0.2276,-0.1841,0.04,-0.2847
0.5512,0.6987,0.5528,0.6701,0.3714,0.3813,-0.2214,-0.1772,-0.3847,-0.4116,-0.3822,-0.274,-0.1676,0.3126,0.6395,0.7977,0.7893,0.8139,0.8595,0.8702,0.6656,0.7399,0.5938,0.1766,0.1649,0.0246,-0.1529,-0.1497,0.0872,-0.2489
0.6006,0.7655,0.5742,0.7246,0.4069,0.4054,-0.2027,-0.1384,-0.3346,-0.3757,-0.3622,-0.2609,-0.1118,0.3528,0.676,0.8387,0.8302,0.792,0.865,0.905,0.6961,0.7404,0.5759,0.2192,0.184,0.0733,-0.0778,-0.1079,0.1365,-0.219
0.6627,0.8388,0.5917,0.7788,0.4536,0.4332,-0.1526,-0.0867,-0.2611,-0.3106,-0.3139,-0.2285,-0.0303,0.409,0.7273,0.8928,0.8918,0.7693,0.8817,0.9419,0.7354,0.7367,0.5565,0.2504,0.1941,0.1074,-0.0092,-0.0622,0.1872,-0.2107
0.744,0.9206,0.6159,0.8368,0.5149,0.4714,-0.0739,-0.0271,-0.1759,-0.2257,-0.2455,-0.1819,0.0708,0.4815,0.7949,0.9613,0.9703,0.7538,0.9113,0.984,0.7872,0.7329,0.5397,0.2696,0.1917,0.1212,0.0465,-0.0167,0.2384,-0.2354
0.8482,1.0105,0.6556,0.9019,0.591,0.5242,0.0269,0.035,-0.0916,-0.1328,-0.1674,-0.1276,0.182,0.5657,0.8766,1.0411,1.0564,0.751,0.9508,1.0308,0.8501,0.7294,0.5262,0.2755,0.173,0.1106,0.084,0.0238,0.2888,-0.2979
0.974,1.1052,0.7153,0.9744,0.6781,0.5912,0.1401,0.0946,-0.019,-0.0435,-0.0903,-0.0727,0.2912,0.6522,0.9661,1.1248,1.1371,0.7629,0.9926,1.0776,0.9177,0.7229,0.5128,0.2664,0.1352,0.0737,0.0991,0.0545,0.3363,-0.3966
1.1141,1.1984,0.7942,1.0511,0.7688,0.6675,0.2535,0.1471,0.0335,0.0319,-0.0233,-0.0237,0.3854,0.7287,1.0536,1.202,1.1981,0.7873,1.0265,1.1169,0.9799,0.7079,0.4947,0.2406,0.077,0.0112,0.0899,0.0709,0.3789,-0.5249
1.2564,1.2822,0.8862,1.1257,0.853,0.7442,0.3549,0.1886,0.0611,0.0856,0.027,0.0143,0.4535,0.7825,1.1285,1.2621,1.2282,0.8183,1.0423,1.14,1.0255,0.6784,0.4667,0.1972,-0.0004,-0.0727,0.0568,0.0698,0.415,-0.6734
1.3855,1.3491,0.9816,1.19,0.9206,0.8113,0.4332,0.2163,0.0627,0.1134,0.0577,0.0384,0.4878,0.8035,1.1811,1.2973,1.2226,0.8484,1.0326,1.1404,1.0448,0.6304,0.4256,0.1372,-0.0929,-0.1707,0.0036,0.0505,0.444,-0.8316
1.4868,1.3945,1.069,1.2366,0.9635,0.8601,0.4812,0.2287,0.0407,0.115,0.0691,0.0487,0.4857,0.7873,1.2062,1.3052,1.1849,0.8699,0.9956,1.1161,1.0326,0.564,0.3713,0.0643,-0.1937,-0.273,-0.0631,0.0152,0.4663,-0.9898
1.5498,1.4177,1.1381,1.2606,0.9776,0.8856,0.4958,0.2261,0.0002,0.0937,0.0639,0.0477,0.4502,0.7365,1.2042,1.2901,1.127,0.8779,0.9366,1.071,0.9901,0.4844,0.3081,-0.0147,-0.2938,-0.3687,-0.1345,-0.0307,0.4832,-1.1399
1.5714,1.4227,1.1828,1.2617,0.9642,0.8881,0.4793,0.2107,-0.0519,0.0552,0.0466,0.0398,0.3896,0.6607,1.1816,1.2628,1.0673,0.8714,0.8673,1.0147,0.9252,0.4022,0.2439,-0.091,-0.3836,-0.4473,-0.2006,-0.0798,0.4968,-1.2771
1.5572,1.4182,1.203,1.2451,0.9309,0.8739,0.4384,0.1863,-0.1074,0.0069,0.0219,0.0294,0.3153,0.5754,1.1505,1.2386,1.0261,0.8546,0.8044,0.962,0.8517,0.3318,0.1895,-0.1545,-0.4545,-0.5007,-0.2528,-0.1247,0.5097,-1.4003
1.5219,1.4165,1.206,1.2224,0.8915,0.8546,0.3842,0.1586,-0.1587,-0.0432,-0.0055,0.0205,0.241,0.4995,1.1267,1.2358,1.0227,0.8364,0.7668,0.9307,0.788,0.2892,0.1567,-0.196,-0.5008,-0.5249,-0.2851,-0.159,0.5241,-1.5112
1.4876,1.4329,1.2057,1.2105,0.8648,0.8462,0.3302,0.135,-0.1981,-0.0871,-0.0316,0.0154,0.1802,0.4528,1.1279,1.2728,1.0721,0.8303,0.7729,0.9397,0.7547,0.2896,0.1564,-0.2083,-0.5206,-0.521,-0.2953,-0.1791,0.5427,-1.613
1.48,1.4841,1.2206,1.23,0.8727,0.8665,0.2914,0.1232,-0.2196,-0.1176,-0.0523,0.0153,0.1455,0.4533,1.1719,1.3664,1.1841,0.8526,0.8383,1.007,0.7725,0.3449,0.1969,-0.1878,-0.5161,-0.4942,-0.2851,-0.1841,0.5679,-1.7082
1.5243,1.5861,1.2699,1.3019,0.9361,0.9319,0.2821,0.1307,-0.2185,-0.1282,-0.0638,0.0206,0.1476,0.5147,1.2738,1.5297,1.3631,0.92,0.973,1.1468,0.8586,0.4619,0.2831,-0.1342,-0.493,-0.4531,-0.2586,-0.1752,0.6021,-1.7979
1.6394,1.7503,1.3684,1.4423,1.0699,1.0533,0.313,0.1627,-0.1924,-0.1138,-0.0621,0.032,0.194,0.6438,1.444,1.7689,1.6082,1.0461,1.1802,1.3668,1.0231,0.641,0.4154,-0.0498,-0.4582,-0.4067,-0.2208,-0.1546,0.6466,-1.8806
1.8328,1.98,1.5218,1.6568,1.2781,1.2317,0.3893,0.2202,-0.1419,-0.0716,-0.044,0.0509,0.2879,0.8381,1.6843,2.0807,1.9125,1.2381,1.4542,1.6642,1.2649,0.8746,0.5892,0.061,-0.4182,-0.3619,-0.1752,-0.1246,0.7011,-1.9526
2.0968,2.2657,1.7227,1.936,1.5487,1.4554,0.5076,0.2989,-0.0716,-0.0025,-0.0082,0.0789,0.4264,1.084,1.9856,2.449,2.2617,1.4929,1.7786,2.0224,1.5689,1.1465,0.7944,0.1916,-0.3775,-0.3227,-0.1236,-0.0865,0.7632,-2.009
2.4065,2.5829,1.9497,2.2527,1.8523,1.6981,0.6547,0.3883,0.0098,0.0881,0.0437,0.117,0.5986,1.3562,2.325,2.8432,2.6318,1.7945,2.1255,2.4095,1.9043,1.4315,1.0147,0.3331,-0.3383,-0.2891,-0.0665,-0.0416,0.8273,-2.0446
2.7214,2.8925,2.1679,2.5627,2.1433,1.9209,0.8082,0.4726,0.0897,0.1891,0.1063,0.1643,0.7851,1.6184,2.6663,3.2187,2.9883,2.1139,2.4561,2.7794,2.2261,1.6962,1.228,0.4731,-0.3012,-0.2596,-0.0048,0.0081,0.8858,-2.0552
2.9898,3.1443,2.3344,2.8108,2.3658,2.0766,0.9382,0.5335,0.1533,0.2845,0.17,0.2165,0.9586,1.8274,2.9623,3.5209,3.287,2.4116,2.7236,3.0758,2.4805,1.9021,1.4075,0.5952,-0.2664,-0.2326,0.0577,0.0586,0.9295,-2.0388
3.1559,3.2844,2.4051,2.938,2.4615,2.1175,1.0121,0.5531,0.1861,0.3553,0.2227,0.2658,1.0867,1.9384,3.16,3.6919,3.4776,2.6425,2.8781,3.2397,2.6116,2.0093,1.5249,0.6798,-0.2352,-0.2089,0.1129,0.103,0.9496,-1.9961
3.1691,3.2633,2.3429,2.8922,2.3801,2.0032,0.9991,0.5183,0.1763,0.3822,0.2515,0.3013,1.1359,1.9118,3.2082,3.6785,3.5096,2.762,2.8732,3.2175,2.5705,1.9827,1.5532,0.7055,-0.2113,-0.193,0.1482,0.1323,0.9391,-1.929
2.9932,3.0438,2.125,2.6357,2.0875,1.7082,0.8762,0.4232,0.118,0.3488,0.2451,0.3108,1.0768,1.7196,3.0655,3.4411,3.3404,2.7319,2.6727,2.9701,2.3233,1.7968,1.4713,0.6525,-0.2004,-0.193,0.1473,0.1358,0.8951,-1.8392
2.6134,2.608,1.747,2.1523,1.5721,1.2266,0.6314,0.2706,0.0115,0.2448,0.1962,0.283,0.889,1.3501,2.708,2.9604,2.9438,2.5265,2.2575,2.4792,1.8571,1.4409,1.267,0.5059,-0.2098,-0.2186,0.0942,0.1037,0.8195,-1.726
2.0404,1.9606,1.2242,1.4497,0.8471,0.5734,0.2669,0.0715,-0.1361,0.0673,0.1029,0.2101,0.5654,0.8109,2.1345,2.2423,2.3164,2.1369,1.6303,1.7515,1.1829,0.9216,0.9395,0.2591,-0.2465,-0.279,-0.0244,0.0293,0.7194,-1.5856
1.3095,1.1298,0.5886,0.5596,-0.0513,-0.2171,-0.2014,-0.1574,-0.3127,-0.1776,-0.0311,0.0893,0.1136,0.1284,1.3687,1.3187,1.4819,1.5735,0.8171,0.8199,0.3349,0.2633,0.5008,-0.0834,-0.3156,-0.3803,-0.2146,-0.0897,0.6062,-1.4128
0.4762,0.1647,-0.1154,-0.4657,-1.0677,-1.0947,-0.7451,-0.3958,-0.5033,-0.4758,-0.1967,-0.0757,-0.4434,-0.6552,0.4582,0.2456,0.4897,0.8669,-0.1339,-0.2598,-0.6328,-0.4937,-0.0251,-0.5057,-0.4182,-0.523,-0.4734,-0.2499,0.4933,-1.2027
-0.3917,-0.8688,-0.8362,-1.5581,-2.1332,-1.9994,-1.3265,-0.6238,-0.6925,-0.8069,-0.381,-0.2747,-1.0692,-1.4859,-0.5312,-0.9028,-0.5896,0.0655,-1.1564,-1.4133,-1.6525,-1.2968,-0.603,-0.9809,-0.5506,-0.701,-0.7873,-0.4416,0.3935,-0.9534
-1.2228,-1.8945,-1.5211,-2.6395,-3.1724,-2.8662,-1.9024,-0.8238,-0.8662,-1.1459,-0.5685,-0.4918,-1.7173,-2.3034,-1.522,-2.0408,-1.6721,-0.768,-2.1731,-2.5548,-2.649,-2.0857,-1.1897,-1.4729,-0.7032,-0.9015,-1.1328,-0.6497,0.3158,-0.6694
-1.9496,-2.8327,-2.1202,-3.6276,-4.1088,-3.6314,-2.4284,-0.9822,-1.013,-1.4658,-0.7433,-0.7069,-2.3347,-3.0458,-2.4331,-3.0789,-2.6701,-1.5629,-3.1029,-3.5942,-3.5463,-2.7983,-1.7374,-1.9401,-0.8613,-1.1059,-1.4788,-0.8548,0.2645,-0.362
-2.5155,-3.6068,-2.591,-4.4436,-4.8719,-4.2389,-2.8625,-1.0905,-1.1246,-1.7403,-0.8903,-0.8981,-2.8674,-3.655,-3.1878,-3.9317,-3.5003,-2.2471,-3.8685,-4.445,-4.2737,-3.3765,-2.1989,-2.3397,-1.007,-1.292,-1.7904,-1.0357,0.2388,-0.0511
-2.8787,-4.1511,-2.902,-5.0186,-5.4021,-4.6454,-3.1696,-1.145,-1.1954,-1.9457,-0.9964,-1.0445,-3.2653,-4.0804,-3.7208,-4.5253,-4.0922,-2.7558,-4.4041,-5.0318,-4.7709,-3.7712,-2.5327,-2.6324,-1.1225,-1.4379,-2.0335,-1.1714,0.2346,0.2372
-3.0156,-4.418,-3.0352,-5.302,-5.6569,-4.8257,-3.3238,-1.1462,-1.2218,-2.063,-1.0514,-1.1285,-3.4878,-4.2836,-3.9849,-4.8048,-4.3945,-3.0392,-4.6619,-5.2986,-4.9938,-3.9478,-2.7089,-2.7878,-1.1928,-1.5248,-2.1798,-1.2451,0.2467,0.4723
-2.922,-4.384,-2.9891,-5.2676,-5.6157,-4.7753,-3.3113,-1.0983,-1.2019,-2.0796,-1.0481,-1.1382,-3.5085,-4.2425,-3.9563,-4.7412,-4.3806,-3.0705,-4.6177,-5.2159,-4.9188,-3.8902,-2.7132,-2.7876,-1.2091,-1.5408,-2.211,-1.2455,0.2708,0.6238
-2.6133,-4.0546,-2.7783,-4.9195,-5.2825,-4.5112,-3.1316,-1.0083,-1.1353,-1.9901,-0.9832,-1.0692,-3.3191,-3.9543,-3.6377,-4.3362,-4.0515,-2.8502,-4.2748,-4.786,-4.5469,-3.6028,-2.5497,-2.6292,-1.17,-1.4823,-2.1211,-1.1694,0.3045,0.6664
-2.1227,-3.4647,-2.4328,-4.2922,-4.6873,-4.0696,-2.7985,-0.886,-1.0238,-1.7981,-0.8578,-0.9249,-2.9313,-3.4378,-3.0596,-3.6247,-3.4371,-2.4079,-3.664,-4.0457,-3.9056,-3.1109,-2.2401,-2.3252,-1.0819,-1.3545,-1.9171,-1.0218,0.3468,0.5845
-1.498,-2.6753,-1.9944,-3.4481,-3.8832,-3.5011,-2.3392,-0.7437,-0.8725,-1.5161,-0.6782,-0.7169,-2.3761,-2.732,-2.277,-2.6717,-2.5936,-1.7981,-2.8406,-3.0624,-3.0469,-2.4573,-1.8205,-1.9026,-0.9571,-1.1707,-1.6179,-0.8156,0.3968,0.3767
-0.7963,-1.7655,-1.5104,-2.4685,-2.9402,-2.8631,-1.7916,-0.5955,-0.6902,-1.1652,-0.4561,-0.4629,-1.7,-1.8933,-1.3631,-1.5651,-1.5969,-1.092,-1.8775,-1.9262,-2.0424,-1.6966,-1.3343,-1.3983,-0.8113,-0.9493,-1.2505,-0.5693,0.4519,0.0576
-0.0773,-0.8203,-1.027,-1.4416,-1.9359,-2.212,-1.2002,-0.4556,-0.4897,-0.7731,-0.2078,-0.185,-0.9593,-0.9879,-0.3997,-0.4035,-0.5339,-0.3661,-0.8555,-0.7372,-0.9739,-0.888,-0.8252,-0.8536,-0.6602,-0.711,-0.8467,-0.3042,0.5073,-0.3435
0.6033,0.0814,-0.5821,-0.4493,-0.945,-1.5939,-0.6103,-0.3364,-0.286,-0.3707,0.0479,0.094,-0.2129,-0.084,0.5332,0.7176,0.5085,0.3092,0.147,0.4093,0.0769,-0.0874,-0.3307,-0.3092,-0.5168,-0.4752,-0.4379,-0.0415,0.5558,-0.7878
1.2006,0.8788,-0.2,0.4447,-0.029,-1.0388,-0.0626,-0.2454,-0.094,0.012,0.2919,0.3533,0.4855,0.7569,1.3676,1.7189,1.4536,0.8795,1.0634,1.4355,1.0396,0.6586,0.1226,0.2006,-0.3898,-0.2582,-0.0516,0.2006,0.5897,-1.2343
1.6851,1.5359,0.1113,1.2016,0.7701,-0.5577,0.4125,-0.1837,0.0737,0.3496,0.5079,0.5765,1.0928,1.487,2.0554,2.5468,2.2441,1.3126,1.8461,2.2905,1.8623,1.3165,0.5199,0.6504,-0.2829,-0.071,0.2911,0.4089,0.6027,-1.6467
2.045,2.0431,0.3601,1.8093,1.4327,-0.1431,0.7968,-0.1454,0.2092,0.6243,0.6839,0.7531,1.5804,2.0756,2.5715,3.1773,2.8465,1.5995,2.4687,2.9524,2.5162,1.8673,0.8572,1.0249,-0.1961,0.0804,0.5765,0.5754,0.592,-1.9987
2.285,2.4134,0.5663,2.2782,1.959,0.2253,1.085,-0.119,0.3094,0.827,0.8134,0.8785,1.935,2.5099,2.914,3.6136,3.2526,1.7526,2.9259,3.4253,2.994,2.3046,1.1378,1.3177,-0.1272,0.194,0.7981,0.6972,0.5596,-2.2751
2.422,2.6742,0.7557,2.6323,2.3634,0.5729,1.2826,-0.0906,0.3762,0.9566,0.8947,0.9523,2.1568,2.7925,3.0993,3.8792,3.4753,1.7992,3.2291,3.7317,3.3058,2.6312,1.3685,1.5292,-0.074,0.2708,0.955,0.7748,0.5119,-2.4702
2.4789,2.857,0.9532,2.9004,2.6674,0.9224,1.4016,-0.0469,0.4144,1.0184,0.9294,0.9774,2.2562,2.9372,3.1552,4.0077,3.5428,1.774,3.3999,3.9023,3.4729,2.8551,1.556,1.6634,-0.0354,0.3129,1.0499,0.8104,0.4593,-2.5847
2.4786,2.9895,1.1762,3.1071,2.8925,1.2866,1.4574,0.0215,0.4301,1.0217,0.9212,0.9581,2.2507,2.9645,3.1139,4.0341,3.4912,1.7122,3.4644,3.9676,3.521,2.9858,1.7038,1.726,-0.0122,0.3222,1.0875,0.8067,0.4133,-2.6228
2.4387,3.0891,1.4311,3.2681,3.0555,1.6652,1.4645,0.1176,0.4293,0.9772,0.8748,0.8991,2.1607,2.8974,3.0054,3.9869,3.3573,1.6434,3.4475,3.9523,3.4759,3.0319,1.8124,1.7226,-0.0065,0.3007,1.0733,0.7665,0.3843,-2.5896
2.3701,3.1617,1.7112,3.3885,3.1659,2.0445,1.4347,0.2376,0.4165,0.8953,0.7954,0.8057,2.0073,2.759,2.8544,3.8857,3.1745,1.5885,3.3701,3.8729,3.36,3.0011,1.8792,1.6591,-0.0212,0.2498,1.013,0.6925,0.379,-2.4908
2.2773,3.2027,1.9981,3.4643,3.2261,2.3999,1.3764,0.3714,0.3947,0.7858,0.689,0.6839,1.8107,2.5704,2.6788,3.7404,2.9692,1.5579,3.2478,3.739,3.1924,2.9005,1.9011,1.5413,-0.0581,0.1713,0.9121,0.5881,0.3996,-2.3341
2.1612,3.2013,2.2656,3.4865,3.2336,2.7018,1.2945,0.5048,0.3652,0.6571,0.5627,0.5411,1.5892,2.3503,2.4902,3.5549,2.7597,1.5527,3.0914,3.5561,2.9887,2.7378,1.8764,1.3764,-0.1172,0.0676,0.7769,0.4583,0.4429,-2.1311
2.0227,3.1448,2.4843,3.4448,3.1837,2.9214,1.1922,0.6219,0.3283,0.517,0.4246,0.386,1.3588,2.1146,2.2957,3.33,2.5563,1.5667,2.9081,3.3292,2.7623,2.5229,1.8058,1.1736,-0.1965,-0.0574,0.6146,0.3099,0.5018,-1.8992
1.864,3.0238,2.6281,3.3324,3.0729,3.0361,1.0717,0.7084,0.2837,0.3722,0.2838,0.2285,1.1329,1.8765,2.0994,3.0676,2.3621,1.5889,2.7027,3.0652,2.525,2.2682,1.6941,0.944,-0.291,-0.1984,0.4335,0.1518,0.5663,-1.6611
1.6897,2.8352,2.6787,3.1483,2.9013,3.0341,0.9358,0.7534,0.231,0.2288,0.1491,0.0785,0.9221,1.6465,1.9035,2.7733,2.1748,1.6068,2.4796,2.7747,2.2877,1.9884,1.5492,0.7011,-0.3937,-0.3482,0.2432,-0.0062,0.6261,-1.4418
1.5062,2.5842,2.6289,2.8985,2.6736,2.9157,0.7875,0.7513,0.1704,0.0916,0.0279,-0.0552,0.7333,1.4319,1.7097,2.4573,1.9892,1.6092,2.2436,2.4715,2.0595,1.7004,1.3826,0.4594,-0.4957,-0.4978,0.0539,-0.1539,0.6715,-1.2641
1.32,2.2836,2.484,2.5961,2.3995,2.6935,0.6307,0.7017,0.1019,-0.0361,-0.075,-0.1664,0.5701,1.2374,1.5192,2.1338,1.7996,1.5881,2.0012,2.1717,1.848,1.4215,1.2081,0.2336,-0.5872,-0.6369,-0.1239,-0.2826,0.6957,-1.1435
1.1376,1.953,2.2601,2.2597,2.0921,2.3895,0.4691,0.6097,0.026,-0.1532,-0.1582,-0.2522,0.4318,1.0646,1.3341,1.8201,1.6031,1.5397,1.761,1.892,1.6584,1.1686,1.0405,0.037,-0.658,-0.7549,-0.2812,-0.3862,0.6949,-1.0844
0.9651,1.616,1.9814,1.9113,1.767,2.0317,0.3062,0.4842,-0.0571,-0.2605,-0.2242,-0.3135,0.3145,0.9129,1.1572,1.5342,1.4011,1.4655,1.5333,1.6473,1.4938,0.9558,0.8944,-0.1205,-0.6994,-0.8424,-0.4108,-0.4618,0.6697,-1.0798
0.8087,1.2985,1.6767,1.5748,1.4409,1.6505,0.1452,0.3366,-0.1467,-0.3607,-0.2785,-0.355,0.2122,0.7804,0.9935,1.2928,1.2009,1.3714,1.3299,1.4501,1.3554,0.7933,0.7827,-0.2332,-0.7054,-0.8921,-0.5089,-0.51,0.6249,-1.113
0.6754,1.0256,1.3757,1.2736,1.1309,1.2763,-0.0103,0.1802,-0.2414,-0.4564,-0.3284,-0.3836,0.1183,0.6649,0.8501,1.1101,1.0154,1.2671,1.1622,1.309,1.2437,0.6864,0.7143,-0.3003,-0.6738,-0.9009,-0.5746,-0.5349,0.5686,-1.1637
0.5738,0.8192,1.1052,1.0287,0.8534,0.9363,-0.1559,0.0288,-0.3384,-0.5495,-0.3806,-0.4072,0.028,0.5649,0.7354,0.9961,0.8603,1.164,1.0394,1.2283,1.1592,0.6347,0.6926,-0.3257,-0.6071,-0.87,-0.6101,-0.5425,0.5119,-1.2136
0.5127,0.6946,0.8871,0.8562,0.6235,0.6533,-0.2858,-0.1047,-0.4328,-0.6394,-0.4396,-0.4327,-0.0612,0.4804,0.6578,0.9551,0.7507,1.0728,0.9665,1.2079,1.1022,0.6316,0.7145,-0.3166,-0.513,-0.8056,-0.6196,-0.5401,0.4665,-1.2523
0.4995,0.6582,0.7356,0.7646,0.4527,0.4433,-0.3934,-0.2083,-0.5178,-0.7226,-0.5057,-0.4647,-0.1482,0.4123,0.623,0.9844,0.6961,1.0006,0.9421,1.2424,1.0722,0.6653,0.7693,-0.2826,-0.4032,-0.7179,-0.6088,-0.5345,0.4433,-1.2802
0.5372,0.7047,0.6566,0.7529,0.3474,0.3146,-0.4723,-0.2731,-0.5849,-0.7929,-0.575,-0.5047,-0.2297,0.3619,0.631,1.074,0.697,0.9486,0.9574,1.3213,1.0671,0.7201,0.8403,-0.2343,-0.2924,-0.6199,-0.5843,-0.5315,0.4498,-1.3073
0.6223,0.8172,0.647,0.81,0.3075,0.2668,-0.5175,-0.2937,-0.6259,-0.8425,-0.6395,-0.5506,-0.3008,0.3294,0.6751,1.2059,0.7428,0.9117,0.997,1.4288,1.0818,0.7784,0.9072,-0.1814,-0.1959,-0.5255,-0.5521,-0.5347,0.4882,-1.3487
0.743,0.9685,0.6949,0.9155,0.3256,0.2913,-0.527,-0.2693,-0.6341,-0.8643,-0.6896,-0.5977,-0.3568,0.3131,0.7408,1.3559,0.8126,0.8787,1.0413,1.5451,1.1077,0.8237,0.95,-0.132,-0.1268,-0.4477,-0.5179,-0.5449,0.5547,-1.4174
0.8794,1.125,0.7815,1.0425,0.3876,0.372,-0.5027,-0.2039,-0.6065,-0.8534,-0.716,-0.6392,-0.3942,0.309,0.8081,1.4959,0.8792,0.8353,1.0694,1.6482,1.1334,0.8433,0.9527,-0.0919,-0.0941,-0.396,-0.486,-0.5609,0.6397,-1.5187
1.0053,1.2511,0.8832,1.1611,0.4742,0.4877,-0.4508,-0.1061,-0.5447,-0.8093,-0.7122,-0.6685,-0.4117,0.3112,0.8543,1.5972,0.914,0.7672,1.0632,1.7159,1.1457,0.8301,0.9069,-0.064,-0.1011,-0.3758,-0.4594,-0.5794,0.7295,-1.6467
1.0925,1.3149,0.9746,1.243,0.564,0.615,-0.3808,0.0123,-0.4552,-0.736,-0.6765,-0.6802,-0.41,0.3122,0.8582,1.6348,0.8934,0.6637,1.011,1.7287,1.1319,0.7837,0.8135,-0.0492,-0.1456,-0.3876,-0.4395,-0.5962,0.8092,-1.7842
1.1147,1.293,1.0322,1.2655,0.6363,0.731,-0.3038,0.1377,-0.3484,-0.6415,-0.6121,-0.6712,-0.3916,0.3051,0.8036,1.5906,0.8025,0.5202,0.9085,1.6725,1.0821,0.7092,0.6817,-0.0466,-0.2198,-0.4272,-0.4264,-0.6067,0.8654,-1.9064
1.0526,1.1738,1.0382,1.2146,0.6749,0.8169,-0.2303,0.2572,-0.236,-0.5364,-0.5262,-0.6412,-0.3596,0.2848,0.6827,1.4564,0.6376,0.3393,0.7598,1.5406,0.9914,0.6155,0.5272,-0.0541,-0.3127,-0.4867,-0.4188,-0.6071,0.889,-1.9872
0.8978,0.9589,0.9822,1.0866,0.6705,0.8605,-0.1679,0.3607,-0.129,-0.4307,-0.4285,-0.592,-0.3174,0.2494,0.4964,1.2343,0.4061,0.1297,0.5746,1.3345,0.861,0.5123,0.3674,-0.0698,-0.4118,-0.5562,-0.4142,-0.5945,0.8765,-2.0051
0.6545,0.6622,0.8633,0.8877,0.6211,0.857,-0.1198,0.4417,-0.0354,-0.3323,-0.3282,-0.5276,-0.2678,0.2002,0.255,0.9365,0.1237,-0.0952,0.3661,1.0634,0.6974,0.4076,0.2178,-0.0919,-0.5055,-0.6256,-0.41,-0.5677,0.8305,-1.9476
0.339,0.3073,0.6897,0.6324,0.5319,0.8092,-0.085,0.4984,0.0409,-0.2458,-0.2329,-0.4526,-0.2135,0.141,-0.0248,0.5828,-0.1886,-0.3204,0.1476,0.7429,0.5116,0.3055,0.0885,-0.1196,-0.5846,-0.6863,-0.4036,-0.5275,0.7585,-1.8131
-0.023,-0.0773,0.4772,0.34,0.4127,0.7252,-0.0594,0.5329,0.0994,-0.1722,-0.1477,-0.3727,-0.1575,0.0767,-0.322,0.1973,-0.5081,-0.5311,-0.0695,0.3919,0.3158,0.2053,-0.0178,-0.1538,-0.6445,-0.7325,-0.3936,-0.4766,0.6717,-1.6109
-0.401,-0.4625,0.246,0.0306,0.2744,0.6156,-0.0386,0.5492,0.1417,-0.111,-0.0756,-0.294,-0.1046,0.0105,-0.6154,-0.1951,-0.8135,-0.7148,-0.2777,0.0298,0.1206,0.1021,-0.1047,-0.1962,-0.6848,-0.7622,-0.3804,-0.4201,0.5826,-1.3588
-0.7648,-0.8242,0.0169,-0.2783,0.1258,0.4905,-0.02,0.5518,0.1693,-0.0618,-0.0187,-0.2229,-0.0614,-0.057,-0.8864,-0.5727,-1.0883,-0.8626,-0.4738,-0.3266,-0.0674,-0.0114,-0.1809,-0.2496,-0.7094,-0.7769,-0.3668,-0.3648,0.5032,-1.0802
-1.0886,-1.1461,-0.1919,-0.5749,-0.0287,0.3565,-0.0054,0.5437,0.1827,-0.026,0.0207,-0.1661,-0.0365,-0.1294,-1.122,-0.9196,-1.3226,-0.9698,-0.6587,-0.6649,-0.2464,-0.143,-0.2573,-0.3164,-0.7249,-0.7807,-0.3571,-0.3179,0.4429,-0.8006
-1.3549,-1.4215,-0.3682,-0.8543,-0.1902,0.2155,-0.0009,0.5257,0.1805,-0.0073,0.0405,-0.1291,-0.0392,-0.2132,-1.3164,-1.2271,-1.5145,-1.0367,-0.8365,-0.9786,-0.4198,-0.2989,-0.3443,-0.398,-0.7383,-0.7789,-0.3564,-0.286,0.4067,-0.543
-1.5557,-1.6527,-0.5071,-1.1173,-0.3642,0.0648,-0.0157,0.4962,0.1605,-0.011,0.0384,-0.1157,-0.0774,-0.3161,-1.4708,-1.4941,-1.6697,-1.0691,-1.0138,-1.2663,-0.5938,-0.4818,-0.4495,-0.4933,-0.7557,-0.7769,-0.3689,-0.2734,0.3949,-0.3237
-1.6924,-1.8477,-0.611,-1.3686,-0.558,-0.1009,-0.0598,0.4523,0.1207,-0.042,0.0137,-0.1267,-0.1554,-0.4447,-1.5925,-1.7251,-1.7997,-1.0767,-1.1969,-1.5304,-0.7754,-0.6897,-0.5755,-0.5983,-0.7801,-0.7782,-0.3965,-0.2809,0.4028,-0.1494
-1.7745,-2.0171,-0.6877,-1.6134,-0.7775,-0.2867,-0.1405,0.3913,0.0608,-0.1031,-0.0323,-0.1594,-0.2724,-0.6017,-1.692,-1.928,-1.9183,-1.072,-1.3902,-1.7748,-0.969,-0.9155,-0.7192,-0.706,-0.8111,-0.7838,-0.4381,-0.3057,0.4224,-0.0166
-1.8165,-2.1693,-0.748,-1.8535,-1.023,-0.4945,-0.2596,0.3117,-0.0171,-0.1927,-0.0955,-0.2081,-0.4215,-0.7836,-1.7804,-2.11,-2.0372,-1.0675,-1.5935,-2.0018,-1.174,-1.1468,-0.8718,-0.8074,-0.8446,-0.7918,-0.4897,-0.3418,0.4441,0.0858
-1.8346,-2.3076,-0.8024,-2.0852,-1.2872,-0.72,-0.4122,0.215,-0.1086,-0.3053,-0.17,-0.2649,-0.5902,-0.9805,-1.8653,-2.2752,-2.1627,-1.0732,-1.8008,-2.2099,-1.3836,-1.3674,-1.0206,-0.8929,-0.874,-0.7987,-0.5445,-0.381,0.459,0.1717
-1.8432,-2.4284,-0.8583,-2.2983,-1.5541,-0.9518,-0.5862,0.1053,-0.2073,-0.4308,-0.2488,-0.3218,-0.7616,-1.1762,-1.9493,-2.4216,-2.2921,-1.0949,-1.9995,-2.3924,-1.584,-1.5585,-1.1505,-0.9532,-0.8913,-0.7999,-0.5948,-0.4155,0.4606,0.2522
-1.8516,-2.5217,-0.9182,-2.4767,-1.8006,-1.1717,-0.764,-0.0104,-0.306,-0.5568,-0.3247,-0.3718,-0.917,-1.3506,-2.0283,-2.5405,-2.4139,-1.1329,-2.1714,-2.5373,-1.7563,-1.7012,-1.2463,-0.981,-0.8896,-0.7914,-0.6334,-0.4391,0.4467,0.3309
-1.8631,-2.5737,-0.979,-2.6017,-2.0002,-1.3581,-0.9252,-0.1229,-0.3975,-0.67,-0.3919,-0.4105,-1.0384,-1.4832,-2.0932,-2.6185,-2.5099,-1.183,-2.2959,-2.6294,-1.8799,-1.7788,-1.2954,-0.972,-0.8637,-0.7707,-0.6544,-0.4487,0.4187,0.4025
-1.875,-2.571,-1.0336,-2.6566,-2.1279,-1.4902,-1.0501,-0.2225,-0.4748,-0.758,-0.4457,-0.4359,-1.1116,-1.5564,-2.1317,-2.6413,-2.5599,-1.237,-2.3537,-2.654,-1.9365,-1.7796,-1.2889,-0.9253,-0.8121,-0.7376,-0.6551,-0.4442,0.3817,0.4542
-1.8818,-2.5054,-1.0728,-2.631,-2.1664,-1.5527,-1.1231,-0.2996,-0.5321,-0.8113,-0.4832,-0.4488,-1.1282,-1.5596,-2.1335,-2.5983,-2.5474,-1.2858,-2.3316,-2.6015,-1.9149,-1.6987,-1.2238,-0.8434,-0.7367,-0.6933,-0.635,-0.4284,0.3422,0.4712
-1.8781,-2.3772,-1.0886,-2.5248,-2.1097,-1.5397,-1.1351,-0.3469,-0.5647,-0.8241,-0.5024,-0.4513,-1.0865,-1.4913,-2.0928,-2.4875,-2.4655,-1.321,-2.2261,-2.4713,-1.8141,-1.5399,-1.1032,-0.7321,-0.6428,-0.6403,-0.5966,-0.4054,0.307,0.4426
-1.8615,-2.1969,-1.0765,-2.349,-1.9649,-1.4556,-1.0847,-0.3595,-0.5694,-0.7949,-0.5024,-0.4458,-0.9913,-1.3594,-2.0118,-2.3179,-2.3198,-1.3376,-2.046,-2.2738,-1.6447,-1.3158,-0.937,-0.5989,-0.5379,-0.5811,-0.5434,-0.3791,0.281,0.3667
-1.8334,-1.9839,-1.0372,-2.1242,-1.751,-1.315,-0.9783,-0.3369,-0.5454,-0.7265,-0.483,-0.4342,-0.853,-1.1793,-1.9002,-2.1089,-2.1287,-1.3347,-1.8116,-2.0294,-1.4265,-1.0472,-0.7411,-0.4529,-0.4305,-0.5173,-0.4793,-0.3522,0.2665,0.2524
-1.7992,-1.7625,-0.9761,-1.8768,-1.4949,-1.1391,-0.8287,-0.2827,-0.495,-0.6257,-0.4452,-0.4175,-0.6853,-0.9719,-1.7738,-1.8865,-1.9198,-1.3155,-1.5518,-1.7656,-1.1856,-0.7605,-0.5357,-0.3029,-0.328,-0.4496,-0.408,-0.3256,0.2626,0.1195
-1.7657,-1.5567,-0.9027,-1.6338,-1.2268,-0.952,-0.6532,-0.2053,-0.4238,-0.5028,-0.3921,-0.396,-0.5039,-0.7594,-1.6506,-1.6787,-1.7241,-1.2868,-1.2992,-1.5113,-0.9493,-0.4845,-0.3425,-0.1579,-0.236,-0.378,-0.3323,-0.2988,0.2655,-0.0059
-1.7388,-1.3859,-0.8283,-1.4182,-0.9745,-0.7766,-0.4716,-0.117,-0.3412,-0.3712,-0.3292,-0.3702,-0.3249,-0.5626,-1.5467,-1.5087,-1.5692,-1.2567,-1.0837,-1.2919,-0.7413,-0.2465,-0.1816,-0.0262,-0.1574,-0.3027,-0.2546,-0.2703,0.2698,-0.0975
-1.7209,-1.261,-0.7633,-1.2449,-0.7598,-0.6309,-0.304,-0.0324,-0.2599,-0.2457,-0.2645,-0.3412,-0.1632,-0.3982,-1.4729,-1.3912,-1.4737,-1.2328,-0.928,-1.1247,-0.5786,-0.0683,-0.0682,0.0841,-0.0933,-0.2249,-0.1782,-0.2395,0.2694,-0.1362
-1.7101,-1.1836,-0.7158,-1.1196,-0.5955,-0.5257,-0.1678,0.0333,-0.1935,-0.1412,-0.2079,-0.312,-0.0319,-0.2777,-1.433,-1.3293,-1.4436,-1.2203,-0.8429,-1.0161,-0.4692,0.0365,-0.0105,0.1654,-0.0436,-0.1481,-0.1071,-0.2071,0.2594,-0.1173
-1.7005,-1.1469,-0.6895,-1.0387,-0.485,-0.464,-0.076,0.0678,-0.1548,-0.0707,-0.1695,-0.2868,0.059,-0.206,-1.4226,-1.3151,-1.4713,-1.2203,-0.8268,-0.9616,-0.4118,0.0641,-0.0089,0.2113,-0.0079,-0.0781,-0.0469,-0.1757,0.2373,-0.0527
-1.6841,-1.1381,-0.6836,-0.9913,-0.4228,-0.4409,-0.0352,0.0635,-0.1521,-0.0423,-0.1572,-0.2697,0.1037,-0.1821,-1.4313,-1.3317,-1.538,-1.2294,-0.8669,-0.9477,-0.3977,0.0207,-0.0559,0.2174,0.014,-0.0218,-0.0034,-0.149,0.2036,0.0315
-1.6524,-1.1421,-0.6933,-0.9633,-0.3975,-0.4464,-0.0443,0.0202,-0.1878,-0.0581,-0.1745,-0.2641,0.1012,-0.199,-1.4446,-1.3578,-1.6175,-1.2402,-0.942,-0.955,-0.4125,-0.0788,-0.1379,0.1832,0.0221,0.014,0.0183,-0.1309,0.1615,0.103
-1.5996,-1.1442,-0.7108,-0.94,-0.3946,-0.4674,-0.0957,-0.0551,-0.2573,-0.1133,-0.2192,-0.2707,0.0559,-0.2458,-1.4476,-1.372,-1.6823,-1.2424,-1.0273,-0.9628,-0.44,-0.2132,-0.2376,0.1129,0.0166,0.0246,0.0156,-0.1239,0.1166,0.1333
-1.5235,-1.1339,-0.7272,-0.9102,-0.4002,-0.4918,-0.1766,-0.1497,-0.3495,-0.1967,-0.2832,-0.2873,-0.0228,-0.3094,-1.4277,-1.3573,-1.709,-1.2256,-1.099,-0.9531,-0.4648,-0.3583,-0.3365,0.0158,-0.0011,0.0093,-0.0108,-0.1278,0.0753,0.1069
-1.4262,-1.1057,-0.7343,-0.8684,-0.4048,-0.5107,-0.2717,-0.2473,-0.4492,-0.2934,-0.3542,-0.3088,-0.1224,-0.3763,-1.3781,-1.3048,-1.6828,-1.1817,-1.1387,-0.9146,-0.4756,-0.4908,-0.4181,-0.0952,-0.0281,-0.0286,-0.0566,-0.1402,0.0435,0.0249
-1.3141,-1.0606,-0.7266,-0.8161,-0.4052,-0.5208,-0.3669,-0.3324,-0.5408,-0.3877,-0.4184,-0.329,-0.2288,-0.436,-1.2981,-1.215,-1.6006,-1.1064,-1.1361,-0.8449,-0.4671,-0.5918,-0.4709,-0.205,-0.0601,-0.0824,-0.1148,-0.1565,0.0251,-0.0959
-1.1963,-1.005,-0.7033,-0.7611,-0.4052,-0.5249,-0.4514,-0.3936,-0.6113,-0.4661,-0.4637,-0.3418,-0.3296,-0.4818,-1.194,-1.0979,-1.4711,-1.0011,-1.091,-0.7508,-0.4407,-0.6505,-0.4897,-0.3001,-0.0922,-0.1433,-0.1771,-0.1719,0.0215,-0.2288
-1.0826,-0.9499,-0.6684,-0.7159,-0.4144,-0.5311,-0.5201,-0.4255,-0.6526,-0.5199,-0.4823,-0.3432,-0.4152,-0.5127,-1.0772,-0.9706,-1.3127,-0.8723,-1.0127,-0.6468,-0.4039,-0.6657,-0.4776,-0.3705,-0.1197,-0.2024,-0.2356,-0.182,0.0311,-0.3447
-0.9821,-0.9077,-0.6294,-0.6941,-0.4453,-0.5499,-0.573,-0.4299,-0.6627,-0.5465,-0.4722,-0.3319,-0.4811,-0.5325,-0.9617,-0.8534,-1.149,-0.7313,-0.9179,-0.5523,-0.3686,-0.6458,-0.4444,-0.412,-0.1392,-0.2521,-0.284,-0.1845,0.0503,-0.4198
-0.9016,-0.8898,-0.5955,-0.7071,-0.5091,-0.5917,-0.614,-0.4139,-0.645,-0.5487,-0.4368,-0.3091,-0.5272,-0.5484,-0.8616,-0.766,-1.0042,-0.5917,-0.8273,-0.4866,-0.3481,-0.6067,-0.4051,-0.4265,-0.1493,-0.2871,-0.318,-0.1784,0.0743,-0.4406
-0.845,-0.9036,-0.5744,-0.7606,-0.6119,-0.6629,-0.6489,-0.3879,-0.6065,-0.5331,-0.3835,-0.2779,-0.5575,-0.5688,-0.7882,-0.7227,-0.8978,-0.4674,-0.7607,-0.4649,-0.3539,-0.5679,-0.3763,-0.4208,-0.1511,-0.3046,-0.3357,-0.1642,0.0981,-0.4059
-0.813,-0.9501,-0.5702,-0.8526,-0.7522,-0.764,-0.6829,-0.3621,-0.5558,-0.5075,-0.3216,-0.2425,-0.5776,-0.6004,-0.7484,-0.7298,-0.8415,-0.3702,-0.7334,-0.4948,-0.393,-0.5478,-0.3723,-0.4049,-0.1475,-0.3047,-0.3371,-0.1435,0.1177,-0.3252
-0.8038,-1.0239,-0.5823,-0.9733,-0.9199,-0.8881,-0.7184,-0.3444,-0.5007,-0.4794,-0.2599,-0.2069,-0.5932,-0.6468,-0.7429,-0.7841,-0.837,-0.3076,-0.7522,-0.5742,-0.4658,-0.5591,-0.4015,-0.3889,-0.1426,-0.2895,-0.3238,-0.1182,0.1306,-0.2152
-0.8133,-1.1134,-0.6057,-1.1061,-1.098,-1.0217,-0.7545,-0.3384,-0.4471,-0.4533,-0.2051,-0.1742,-0.6083,-0.7067,-0.7669,-0.874,-0.8766,-0.2815,-0.8142,-0.6919,-0.5662,-0.6055,-0.4648,-0.3803,-0.1405,-0.2627,-0.2984,-0.0904,0.1354,-0.095
-0.8361,-1.2034,-0.6323,-1.2312,-1.2654,-1.1473,-0.7863,-0.343,-0.3983,-0.4303,-0.1604,-0.1462,-0.6237,-0.7739,-0.811,-0.9812,-0.9448,-0.2882,-0.9072,-0.8302,-0.6823,-0.6809,-0.5544,-0.3822,-0.1437,-0.2286,-0.2637,-0.0619,0.1322,0.0172
-0.8657,-1.2775,-0.6537,-1.3289,-1.4006,-1.2464,-0.8063,-0.3534,-0.3545,-0.4084,-0.1258,-0.123,-0.6371,-0.8387,-0.8625,-1.0846,-1.0219,-0.3199,-1.0123,-0.9679,-0.7983,-0.7704,-0.6555,-0.3924,-0.1529,-0.1908,-0.2223,-0.0338,0.1221,0.1065
-0.8945,-1.3214,-0.6619,-1.3831,-1.4859,-1.3033,-0.8059,-0.362,-0.3138,-0.3828,-0.0982,-0.1032,-0.6434,-0.8895,-0.9085,-1.1642,-1.0889,-0.3661,-1.1079,-1.0846,-0.8974,-0.8537,-0.7498,-0.4044,-0.1664,-0.1521,-0.1761,-0.0069,0.1074,0.1629
-0.9136,-1.3255,-0.6517,-1.3844,-1.5096,-1.3075,-0.7768,-0.3601,-0.2722,-0.3478,-0.073,-0.0844,-0.6362,-0.9151,-0.9374,-1.2047,-1.1309,-0.4171,-1.1745,-1.1639,-0.9648,-0.9102,-0.819,-0.4095,-0.1814,-0.1145,-0.1268,0.0187,0.0911,0.1815
-0.9134,-1.2859,-0.6207,-1.3315,-1.468,-1.2553,-0.7137,-0.3398,-0.2249,-0.298,-0.0449,-0.0643,-0.61,-0.9075,-0.9412,-1.1979,-1.1401,-0.4649,-1.1991,-1.1963,-0.9902,-0.924,-0.849,-0.3995,-0.1949,-0.0793,-0.0755,0.0427,0.077,0.1638
-0.8852,-1.2058,-0.57,-1.2309,-1.3658,-1.1503,-0.6152,-0.2953,-0.1681,-0.2301,-0.0102,-0.0411,-0.5616,-0.8637,-0.9167,-1.1443,-1.1169,-0.505,-1.1774,-1.1803,-0.9701,-0.8877,-0.8335,-0.3688,-0.2048,-0.0483,-0.024,0.0645,0.0688,0.1178
-0.8237,-1.0942,-0.503,-1.096,-1.2149,-1.003,-0.4855,-0.2251,-0.1,-0.1443,0.0326,-0.0147,-0.4913,-0.7866,-0.8657,-1.0528,-1.069,-0.536,-1.1149,-1.1222,-0.9082,-0.8047,-0.7745,-0.3168,-0.2105,-0.0235,0.0255,0.083,0.0696,0.0577
-0.7291,-0.9649,-0.4259,-0.9447,-1.0331,-0.8287,-0.3346,-0.1329,-0.0228,-0.0454,0.0816,0.0131,-0.4036,-0.6853,-0.7954,-0.9386,-1.0088,-0.5587,-1.0247,-1.0345,-0.8152,-0.6883,-0.6821,-0.2474,-0.213,-0.0076,0.0699,0.0965,0.0802,0.0007
-0.6084,-0.8338,-0.3465,-0.7964,-0.8411,-0.6464,-0.1773,-0.0277,0.0568,0.0576,0.1314,0.0388,-0.3068,-0.5734,-0.7159,-0.8201,-0.9506,-0.5752,-0.9243,-0.9336,-0.7066,-0.5582,-0.5717,-0.1687,-0.2144,-0.0031,0.1055,0.1026,0.099,-0.0369
-0.4744,-0.7164,-0.2736,-0.6686,-0.6596,-0.4752,-0.0317,0.0771,0.1289,0.1524,0.1743,0.0578,-0.211,-0.4661,-0.6388,-0.7154,-0.9066,-0.5871,-0.8318,-0.836,-0.5996,-0.4359,-0.4607,-0.091,-0.2165,-0.0117,0.129,0.099,0.1213,-0.0453
-0.343,-0.6247,-0.2155,-0.5738,-0.5064,-0.3324,0.0846,0.1659,0.1821,0.226,0.2022,0.0657,-0.1268,-0.3776,-0.5747,-0.6384,-0.8851,-0.5956,-0.7609,-0.7555,-0.5097,-0.3407,-0.3644,-0.0246,-0.2204,-0.0338,0.1375,0.0843,0.1408,-0.0246
-0.2298,-0.5651,-0.1785,-0.5173,-0.3932,-0.2307,0.1574,0.224,0.2064,0.2673,0.2085,0.0599,-0.0631,-0.3179,-0.5304,-0.596,-0.8877,-0.6009,-0.7191,-0.7002,-0.4473,-0.2847,-0.2941,0.0226,-0.2262,-0.0673,0.1301,0.0585,0.1504,0.0149
-0.1466,-0.5379,-0.1659,-0.4971,-0.3251,-0.1762,0.1794,0.2412,0.196,0.2706,0.1906,0.0406,-0.0253,-0.2909,-0.5076,-0.5869,-0.9093,-0.6017,-0.706,-0.6716,-0.4162,-0.2719,-0.2553,0.0459,-0.2327,-0.1084,0.1078,0.0238,0.1446,0.056
-0.0988,-0.5372,-0.1769,-0.5046,-0.3,-0.1683,0.1515,0.2143,0.1514,0.2368,0.1513,0.0115,-0.014,-0.2938,-0.5024,-0.6025,-0.9386,-0.596,-0.7137,-0.6647,-0.4129,-0.2971,-0.2478,0.045,-0.2381,-0.152,0.0744,-0.0152,0.1209,0.0798
-0.0845,-0.5528,-0.2067,-0.5276,-0.3102,-0.1997,0.0829,0.1481,0.08,0.1746,0.0983,-0.0205,-0.0253,-0.3181,-0.5066,-0.6287,-0.961,-0.581,-0.7296,-0.6696,-0.428,-0.3487,-0.2667,0.0236,-0.2413,-0.1923,0.0353,-0.0525,0.0812,0.072
-0.0951,-0.5724,-0.2469,-0.5522,-0.3441,-0.2583,-0.0101,0.0557,-0.005,0.0989,0.0433,-0.0465,-0.0513,-0.3517,-0.5089,-0.6497,-0.9613,-0.5539,-0.7393,-0.6746,-0.4487,-0.4105,-0.3039,-0.0114,-0.2414,-0.2241,-0.0022,-0.081,0.0312,0.0269
-0.1177,-0.5839,-0.2868,-0.5664,-0.3886,-0.3292,-0.1084,-0.0452,-0.0872,0.0277,-0.0005,-0.0574,-0.0819,-0.3815,-0.4983,-0.6512,-0.9277,-0.5125,-0.7296,-0.6683,-0.4619,-0.4658,-0.3494,-0.0512,-0.2385,-0.2432,-0.0308,-0.0939,-0.0204,-0.0505
-0.1377,-0.577,-0.3152,-0.5613,-0.4315,-0.3975,-0.1925,-0.1348,-0.1501,-0.0211,-0.0211,-0.0452,-0.1066,-0.3963,-0.4662,-0.6234,-0.8548,-0.4564,-0.6914,-0.6425,-0.4569,-0.5002,-0.3927,-0.0859,-0.233,-0.2467,-0.0433,-0.0857,-0.0643,-0.1465
-0.1418,-0.5453,-0.3221,-0.532,-0.4628,-0.4503,-0.2469,-0.1962,-0.1807,-0.0341,-0.0108,-0.0053,-0.1162,-0.3883,-0.4085,-0.5628,-0.7447,-0.3872,-0.6218,-0.5931,-0.4271,-0.5038,-0.4239,-0.1063,-0.2248,-0.2328,-0.0339,-0.0533,-0.093,-0.2418
-0.1206,-0.4863,-0.3007,-0.4781,-0.4753,-0.4783,-0.2616,-0.2185,-0.1721,-0.0047,0.033,0.0632,-0.1044,-0.3541,-0.3268,-0.4723,-0.6079,-0.3094,-0.5242,-0.5211,-0.3713,-0.4728,-0.4357,-0.1047,-0.2131,-0.201,0.0008,0.0042,-0.1018,-0.3176
-0.0702,-0.4025,-0.2486,-0.4027,-0.465,-0.4769,-0.2337,-0.1984,-0.1246,0.0652,0.1064,0.1565,-0.0685,-0.295,-0.2276,-0.3607,-0.4609,-0.2297,-0.4081,-0.4318,-0.2926,-0.41,-0.4239,-0.0767,-0.1966,-0.1517,0.0614,0.0843,-0.0903,-0.3611
0.0076,-0.3,-0.1688,-0.312,-0.4311,-0.4454,-0.1666,-0.1409,-0.0463,0.1663,0.2,0.2666,-0.0095,-0.2157,-0.1214,-0.2407,-0.3234,-0.1563,-0.2873,-0.3339,-0.1979,-0.3241,-0.3892,-0.0215,-0.1733,-0.0866,0.1452,0.1817,-0.0616,-0.369
0.1058,-0.1884,-0.0682,-0.2135,-0.3753,-0.3871,-0.0697,-0.0577,0.0494,0.2829,0.3005,0.3826,0.0677,-0.1234,-0.0203,-0.1263,-0.2139,-0.0968,-0.1768,-0.2374,-0.0961,-0.2276,-0.3367,0.0569,-0.1423,-0.0093,0.2458,0.2885,-0.0215,-0.3474
0.2141,-0.0783,0.0429,-0.1153,-0.3016,-0.3076,0.0441,0.0358,0.1459,0.3964,0.393,0.4916,0.1554,-0.0268,0.0647,-0.0301,-0.1459,-0.0567,-0.09,-0.1521,0.0039,-0.1349,-0.2756,0.1498,-0.1043,0.0744,0.3531,0.3943,0.0232,-0.309
0.3212,0.0201,0.1534,-0.0245,-0.2153,-0.2136,0.1596,0.1232,0.2263,0.4885,0.4636,0.5807,0.2433,0.0657,0.1259,0.0393,-0.125,-0.0376,-0.0358,-0.0849,0.0943,-0.0584,-0.2167,0.2448,-0.0625,0.1563,0.4544,0.4875,0.0664,-0.2688
0.4177,0.0995,0.2527,0.0537,-0.1227,-0.1123,0.2622,0.191,0.2774,0.5442,0.5017,0.6388,0.3207,0.1468,0.1607,0.0789,-0.1474,-0.037,-0.0161,-0.0392,0.1697,-0.0067,-0.1698,0.3278,-0.0229,0.2264,0.5357,0.5566,0.1033,-0.2397
0.4977,0.1562,0.3329,0.1168,-0.0298,-0.0102,0.3395,0.2304,0.2915,0.5546,0.5023,0.6581,0.3777,0.2114,0.1719,0.0919,-0.2013,-0.0479,-0.0259,-0.0134,0.2279,0.0181,-0.1412,0.3857,0.0068,0.2741,0.5838,0.5919,0.1322,-0.2301
0.56,0.1916,0.3902,0.1653,0.058,0.0868,0.3835,0.2388,0.268,0.5187,0.4667,0.6362,0.4078,0.2573,0.1675,0.087,-0.2686,-0.0606,-0.0538,-0.0016,0.2702,0.0199,-0.1316,0.4086,0.0187,0.29,0.5895,0.5878,0.1536,-0.2435
0.6078,0.2119,0.425,0.2025,0.1365,0.1735,0.3918,0.2195,0.2132,0.4433,0.4022,0.5762,0.4092,0.2859,0.159,0.0769,-0.3282,-0.0636,-0.0842,0.0059,0.3011,0.0088,-0.1359,0.3932,0.0069,0.2687,0.5496,0.544,0.1702,-0.279
0.648,0.2266,0.442,0.2339,0.2034,0.2457,0.3675,0.1802,0.139,0.3421,0.3208,0.4874,0.3858,0.302,0.1596,0.0766,-0.3595,-0.0465,-0.0997,0.0204,0.3279,-0.0017,-0.1441,0.3431,-0.0301,0.2103,0.4686,0.4663,0.1857,-0.3338
0.6888,0.2474,0.4483,0.2658,0.258,0.3006,0.3194,0.1308,0.0595,0.2329,0.237,0.3834,0.3476,0.3133,0.1817,0.0998,-0.3455,-0.0016,-0.0847,0.0529,0.3594,0.0029,-0.144,0.2691,-0.0887,0.1213,0.3584,0.3665,0.2036,-0.404
0.7378,0.2849,0.4523,0.3045,0.3016,0.3369,0.2593,0.081,-0.0117,0.1341,0.1644,0.2805,0.3081,0.3288,0.2346,0.1567,-0.2757,0.0745,-0.0279,0.1115,0.4042,0.0344,-0.1243,0.187,-0.1601,0.014,0.2366,0.2599,0.2259,-0.4863
0.7999,0.3463,0.4612,0.3538,0.3362,0.3547,0.2001,0.0379,-0.0651,0.0609,0.1133,0.194,0.2819,0.3568,0.3219,0.2514,-0.1487,0.1792,0.0745,0.1994,0.4685,0.0997,-0.0773,0.1142,-0.2324,-0.0958,0.1227,0.1628,0.253,-0.5772
0.8759,0.4328,0.4793,0.4144,0.3639,0.3549,0.1522,0.0055,-0.0967,0.0221,0.0887,0.1361,0.2804,0.4022,0.4404,0.3799,0.0271,0.3048,0.2178,0.3134,0.5543,0.198,-0.0021,0.0659,-0.2928,-0.1918,0.0341,0.0895,0.2832,-0.6724
0.9626,0.5387,0.5077,0.4826,0.3854,0.3391,0.1213,-0.0163,-0.1088,0.0184,0.0894,0.1131,0.3087,0.4645,0.5799,0.5304,0.2344,0.4389,0.3884,0.4438,0.6572,0.3209,0.0954,0.0511,-0.3312,-0.2608,-0.018,0.0495,0.3128,-0.7671
1.0533,0.652,0.5434,0.5506,0.3998,0.3091,0.1072,-0.0307,-0.1092,0.0423,0.1091,0.1249,0.3637,0.5368,0.7251,0.6846,0.4486,0.5671,0.5662,0.5755,0.7669,0.4533,0.2027,0.0708,-0.3417,-0.295,-0.0305,0.0454,0.3375,-0.8568
1.1392,0.7564,0.5807,0.6084,0.4038,0.2669,0.1035,-0.0429,-0.1086,0.0802,0.1378,0.1646,0.434,0.6065,0.8578,0.8212,0.6426,0.6757,0.7273,0.6906,0.8681,0.5761,0.3033,0.1172,-0.3249,-0.2942,-0.0094,0.0728,0.3528,-0.9387
1.2111,0.8353,0.6128,0.6457,0.3932,0.2148,0.0998,-0.0582,-0.1181,0.115,0.1638,0.2203,0.502,0.6582,0.9609,0.9201,0.7916,0.755,0.8488,0.772,0.9434,0.6691,0.3795,0.1756,-0.2873,-0.2654,0.0319,0.1214,0.3557,-1.0118
1.2603,0.8757,0.6334,0.6545,0.3641,0.1555,0.0844,-0.0809,-0.1466,0.1304,0.1765,0.277,0.5478,0.6766,1.0211,0.9666,0.8778,0.8008,0.9129,0.8073,0.9774,0.7153,0.4162,0.2272,-0.2402,-0.2213,0.076,0.1763,0.3459,-1.076
1.2803,0.8711,0.6391,0.6319,0.3146,0.0926,0.0477,-0.1131,-0.1982,0.1141,0.1682,0.3198,0.5541,0.6509,1.0322,0.9551,0.895,0.8144,0.9103,0.7916,0.9604,0.7037,0.4031,0.2532,-0.1972,-0.1773,0.1047,0.2222,0.3259,-1.13
1.2676,0.8239,0.6298,0.5813,0.247,0.0312,-0.0152,-0.1536,-0.2713,0.0606,0.1354,0.3368,0.5097,0.5778,0.9958,0.8908,0.8493,0.802,0.8431,0.7292,0.8913,0.6328,0.3386,0.2397,-0.1708,-0.1484,0.1042,0.2455,0.3009,-1.1711
1.2234,0.7451,0.6091,0.5123,0.1685,-0.0226,-0.1015,-0.1981,-0.3584,-0.027,0.0799,0.3213,0.4134,0.4634,0.9217,0.789,0.7589,0.773,0.725,0.6337,0.779,0.5118,0.2301,0.181,-0.1697,-0.1452,0.0675,0.2378,0.2776,-1.1957
1.1538,0.6523,0.5837,0.4401,0.0909,-0.0611,-0.2013,-0.2396,-0.4474,-0.1377,0.0083,0.2734,0.2744,0.3227,0.8267,0.6732,0.6505,0.7382,0.58,0.5258,0.6415,0.3602,0.0951,0.0812,-0.1966,-0.1721,-0.0038,0.1974,0.2626,-1.2019
1.0706,0.5668,0.5618,0.3825,0.0293,-0.0767,-0.2988,-0.2697,-0.5238,-0.2542,-0.0691,0.1997,0.1112,0.1773,0.7315,0.5708,0.5542,0.7089,0.4385,0.43,0.5028,0.2054,-0.0418,-0.0455,-0.2475,-0.2265,-0.1,0.1292,0.261,-1.1913
0.9895,0.5098,0.5521,0.3569,-0.001,-0.0625,-0.3752,-0.2799,-0.5735,-0.3563,-0.1402,0.1119,-0.0515,0.0513,0.6583,0.5083,0.4981,0.6952,0.3323,0.37,0.3884,0.0776,-0.1529,-0.1783,-0.3131,-0.2996,-0.2055,0.0437,0.2753,-1.1705
0.9283,0.498,0.562,0.3764,0.0127,-0.0142,-0.413,-0.2636,-0.5857,-0.4248,-0.1932,0.0241,-0.1883,-0.0331,0.626,0.5063,0.503,0.7052,0.2883,0.3646,0.3205,0.0043,-0.2124,-0.2934,-0.3808,-0.3791,-0.3028,-0.0459,0.3054,-1.1501
0.903,0.5404,0.5962,0.4467,0.0763,0.0684,-0.3999,-0.2178,-0.5553,-0.4458,-0.2195,-0.0502,-0.2774,-0.0606,0.647,0.5753,0.5781,0.7435,0.3235,0.4231,0.3132,0.0043,-0.2027,-0.37,-0.4379,-0.4524,-0.3762,-0.1264,0.3488,-1.1414
0.9241,0.6357,0.6551,0.5635,0.1872,0.1802,-0.3323,-0.1443,-0.484,-0.4138,-0.2153,-0.1013,-0.3052,-0.0261,0.7242,0.7129,0.7192,0.8094,0.4403,0.543,0.3693,0.0835,-0.1174,-0.3943,-0.4749,-0.509,-0.4158,-0.1873,0.4009,-1.1526
0.9934,0.7718,0.7338,0.7127,0.3332,0.3109,-0.2164,-0.0505,-0.3804,-0.3329,-0.1825,-0.1247,-0.269,0.0647,0.8496,0.9036,0.9089,0.8971,0.6256,0.7097,0.4796,0.233,0.0354,-0.3627,-0.4868,-0.5433,-0.4188,-0.2234,0.4559,-1.1845
1.1022,0.928,0.8223,0.8722,0.4943,0.4459,-0.0678,0.0522,-0.2588,-0.2163,-0.1283,-0.122,-0.1768,0.1955,1.0051,1.1209,1.1193,0.9955,0.8522,0.8983,0.6239,0.4298,0.2351,-0.2819,-0.4741,-0.5546,-0.3899,-0.2345,0.5074,-1.2294
1.2323,1.0782,0.9061,1.0161,0.6461,0.5681,0.0921,0.1502,-0.1356,-0.0831,-0.0631,-0.0991,-0.0454,0.3439,1.1657,1.3319,1.3173,1.0901,1.0832,1.0783,0.7753,0.6411,0.4513,-0.1676,-0.4419,-0.5463,-0.3393,-0.2251,0.5501,-1.2726
1.3592,1.1961,0.9693,1.119,0.7642,0.6602,0.2404,0.2311,-0.0265,0.0465,0.0023,-0.0647,0.1034,0.4851,1.3039,1.5033,1.4696,1.1657,1.279,1.2191,0.9057,0.8301,0.6503,-0.0401,-0.3985,-0.5249,-0.2797,-0.2024,0.5802,-1.2973
1.4573,1.2604,0.9974,1.1615,0.8289,0.7083,0.3575,0.2863,0.0571,0.1553,0.0594,-0.0273,0.2479,0.5977,1.3949,1.6074,1.5494,1.208,1.405,1.2959,0.991,0.9639,0.8011,0.0799,-0.3533,-0.4974,-0.2235,-0.174,0.5967,-1.29
1.5055,1.2587,0.9809,1.1339,0.829,0.7033,0.4306,0.3128,0.1103,0.2326,0.1039,0.007,0.3698,0.6667,1.4216,1.6272,1.5409,1.2069,1.4374,1.2945,1.0159,1.019,0.8817,0.175,-0.3151,-0.4702,-0.18,-0.146,0.6014,-1.2445
1.4924,1.1899,0.9175,1.0378,0.763,0.6431,0.4553,0.3129,0.1338,0.2751,0.1353,0.0347,0.4569,0.6857,1.3772,1.559,1.442,1.1571,1.3682,1.213,0.9759,0.9857,0.8817,0.2338,-0.2906,-0.4482,-0.1543,-0.1223,0.5976,-1.1644
1.4188,1.0635,0.813,0.8849,0.6383,0.5321,0.4342,0.2923,0.1324,0.2852,0.1556,0.0552,0.5037,0.6561,1.2665,1.4121,1.2639,1.0597,1.2047,1.0615,0.8767,0.8689,0.8037,0.2516,-0.2841,-0.4343,-0.1477,-0.1043,0.5895,-1.0618
1.2969,0.8965,0.6799,0.6936,0.4683,0.3795,0.3744,0.2574,0.1121,0.2684,0.1671,0.0693,0.51,0.5853,1.1041,1.206,1.0289,0.9221,0.9682,0.8589,0.7317,0.685,0.6607,0.2294,-0.297,-0.4304,-0.1588,-0.0924,0.5806,-0.9542
1.1468,0.709,0.5339,0.4844,0.2687,0.1972,0.2839,0.2129,0.0773,0.2297,0.1699,0.0774,0.4796,0.4837,0.911,0.9659,0.7658,0.7572,0.6883,0.6283,0.5585,0.4587,0.4733,0.1725,-0.3282,-0.437,-0.1849,-0.0865,0.5726,-0.8596
0.9919,0.5193,0.39,0.2755,0.0537,-0.0034,0.1692,0.1605,0.0296,0.1722,0.1621,0.0792,0.4175,0.3616,0.7103,0.7175,0.5042,0.5825,0.3971,0.3924,0.3741,0.2166,0.2645,0.0887,-0.3737,-0.4541,-0.2231,-0.0871,0.5653,-0.7923
0.8521,0.3398,0.2592,0.0783,-0.1663,-0.2135,0.0339,0.0993,-0.032,0.0964,0.1396,0.0732,0.3287,0.2276,0.5227,0.4822,0.2694,0.4165,0.1235,0.169,0.1924,-0.0165,0.0566,-0.0131,-0.4276,-0.4802,-0.2709,-0.0951,0.5571,-0.7601
0.7405,0.1755,0.1456,-0.1032,-0.3862,-0.4275,-0.1207,0.0273,-0.109,0.0015,0.0987,0.0578,0.2175,0.0866,0.3625,0.2742,0.0787,0.276,-0.1115,-0.0313,0.0216,-0.2219,-0.1322,-0.1242,-0.4826,-0.5124,-0.3255,-0.1115,0.5454,-0.763
0.6601,0.0241,0.0472,-0.2723,-0.6054,-0.6432,-0.2941,-0.0568,-0.2019,-0.1125,0.0375,0.0323,0.0872,-0.0591,0.2362,0.0989,-0.0609,0.1723,-0.2971,-0.2057,-0.1359,-0.3889,-0.2904,-0.2366,-0.5311,-0.5465,-0.3845,-0.1361,0.5278,-0.7935
0.6048,-0.1217,-0.0435,-0.4368,-0.8261,-0.8609,-0.4848,-0.1521,-0.3085,-0.243,-0.0416,-0.002,-0.0592,-0.2097,0.1416,-0.0465,-0.1522,0.1089,-0.433,-0.3579,-0.2822,-0.5148,-0.413,-0.3438,-0.5669,-0.5776,-0.445,-0.1675,0.503,-0.839
0.5622,-0.2709,-0.1359,-0.6062,-1.0512,-1.0812,-0.6885,-0.2548,-0.4228,-0.3839,-0.1326,-0.0418,-0.2184,-0.3658,0.0702,-0.1701,-0.206,0.0809,-0.5273,-0.4957,-0.4224,-0.6042,-0.5017,-0.4417,-0.5864,-0.6014,-0.5042,-0.2027,0.4716,-0.8858
0.5176,-0.4307,-0.2388,-0.7877,-1.2815,-1.3042,-0.898,-0.3591,-0.5364,-0.5259,-0.2258,-0.0824,-0.3862,-0.5271,0.0102,-0.2823,-0.2374,0.0765,-0.5929,-0.6273,-0.5615,-0.6661,-0.5626,-0.5283,-0.5898,-0.6157,-0.5601,-0.2379,0.4359,-0.9236
0.4585,-0.6035,-0.3577,-0.9835,-1.5141,-1.5272,-1.1026,-0.4578,-0.6392,-0.6575,-0.3102,-0.1187,-0.5569,-0.6912,-0.0502,-0.3922,-0.2622,0.0803,-0.6436,-0.7584,-0.7019,-0.7114,-0.6045,-0.6041,-0.5806,-0.6206,-0.6122,-0.2693,0.4001,-0.9482
0.3781,-0.7856,-0.4929,-1.189,-1.7417,-1.7445,-1.29,-0.5434,-0.7215,-0.767,-0.3754,-0.146,-0.7237,-0.8526,-0.1196,-0.5048,-0.294,0.0771,-0.6909,-0.8903,-0.8425,-0.7499,-0.6362,-0.6712,-0.5649,-0.619,-0.6611,-0.2939,0.3692,-0.9623
0.2758,-0.9671,-0.6389,-1.3932,-1.953,-1.9471,-1.4472,-0.6095,-0.7754,-0.8442,-0.4132,-0.1617,-0.8791,-1.0036,-0.2016,-0.6197,-0.3411,0.0558,-0.7418,-1.0192,-0.9781,-0.7887,-0.6645,-0.7324,-0.5494,-0.6152,-0.7088,-0.3101,0.3478,-0.9729
0.1576,-1.1339,-0.7858,-1.5808,-2.1345,-2.1246,-1.5631,-0.6513,-0.7963,-0.8827,-0.4196,-0.1653,-1.0154,-1.1354,-0.2944,-0.7312,-0.4062,0.0108,-0.798,-1.1374,-1.1007,-0.8304,-0.6934,-0.7902,-0.5399,-0.6141,-0.7577,-0.318,0.339,-0.9864
0.0338,-1.271,-0.9206,-1.7352,-2.2734,-2.2664,-1.6305,-0.6666,-0.7834,-0.8802,-0.3954,-0.1586,-1.1261,-1.2396,-0.3919,-0.8303,-0.4854,-0.0564,-0.8561,-1.2358,-1.2016,-0.8735,-0.723,-0.8458,-0.5398,-0.6192,-0.8095,-0.3193,0.3436,-1.0042
-0.0832,-1.3653,-1.0302,-1.8418,-2.3596,-2.3639,-1.6472,-0.6561,-0.7402,-0.8398,-0.3459,-0.1452,-1.2058,-1.3098,-0.4845,-0.9065,-0.5693,-0.1386,-0.9089,-1.3056,-1.2731,-0.9128,-0.7497,-0.8983,-0.5497,-0.632,-0.8639,-0.3163,0.3598,-1.0209
-0.1809,-1.4082,-1.104,-1.8908,-2.3873,-2.4116,-1.6159,-0.6236,-0.6739,-0.769,-0.2797,-0.1288,-1.2508,-1.3423,-0.5607,-0.9505,-0.6444,-0.2238,-0.9465,-1.3403,-1.3099,-0.9398,-0.7669,-0.9441,-0.5673,-0.6512,-0.9182,-0.3113,0.384,-1.0264
-0.2484,-1.3963,-1.135,-1.8781,-2.3556,-2.407,-1.5436,-0.5748,-0.5943,-0.6781,-0.2068,-0.1127,-1.2588,-1.336,-0.6092,-0.9555,-0.6956,-0.2972,-0.9585,-1.3368,-1.3096,-0.9455,-0.7663,-0.9773,-0.5883,-0.673,-0.9664,-0.3055,0.411,-1.0101
-0.2778,-1.3315,-1.1204,-1.8052,-2.2674,-2.3511,-1.4396,-0.5167,-0.5118,-0.5782,-0.1363,-0.0982,-1.2287,-1.2921,-0.6205,-0.9181,-0.7092,-0.3443,-0.936,-1.2943,-1.2726,-0.9215,-0.7406,-0.9905,-0.6071,-0.6918,-0.9999,-0.2984,0.4357,-0.9659
-0.2652,-1.2197,-1.0618,-1.678,-2.1292,-2.2478,-1.3134,-0.4561,-0.436,-0.4793,-0.0746,-0.0841,-1.1605,-1.2129,-0.5883,-0.8387,-0.6761,-0.3534,-0.8734,-1.2144,-1.2008,-0.8623,-0.6844,-0.976,-0.6186,-0.701,-1.0091,-0.288,0.4536,-0.8962
-0.2111,-1.0691,-0.964,-1.5057,-1.9492,-2.1033,-1.1736,-0.3984,-0.3738,-0.3886,-0.0248,-0.0678,-1.055,-1.1015,-0.5112,-0.7207,-0.5935,-0.3188,-0.7697,-1.0996,-1.097,-0.7664,-0.5967,-0.9271,-0.6185,-0.6948,-0.9851,-0.2707,0.4624,-0.8127
-0.1201,-0.8889,-0.8347,-1.299,-1.7366,-1.9261,-1.0268,-0.3469,-0.3289,-0.3097,0.0136,-0.0454,-0.915,-0.9611,-0.3928,-0.5698,-0.4656,-0.2424,-0.6284,-0.9528,-0.9639,-0.6363,-0.4809,-0.8396,-0.6044,-0.6685,-0.9217,-0.243,0.4621,-0.7349
-0.0002,-0.6887,-0.6828,-1.0688,-1.5006,-1.7255,-0.8778,-0.3026,-0.3013,-0.2433,0.0435,-0.0137,-0.7449,-0.7952,-0.2412,-0.3926,-0.302,-0.1327,-0.4561,-0.7769,-0.8038,-0.4775,-0.344,-0.7128,-0.5756,-0.6199,-0.8173,-0.2021,0.4549,-0.6858
0.1392,-0.4774,-0.5179,-0.8256,-1.2503,-1.511,-0.73,-0.2647,-0.2882,-0.1875,0.0688,0.0287,-0.5521,-0.6076,-0.0671,-0.1965,-0.1159,-0.0029,-0.2613,-0.5751,-0.6189,-0.2976,-0.1959,-0.5504,-0.5337,-0.5498,-0.6753,-0.1476,0.4447,-0.6869
0.2886,-0.2637,-0.3488,-0.5788,-0.9937,-1.2918,-0.5869,-0.2314,-0.2849,-0.1398,0.0936,0.081,-0.3463,-0.4033,0.1178,0.0116,0.0794,0.1328,-0.0523,-0.3513,-0.4119,-0.1052,-0.0469,-0.3605,-0.482,-0.462,-0.505,-0.0815,0.436,-0.7519
0.4406,-0.0556,-0.1835,-0.3365,-0.7383,-1.0757,-0.4521,-0.2005,-0.2858,-0.0978,0.1205,0.1401,-0.1391,-0.1886,0.3033,0.2249,0.2721,0.2627,0.1637,-0.1105,-0.1868,0.0918,0.0932,-0.155,-0.4255,-0.3633,-0.3199,-0.0084,0.4329,-0.8822
0.5896,0.1398,-0.0285,-0.105,-0.491,-0.8695,-0.3298,-0.1705,-0.2861,-0.0601,0.1507,0.2009,0.0568,0.0285,0.4816,0.4374,0.4539,0.3797,0.3808,0.1405,0.05,0.286,0.2168,0.0513,-0.3701,-0.2622,-0.1364,0.0653,0.4379,-1.0655
0.7324,0.3163,0.1111,0.1105,-0.2579,-0.6785,-0.2244,-0.1412,-0.2818,-0.0268,0.1834,0.2576,0.229,0.2388,0.6474,0.6438,0.62,0.4817,0.5945,0.3939,0.2904,0.4715,0.3193,0.2425,-0.3221,-0.1686,0.0289,0.1323,0.4518,-1.2782
0.8667,0.4694,0.2312,0.3066,-0.0439,-0.5062,-0.1399,-0.1135,-0.271,0.0007,0.2164,0.3042,0.3674,0.433,0.7979,0.8392,0.7687,0.5702,0.8009,0.6407,0.5246,0.6433,0.3998,0.4041,-0.2868,-0.0916,0.1613,0.1855,0.4732,-1.4908
0.9903,0.5966,0.3291,0.4815,0.1475,-0.3542,-0.0785,-0.0895,-0.2531,0.0207,0.2461,0.3358,0.4653,0.6024,0.9315,1.0196,0.8999,0.6485,0.9957,0.8726,0.743,0.7979,0.4599,0.5248,-0.2679,-0.0384,0.2505,0.219,0.4992,-1.6755
1.0999,0.6982,0.404,0.6349,0.3151,-0.2223,-0.0397,-0.0716,-0.2291,0.032,0.2689,0.3492,0.5207,0.7412,1.047,1.1821,1.0143,0.7193,1.1744,1.0825,0.9375,0.9325,0.5038,0.5985,-0.2666,-0.013,0.2922,0.2299,0.5257,-1.8122
1.1909,0.7768,0.4574,0.7684,0.4597,-0.108,-0.02,-0.0612,-0.2007,0.0349,0.2817,0.3437,0.537,0.847,1.1434,1.3251,1.1125,0.7834,1.3317,1.2659,1.1032,1.0456,0.536,0.6255,-0.2808,-0.0147,0.289,0.2181,0.549,-1.8925
1.2584,0.8374,0.4937,0.8845,0.5842,-0.0071,-0.0134,-0.0585,-0.1699,0.0316,0.283,0.3216,0.5224,0.9216,1.2197,1.4484,1.1951,0.8399,1.463,1.4214,1.239,1.1361,0.561,0.6119,-0.3058,-0.0383,0.2499,0.1879,0.5661,-1.9197
1.2984,0.8862,0.5194,0.9863,0.6924,0.0856,-0.0121,-0.0616,-0.1382,0.0258,0.2736,0.2877,0.4883,0.97,1.2756,1.5532,1.263,0.8867,1.5649,1.5504,1.3474,1.2038,0.5816,0.5687,-0.3345,-0.0748,0.1887,0.1465,0.5762,-1.9068
1.3087,0.929,0.5415,1.0762,0.7875,0.1747,-0.009,-0.0673,-0.1067,0.0221,0.2553,0.2485,0.4467,0.9991,1.3114,1.6412,1.3176,0.9213,1.6363,1.656,1.4326,1.2493,0.5995,0.5092,-0.3595,-0.1131,0.1212,0.1028,0.58,-1.8721
1.2899,0.9694,0.5659,1.1548,0.8706,0.2633,0.0008,-0.0715,-0.0769,0.024,0.2313,0.2101,0.4074,1.0151,1.3281,1.7132,1.3595,0.9418,1.6779,1.741,1.499,1.2734,0.6145,0.446,-0.3743,-0.1432,0.0617,0.0653,0.5796,-1.8344
1.2447,1.0072,0.5953,1.2203,0.9399,0.3511,0.0181,-0.0713,-0.0507,0.0323,0.2037,0.1767,0.3761,1.0215,1.3263,1.7676,1.3885,0.9469,1.6913,1.8059,1.5484,1.2767,0.6251,0.3883,-0.3754,-0.1585,0.0196,0.0393,0.577,-1.808
1.1776,1.0379,0.6287,1.2677,0.9906,0.435,0.0391,-0.0654,-0.031,0.0445,0.1735,0.1498,0.3528,1.018,1.3058,1.7992,1.4023,0.936,1.6784,1.8474,1.579,1.2592,0.6289,0.3403,-0.3628,-0.1576,-0.0021,0.0261,0.5737,-1.7989
1.093,1.053,0.6614,1.2906,1.0163,0.5093,0.057,-0.055,-0.0211,0.0551,0.1405,0.1277,0.3328,1.0004,1.265,1.7999,1.3966,0.9088,1.6401,1.8588,1.5854,1.2206,0.623,0.3012,-0.3402,-0.1441,-0.0067,0.0224,0.5695,-1.8042
0.9949,1.0422,0.6873,1.2823,1.011,0.5678,0.0631,-0.043,-0.024,0.0565,0.1031,0.1067,0.3087,0.9626,1.2015,1.7602,1.3661,0.8651,1.5761,1.8309,1.5605,1.1603,0.6041,0.2658,-0.3138,-0.1255,-0.0021,0.0222,0.563,-1.8136
0.8865,0.9957,0.7005,1.2379,0.9704,0.6053,0.0499,-0.0328,-0.0418,0.0414,0.0602,0.0826,0.2725,0.8983,1.1126,1.6711,1.3055,0.8045,1.4857,1.7552,1.4973,1.0783,0.5698,0.2275,-0.2904,-0.1107,0.0024,0.0184,0.5522,-1.8129
0.7703,0.9067,0.6976,1.1556,0.894,0.6191,0.0129,-0.0278,-0.0747,0.0046,0.0109,0.0518,0.2184,0.8038,0.997,1.5273,1.2113,0.7272,1.3682,1.6262,1.3919,0.9758,0.5189,0.1801,-0.2765,-0.1072,-0.0018,0.0051,0.5348,-1.7889
0.648,0.7736,0.6779,1.0379,0.785,0.6099,-0.0488,-0.03,-0.121,-0.0556,-0.0443,0.0123,0.1439,0.6785,0.8551,1.3285,1.0829,0.634,1.2247,1.4436,1.2445,0.8551,0.4519,0.1193,-0.2758,-0.12,-0.0203,-0.0211,0.5094,-1.7329
0.5213,0.6005,0.6436,0.8907,0.6496,0.5815,-0.1322,-0.0396,-0.1777,-0.1372,-0.1044,-0.0361,0.0498,0.5261,0.69,1.0812,0.9238,0.527,1.0582,1.2136,1.0605,0.7198,0.3709,0.0439,-0.2894,-0.1502,-0.055,-0.0609,0.4756,-1.6428
0.3913,0.3972,0.5986,0.7232,0.4968,0.5401,-0.2315,-0.0554,-0.241,-0.2351,-0.1682,-0.092,-0.0597,0.3534,0.5076,0.7981,0.7416,0.4098,0.8748,0.9487,0.8499,0.5743,0.2798,-0.0446,-0.3152,-0.1953,-0.1043,-0.1123,0.4348,-1.5233
0.2596,0.178,0.5479,0.5463,0.3361,0.4927,-0.3393,-0.0753,-0.3071,-0.342,-0.2343,-0.1531,-0.1789,0.1697,0.3162,0.4967,0.5473,0.2877,0.6826,0.6659,0.6256,0.4242,0.1837,-0.1422,-0.3486,-0.25,-0.1638,-0.1714,0.3897,-1.3849
