FP1,F3,F7,FC3,C3,C5,P3,P7,PO7,PO3,O1,Oz,Pz,CPz,FP2,Fz,F4,F8,FC4,FCz,Cz,C4,C6,P4,P8,PO8,PO4,O2,(corr) HEOG,(corr) VEOG
0.0247,-0.9906,-0.209,-0.2102,0.3067,-2.0585,-0.477,-0.0303,-0.778,-0.8764,-0.6284,-0.034,-0.3424,-1.2854,-0.3635,-0.9198,-2.5025,-0.2732,-2.1483,-0.6367,-0.1096,-0.8516,-0.5089,0.0575,0.1062,0.5196,0.9372,-0.1258,0.4545,-1.0877
-0.4683,-1.0705,-0.7767,-0.4552,0.038,-1.9552,-0.3627,0.1478,-0.5656,-0.7163,-0.2547,0.323,-0.3892,-1.3278,-0.6492,-1.1743,-2.3567,-0.8697,-2.1097,-0.9905,-0.4413,-0.9205,-0.5704,-0.0067,0.0667,0.4838,0.7723,0.1134,0.384,-1.0888
-0.8917,-1.125,-1.2394,-0.6521,-0.1817,-1.8352,-0.2602,0.3212,-0.3653,-0.5681,0.0875,0.6412,-0.4372,-1.3688,-0.91,-1.3951,-2.2177,-1.3977,-2.0643,-1.2966,-0.7293,-0.9748,-0.6186,-0.07,0.0073,0.4258,0.6056,0.3145,0.3337,-1.0712
-1.1939,-1.136,-1.5202,-0.7662,-0.323,-1.6937,-0.1832,0.4799,-0.192,-0.4471,0.3668,0.8842,-0.4918,-1.4073,-1.1147,-1.5501,-2.0808,-1.8024,-2.0001,-1.5142,-0.9396,-1.0001,-0.6408,-0.1331,-0.0838,0.329,0.4343,0.4431,0.3145,-1.0283
-1.3508,-1.0955,-1.579,-0.7814,-0.375,-1.5339,-0.1455,0.6115,-0.0614,-0.3705,0.5574,1.0249,-0.562,-1.4434,-1.2412,-1.6174,-1.9381,-2.0533,-1.9099,-1.6183,-1.0538,-0.9899,-0.6336,-0.2022,-0.2121,0.1856,0.2526,0.4751,0.331,-0.9596
-1.3692,-1.0071,-1.4205,-0.7036,-0.3467,-1.367,-0.159,0.702,0.0117,-0.3551,0.6407,1.047,-0.6591,-1.4787,-1.2803,-1.5886,-1.7788,-2.1467,-1.7915,-1.6033,-1.0718,-0.9466,-0.6024,-0.2886,-0.3749,-0.0023,0.0522,0.3996,0.379,-0.8706
-1.2822,-0.8858,-1.0915,-0.5582,-0.2654,-1.2094,-0.2316,0.7389,0.016,-0.4145,0.6066,0.9459,-0.7942,-1.515,-1.2358,-1.4699,-1.5918,-2.1028,-1.6471,-1.4835,-1.0104,-0.8795,-0.5582,-0.4058,-0.5624,-0.225,-0.1753,0.2188,0.4476,-0.7721
-1.1381,-0.7536,-0.6695,-0.3839,-0.1694,-1.0791,-0.3644,0.7138,-0.0528,-0.5547,0.4555,0.7279,-0.9742,-1.5536,-1.1226,-1.2806,-1.3689,-1.9562,-1.4817,-1.2887,-0.8981,-0.8018,-0.5135,-0.5637,-0.7582,-0.4674,-0.4351,-0.0532,0.5206,-0.6774
-0.9871,-0.6347,-0.2431,-0.2233,-0.0986,-0.9915,-0.5498,0.625,-0.1902,-0.7704,0.1985,0.4097,-1.197,-1.5935,-0.9628,-1.0491,-1.1087,-1.7461,-1.3011,-1.0572,-0.7673,-0.7259,-0.4774,-0.7641,-0.9424,-0.7121,-0.7249,-0.3927,0.5807,-0.5993
-0.8682,-0.5491,0.1067,-0.1126,-0.0853,-0.9558,-0.7715,0.4772,-0.3827,-1.0441,-0.1424,0.0164,-1.4499,-1.6312,-0.7821,-0.807,-0.8185,-1.5066,-1.1119,-0.8273,-0.6476,-0.6612,-0.4536,-0.9966,-1.0938,-0.9412,-1.0323,-0.7684,0.6127,-0.546
-0.8002,-0.5077,0.3233,-0.0742,-0.1454,-0.9731,-1.0056,0.2816,-0.6091,-1.3467,-0.5367,-0.4202,-1.709,-1.6598,-0.6055,-0.5835,-0.5158,-1.2617,-0.9213,-0.6299,-0.5591,-0.6123,-0.4403,-1.2384,-1.1935,-1.1375,-1.3351,-1.1453,0.607,-0.5197
-0.7797,-0.5098,0.3829,-0.1106,-0.274,-1.0335,-1.2235,0.0548,-0.8433,-1.6416,-0.948,-0.864,-1.9424,-1.6698,-0.4539,-0.4006,-0.2266,-1.0237,-0.7378,-0.4833,-0.5099,-0.5797,-0.4322,-1.4575,-1.2274,-1.2858,-1.604,-1.4876,0.5612,-0.5158
-0.786,-0.5429,0.2966,-0.2053,-0.4449,-1.1151,-1.3951,-0.182,-1.0576,-1.8892,-1.338,-1.2787,-2.1151,-1.65,-0.3405,-0.2702,0.0184,-0.7948,-0.5721,-0.391,-0.4953,-0.5615,-0.4236,-1.6195,-1.1902,-1.3741,-1.8082,-1.7638,0.4809,-0.5257
-0.7913,-0.587,0.1034,-0.3266,-0.6153,-1.1853,-1.4928,-0.404,-1.2257,-2.053,-1.6709,-1.6311,-2.1955,-1.5893,-0.2696,-0.1945,0.1896,-0.5725,-0.4362,-0.3438,-0.5012,-0.5552,-0.4113,-1.6952,-1.0867,-1.3957,-1.9216,-1.9501,0.3779,-0.5416
-0.7719,-0.6191,-0.1399,-0.4361,-0.7352,-1.2051,-1.4957,-0.5851,-1.3263,-2.1046,-1.9171,-1.895,-2.1614,-1.4799,-0.2354,-0.1669,0.2647,-0.3555,-0.3415,-0.3243,-0.5081,-0.5592,-0.3967,-1.6672,-0.9318,-1.35,-1.9285,-2.0339,0.268,-0.5597
-0.717,-0.6191,-0.3731,-0.4977,-0.7594,-1.1362,-1.3922,-0.7007,-1.3452,-2.0279,-2.0564,-2.0537,-2.0044,-1.3187,-0.2243,-0.1751,0.2353,-0.1496,-0.2958,-0.3121,-0.4975,-0.5722,-0.3847,-1.5336,-0.7482,-1.2433,-1.8261,-2.0155,0.1667,-0.5824
-0.6311,-0.5743,-0.5446,-0.4862,-0.6588,-0.9505,-1.1836,-0.7321,-1.278,-1.821,-2.0799,-2.1014,-1.7321,-1.1092,-0.219,-0.2037,0.1108,0.0294,-0.2997,-0.2893,-0.4558,-0.5923,-0.3822,-1.3082,-0.5612,-1.0872,-1.6249,-1.9064,0.0866,-0.615
-0.5307,-0.4808,-0.6206,-0.3926,-0.4292,-0.6377,-0.8843,-0.67,-1.1298,-1.4972,-1.99,-2.0417,-1.367,-0.8612,-0.2062,-0.2367,-0.0822,0.1573,-0.3451,-0.2448,-0.3778,-0.6158,-0.3942,-1.0163,-0.3938,-0.8971,-1.3463,-1.726,0.0343,-0.6604
-0.4362,-0.344,-0.5888,-0.2251,-0.0935,-0.2108,-0.5212,-0.5175,-0.9152,-1.0827,-1.799,-1.8863,-0.9429,-0.589,-0.1832,-0.2599,-0.3042,0.208,-0.4158,-0.1752,-0.267,-0.6358,-0.421,-0.6895,-0.2609,-0.6884,-1.0174,-1.4967,0.0098,-0.7121
-0.3617,-0.177,-0.4569,-0.0073,0.3018,0.2938,-0.1306,-0.2916,-0.6551,-0.6135,-1.5271,-1.6516,-0.4989,-0.309,-0.1603,-0.2626,-0.5119,0.1644,-0.4905,-0.0855,-0.1346,-0.6427,-0.4572,-0.3592,-0.1668,-0.4746,-0.6669,-1.2385,0.0083,-0.7511
-0.3081,0.0016,-0.247,0.2276,0.6953,0.8217,0.2465,-0.0214,-0.3748,-0.1311,-1.1991,-1.3566,-0.0739,-0.0372,-0.1583,-0.2389,-0.668,0.0267,-0.5476,0.0138,0.0043,-0.6253,-0.4919,-0.0512,-0.106,-0.2663,-0.3208,-0.967,0.0218,-0.748
-0.2613,0.1708,0.0128,0.4432,1.0237,1.3096,0.5706,0.2554,-0.1,0.3228,-0.8419,-1.0214,0.2994,0.2132,-0.1994,-0.1886,-0.7498,-0.1822,-0.569,0.1092,0.1339,-0.5736,-0.5113,0.2161,-0.0663,-0.0718,-0.0003,-0.6925,0.0425,-0.6716
-0.1967,0.3105,0.2953,0.6078,1.2347,1.6981,0.8101,0.4991,0.1466,0.7115,-0.4818,-0.6666,0.5981,0.4328,-0.2971,-0.117,-0.7529,-0.42,-0.5443,0.1884,0.2421,-0.481,-0.5023,0.4323,-0.0347,0.1011,0.2784,-0.4217,0.065,-0.4998
-0.0897,0.406,0.5789,0.7014,1.299,1.9442,0.9468,0.6754,0.3474,1.0081,-0.1429,-0.3126,0.8119,0.6165,-0.4463,-0.0336,-0.6902,-0.6346,-0.4712,0.2435,0.3233,-0.3463,-0.4558,0.593,-0.0024,0.2439,0.5039,-0.1604,0.0874,-0.2306
0.0742,0.4523,0.8491,0.7201,1.2167,2.0321,0.9789,0.762,0.4929,1.1991,0.1549,0.0209,0.9425,0.7641,-0.6203,0.0504,-0.585,-0.7765,-0.3548,0.2735,0.38,-0.1746,-0.3701,0.698,0.033,0.3477,0.6694,0.0849,0.1098,0.1126
0.2908,0.4559,1.0957,0.6771,1.0181,1.9762,0.9215,0.7532,0.5815,1.2856,0.3971,0.3161,1.0023,0.8792,-0.7749,0.1248,-0.4622,-0.8113,-0.2055,0.2845,0.4214,0.0239,-0.2504,0.7501,0.0676,0.4053,0.7728,0.3065,0.1334,0.4838
0.5354,0.4343,1.309,0.599,0.7559,1.8177,0.8034,0.6607,0.6197,1.2826,0.5754,0.5583,1.0107,0.9678,-0.86,0.1825,-0.3404,-0.7272,-0.0348,0.2879,0.4607,0.2352,-0.1076,0.7546,0.0943,0.4135,0.8166,0.4957,0.1579,0.8231
0.7669,0.4108,1.476,0.5177,0.493,1.6134,0.6609,0.511,0.6194,1.2156,0.6884,0.7375,0.9907,1.0373,-0.8355,0.2198,-0.2274,-0.5362,0.1464,0.2964,0.5105,0.4446,0.0451,0.7199,0.1067,0.3753,0.8083,0.6448,0.1804,1.0714
0.9384,0.407,1.5789,0.4607,0.2868,1.4206,0.5314,0.3387,0.5954,1.1167,0.741,0.85,0.9641,1.0945,-0.6857,0.2359,-0.1203,-0.2704,0.3302,0.3192,0.5784,0.6396,0.1963,0.6579,0.1031,0.3006,0.7596,0.748,0.1957,1.1838
1.0082,0.4351,1.5974,0.4429,0.1759,1.2828,0.4461,0.1793,0.5625,1.0181,0.7435,0.8978,0.949,1.1445,-0.4279,0.2322,-0.0093,0.0262,0.5124,0.3593,0.6638,0.8118,0.3389,0.5842,0.0888,0.2054,0.6856,0.8032,0.1971,1.1407
0.9517,0.493,1.5139,0.4617,0.1706,1.2195,0.4244,0.0614,0.5334,0.9476,0.7101,0.8885,0.9564,1.19,-0.1097,0.2103,0.1164,0.3088,0.691,0.4114,0.7571,0.9584,0.4716,0.5178,0.0759,0.109,0.6033,0.812,0.1784,0.9506
0.7678,0.5635,1.32,0.4974,0.2515,1.2226,0.4711,0.0016,0.5169,0.923,0.656,0.8329,0.99,1.2304,0.2035,0.1719,0.2612,0.5425,0.8637,0.4637,0.8417,1.0805,0.5981,0.4778,0.0812,0.0312,0.5288,0.7793,0.1357,0.6476
0.4814,0.6189,1.0227,0.5193,0.3749,1.2606,0.5763,0.0013,0.5172,0.9498,0.596,0.7435,1.0461,1.2632,0.4478,0.1191,0.4199,0.7099,1.0259,0.5004,0.8979,1.1816,0.7243,0.4807,0.1216,-0.0119,0.4754,0.7124,0.068,0.2829
0.139,0.6292,0.6454,0.4946,0.4853,1.2893,0.718,0.0488,0.5347,1.0209,0.5422,0.633,1.1151,1.2843,0.5783,0.0549,0.5768,0.8114,1.1687,0.507,0.9085,1.2645,0.8549,0.5362,0.2094,-0.0101,0.4518,0.6209,-0.0217,-0.0847
-0.1994,0.5728,0.2254,0.3997,0.5301,1.2653,0.8674,0.1225,0.5663,1.1188,0.5039,0.5141,1.1848,1.29,0.5807,-0.0147,0.7111,0.8608,1.2804,0.4752,0.8633,1.329,0.9902,0.6452,0.3478,0.0401,0.4616,0.5168,-0.1277,-0.3978
-0.4724,0.4441,-0.1919,0.2283,0.474,1.1588,0.9956,0.197,0.6072,1.2204,0.4873,0.3995,1.243,1.2786,0.4729,-0.0798,0.8045,0.8777,1.3498,0.4058,0.7627,1.3717,1.1243,0.7977,0.5291,0.1353,0.5037,0.4149,-0.2423,-0.6081
-0.6288,0.2583,-0.56,-0.0043,0.3083,0.9626,1.0789,0.2492,0.6516,1.3018,0.496,0.3023,1.2803,1.2507,0.2989,-0.1258,0.8492,0.8804,1.3704,0.3112,0.6188,1.3873,1.2456,0.9746,0.735,0.2669,0.5729,0.3324,-0.3567,-0.6832
-0.6377,0.0489,-0.8386,-0.2628,0.0532,0.6936,1.1031,0.2622,0.6944,1.3437,0.5312,0.2348,1.2914,1.2097,0.1169,-0.1347,0.8518,0.8828,1.3444,0.2134,0.4532,1.3704,1.3386,1.1505,0.9402,0.4223,0.6606,0.286,-0.4628,-0.6106
-0.492,-0.1388,-0.9992,-0.4995,-0.2471,0.3884,1.065,0.2283,0.7314,1.3345,0.5915,0.207,1.2755,1.1605,-0.0138,-0.0877,0.8334,0.8946,1.2835,0.1403,0.2934,1.3183,1.3869,1.2978,1.1165,0.5863,0.7558,0.2897,-0.553,-0.4001
-0.2088,-0.2586,-1.0288,-0.6652,-0.5358,0.0933,0.9716,0.1491,0.7588,1.2716,0.6721,0.2237,1.2349,1.1087,-0.0457,0.0305,0.8232,0.923,1.2069,0.1193,0.1663,1.2317,1.3765,1.3909,1.2383,0.7424,0.8457,0.3507,-0.6217,-0.0815
0.1762,-0.2747,-0.9306,-0.7217,-0.7576,-0.1474,0.8361,0.0337,0.7728,1.1602,0.7644,0.2826,1.1734,1.0583,0.0472,0.2267,0.8502,0.9752,1.1367,0.1703,0.0921,1.115,1.2986,1.4105,1.287,0.8738,0.9159,0.4664,-0.6654,0.3016
0.615,-0.1719,-0.7235,-0.6516,-0.8721,-0.3031,0.6745,-0.1045,0.7686,1.0104,0.8559,0.3729,1.0938,1.0106,0.2656,0.4943,0.9337,1.0577,1.0913,0.2989,0.0793,0.9738,1.1517,1.3456,1.2539,0.9651,0.9517,0.6236,-0.6826,0.6995
1.0543,0.0394,-0.4395,-0.4649,-0.8639,-0.3632,0.5002,-0.2513,0.7404,0.8335,0.9311,0.4763,0.9969,0.9638,0.5853,0.8112,1.0761,1.1741,1.0795,0.4931,0.1217,0.8132,0.9421,1.1948,1.1414,1.0034,0.9397,0.7994,-0.6743,1.0655
1.4437,0.3239,-0.119,-0.1972,-0.7451,-0.3388,0.3212,-0.3947,0.683,0.6389,0.9738,0.5701,0.8809,0.9131,0.9647,1.1414,1.2609,1.3201,1.0981,0.724,0.1999,0.6362,0.6832,0.9661,0.9624,0.9801,0.87,0.9651,-0.6439,1.362
1.7431,0.6283,0.1934,0.0977,-0.5514,-0.2586,0.1403,-0.5266,0.593,0.4332,0.9698,0.6313,0.743,0.8529,1.3542,1.4409,1.4563,1.48,1.1328,0.9519,0.2857,0.4444,0.3935,0.6762,0.7381,0.8925,0.7384,1.0912,-0.5972,1.5661
1.9293,0.8946,0.4563,0.3611,-0.332,-0.1604,-0.0441,-0.6427,0.4705,0.2202,0.9103,0.641,0.5807,0.7791,1.7068,1.6678,1.6236,1.6258,1.1636,1.1356,0.3494,0.2399,0.0951,0.3479,0.4951,0.7443,0.5485,1.1528,-0.5417,1.6712
1.9997,1.0743,0.6375,0.5439,-0.1369,-0.0812,-0.2336,-0.7419,0.32,0.0027,0.7931,0.5876,0.3942,0.6904,1.986,1.7928,1.7291,1.7229,1.1724,1.2436,0.3675,0.0285,-0.1888,0.0077,0.2604,0.5454,0.3111,1.1342,-0.486,1.6867
1.9715,1.1407,0.7195,0.6186,-0.0044,-0.0475,-0.4271,-0.8244,0.1498,-0.2151,0.6231,0.4679,0.1867,0.589,2.1701,1.8073,1.7541,1.7392,1.1502,1.262,0.3289,-0.1786,-0.4346,-0.3181,0.0578,0.31,0.043,1.031,-0.438,1.6331
1.8759,1.0959,0.7002,0.5851,0.0465,-0.0702,-0.6189,-0.8902,-0.0284,-0.4272,0.4116,0.2878,-0.0355,0.4793,2.2518,1.7265,1.7012,1.6573,1.1015,1.1978,0.2366,-0.364,-0.6208,-0.6074,-0.097,0.0553,-0.2368,0.8509,-0.4043,1.5357
1.7475,0.9697,0.5918,0.4693,0.0178,-0.1431,-0.7992,-0.9383,-0.2011,-0.6252,0.175,0.0607,-0.2644,0.3659,2.2361,1.5849,1.5927,1.4823,1.0427,1.076,0.1061,-0.508,-0.7306,-0.8462,-0.1983,-0.2013,-0.5104,0.611,-0.3884,1.4167
1.615,0.8099,0.4171,0.3146,-0.0702,-0.2459,-0.9555,-0.9653,-0.3538,-0.7995,-0.0681,-0.1951,-0.4932,0.251,2.1372,1.4271,1.4644,1.243,0.9965,0.9308,-0.0408,-0.594,-0.7554,-1.0302,-0.2517,-0.4445,-0.764,0.3347,-0.3899,1.2905
1.4945,0.6688,0.2055,0.1682,-0.1878,-0.3509,-1.0764,-0.9659,-0.4725,-0.9408,-0.2991,-0.4592,-0.7172,0.1334,1.977,1.294,1.3532,0.9851,0.9832,0.7946,-0.1832,-0.6149,-0.6978,-1.1658,-0.2721,-0.6624,-0.9901,0.0473,-0.4051,1.1621
1.3889,0.5878,-0.0102,0.0682,-0.304,-0.4309,-1.1541,-0.9339,-0.5449,-1.0419,-0.5016,-0.7126,-0.9355,0.008,1.7837,1.2122,1.286,0.7582,1.0124,0.6882,-0.308,-0.5768,-0.5738,-1.2673,-0.2806,-0.8485,-1.1867,-0.2276,-0.4269,1.0306
1.2928,0.5855,-0.1979,0.033,-0.3952,-0.4658,-1.1865,-0.8643,-0.562,-1.099,-0.6632,-0.9395,-1.1503,-0.1324,1.5902,1.1874,1.2711,0.602,1.0779,0.6156,-0.4132,-0.4998,-0.4115,-1.3529,-0.2994,-1.001,-1.3568,-0.4715,-0.4469,0.8944
1.1999,0.6541,-0.3296,0.0586,-0.4495,-0.4474,-1.1779,-0.7558,-0.5196,-1.1133,-0.7769,-1.1293,-1.3648,-0.2947,1.4313,1.2055,1.2964,0.5367,1.1584,0.5653,-0.5069,-0.4138,-0.2464,-1.4395,-0.3466,-1.123,-1.5058,-0.6726,-0.4572,0.7567
1.1114,0.7641,-0.3843,0.1223,-0.4678,-0.38,-1.1383,-0.6129,-0.42,-1.0913,-0.8413,-1.277,-1.5813,-0.4821,1.3383,1.2409,1.335,0.5605,1.2234,0.5168,-0.6031,-0.3513,-0.1142,-1.5383,-0.432,-1.2212,-1.6398,-0.8271,-0.4526,0.6291
1.0404,0.8753,-0.3507,0.1927,-0.4612,-0.2779,-1.0818,-0.4466,-0.2724,-1.045,-0.8613,-1.383,-1.7984,-0.6927,1.3323,1.2672,1.3551,0.6538,1.2426,0.4498,-0.7151,-0.339,-0.0424,-1.6524,-0.5558,-1.305,-1.7645,-0.9391,-0.4314,0.5318
1.0114,0.9513,-0.2284,0.2409,-0.4458,-0.1605,-1.0234,-0.2736,-0.0927,-0.99,-0.8463,-1.4521,-2.01,-0.9181,1.4196,1.2685,1.3325,0.7869,1.1958,0.3532,-0.8498,-0.391,-0.0435,-1.7762,-0.7092,-1.3854,-1.8842,-1.0187,-0.3954,0.4908
1.0552,0.9715,-0.0286,0.2509,-0.4372,-0.0466,-0.9767,-0.1127,0.098,-0.943,-0.8086,-1.4915,-2.2052,-1.1446,1.589,1.2446,1.2592,0.9286,1.0786,0.2293,-1.0039,-0.506,-0.1125,-1.8977,-0.8781,-1.4733,-2.0007,-1.0796,-0.3495,0.532
1.1983,0.9366,0.2255,0.2241,-0.4462,0.0505,-0.9505,0.0194,0.2771,-0.9172,-0.7603,-1.5084,-2.3693,-1.3549,1.8142,1.2111,1.1473,1.0533,0.9045,0.0944,-1.1639,-0.6681,-0.2292,-2.0018,-1.0477,-1.5772,-2.1132,-1.1344,-0.3001,0.6732
1.4528,0.8684,0.5008,0.1773,-0.476,0.125,-0.9474,0.1121,0.4246,-0.9184,-0.7109,-1.5085,-2.4868,-1.5315,2.0606,1.1938,1.0256,1.1446,0.7011,-0.0261,-1.3097,-0.8518,-0.3638,-2.0741,-1.2056,-1.7001,-2.2168,-1.191,-0.2542,0.9159
1.808,0.8017,0.7593,0.1371,-0.5221,0.1782,-0.9627,0.1642,0.5281,-0.9429,-0.6649,-1.4946,-2.544,-1.6589,2.2929,1.22,0.9298,1.1965,0.5025,-0.1049,-1.4196,-1.0288,-0.4859,-2.1046,-1.3444,-1.838,-2.303,-1.2495,-0.2176,1.2412
2.2286,0.7744,0.9656,0.1305,-0.5732,0.217,-0.9849,0.184,0.5859,-0.9764,-0.6212,-1.4676,-2.532,-1.727,2.4823,1.3092,0.8917,1.2114,0.3409,-0.1192,-1.4762,-1.1744,-0.5717,-2.0896,-1.4611,-1.9783,-2.3609,-1.3016,-0.1939,1.6103
2.6602,0.8163,1.0951,0.177,-0.6154,0.2494,-0.9981,0.1871,0.6081,-0.9975,-0.5743,-1.4278,-2.4493,-1.7332,2.6111,1.4675,0.9285,1.1974,0.239,-0.0574,-1.4706,-1.2723,-0.6098,-2.0321,-1.5545,-2.1012,-2.3788,-1.3334,-0.1836,1.9706
3.0397,0.9406,1.1391,0.2826,-0.6366,0.2812,-0.9862,0.1927,0.6147,-0.9825,-0.5173,-1.3783,-2.3032,-1.6837,2.6731,1.6845,1.0361,1.165,0.2046,0.0786,-1.4053,-1.3178,-0.603,-1.9416,-1.6224,-2.1826,-2.3479,-1.3299,-0.1847,2.2667
3.3094,1.1389,1.1052,0.4368,-0.6319,0.3111,-0.9385,0.2177,0.6309,-0.9127,-0.445,-1.3266,-2.1117,-1.5948,2.6709,1.9343,1.1874,1.1225,0.228,0.2719,-1.2948,-1.3182,-0.567,-1.833,-1.6596,-2.1992,-2.2659,-1.2806,-0.1932,2.4533
3.4289,1.3809,1.0126,0.6135,-0.6074,0.3285,-0.8548,0.2717,0.6798,-0.7807,-0.3569,-1.2861,-1.9029,-1.4928,2.6112,2.1793,1.3369,1.0731,0.2824,0.4926,-1.1647,-1.2932,-0.5271,-1.7258,-1.6582,-2.1338,-2.1393,-1.184,-0.2046,2.5064
3.3824,1.6185,0.8827,0.7746,-0.5811,0.3134,-0.7481,0.3547,0.777,-0.5934,-0.2576,-1.2727,-1.7135,-1.4118,2.4998,2.3747,1.4287,1.0124,0.3284,0.7012,-1.0492,-1.2721,-0.514,-1.6429,-1.6096,-1.9795,-1.9845,-1.0481,-0.215,2.4292
3.1794,1.7933,0.7289,0.8767,-0.581,0.2402,-0.6435,0.4567,0.9262,-0.3717,-0.1551,-1.3002,-1.5841,-1.3894,2.3383,2.4755,1.4082,0.9279,0.3202,0.8529,-0.9867,-1.2908,-0.559,-1.6077,-1.5076,-1.7409,-1.8237,-0.8875,-0.2224,2.2504
2.8489,1.8482,0.5495,0.8788,-0.6384,0.0844,-0.572,0.5615,1.1191,-0.1448,-0.0567,-1.3735,-1.5515,-1.4595,2.123,2.4435,1.2346,0.8024,0.2155,0.9048,-1.0133,-1.3843,-0.6878,-1.6391,-1.3505,-1.4313,-1.679,-0.7169,-0.2276,2.0161
2.4308,1.7394,0.3263,0.7514,-0.7796,-0.1702,-0.5616,0.651,1.3374,0.0579,0.0351,-1.4827,-1.6394,-1.6443,1.8478,2.2552,0.8917,0.6193,-0.0149,0.8236,-1.1557,-1.5795,-0.9157,-1.7443,-1.1409,-1.0673,-1.5629,-0.5437,-0.2341,1.7772
1.9675,1.4479,0.031,0.4845,-1.0176,-0.5244,-0.6276,0.7102,1.558,0.2155,0.1258,-1.5996,-1.8493,-1.9462,1.5082,1.9087,0.3945,0.3692,-0.3771,0.5939,-1.4233,-1.8851,-1.2413,-1.9116,-0.8841,-0.6621,-1.4704,-0.3627,-0.2485,1.5767
1.4979,0.9877,-0.3612,0.093,-1.3445,-0.96,-0.7646,0.7292,1.7568,0.3231,0.2305,-1.6775,-2.1536,-2.3415,1.1088,1.4289,-0.2098,0.0552,-0.8487,0.2253,-1.8009,-2.2844,-1.6434,-2.1056,-0.585,-0.2187,-1.3744,-0.1526,-0.2792,1.4394
1.0547,0.4077,-0.8567,-0.3815,-1.729,-1.4397,-0.9429,0.7033,1.9128,0.3949,0.3729,-1.6567,-2.4943,-2.7793,0.6686,0.8672,-0.8474,-0.3031,-1.3778,-0.2439,-2.2464,-2.7319,-2.08,-2.2673,-0.2452,0.2715,-1.2258,0.122,-0.335,1.3668
0.6657,-0.2144,-1.4316,-0.875,-2.1184,-1.9108,-1.1112,0.6312,2.0093,0.4628,0.5808,-1.4732,-2.788,-3.1848,0.2249,0.2965,-1.4304,-0.6711,-1.889,-0.7492,-2.6917,-3.1561,-2.4919,-2.3208,0.1376,0.8272,-0.9616,0.5045,-0.4227,1.3373
0.3563,-0.7838,-2.0267,-1.3097,-2.4451,-2.3131,-1.2039,0.5118,2.0337,0.5701,0.8794,-1.072,-2.938,-3.4692,-0.1684,-0.1995,-1.8717,-1.0025,-2.2946,-1.2073,-3.0515,-3.47,-2.81,-2.187,0.5674,1.4682,-0.5182,1.0351,-0.545,1.313
0.1519,-1.2056,-2.5545,-1.6059,-2.6374,-2.5879,-1.1544,0.3423,1.976,0.7606,1.2831,-0.4216,-2.8521,-3.5439,-0.4472,-0.5397,-2.1008,-1.2462,-2.5103,-1.529,-3.2362,-3.5857,-2.9672,-1.8015,1.0444,2.2037,0.1498,1.7378,-0.6986,1.2486
0.0785,-1.4013,-2.9142,-1.6962,-2.6326,-2.6882,-0.9102,0.1175,1.8269,1.0667,1.787,0.4735,-2.4626,-3.3373,-0.5483,-0.6593,-2.0753,-1.3533,-2.4709,-1.6344,-3.1682,-3.4337,-2.91,-1.1339,1.5586,3.0201,1.0531,2.6071,-0.8735,1.1041
0.1599,-1.3236,-3.0141,-1.5381,-2.3899,-2.5882,-0.4477,-0.1689,1.5774,1.4967,2.3626,1.5662,-1.7447,-2.8118,-0.4232,-0.5211,-1.7876,-1.284,-2.1445,-1.4681,-2.7988,-2.9787,-2.6105,-0.202,2.085,3.8734,2.1555,3.6003,-1.0545,0.8552
0.4123,-0.9651,-2.795,-1.1226,-1.9008,-2.2891,0.2178,-0.5205,1.2219,2.0278,2.9573,2.7676,-0.7281,-1.9762,-0.0503,-0.1228,-1.2654,-1.0147,-1.5409,-1.0117,-2.1214,-2.2322,-2.0741,0.9234,2.5817,4.688,3.3704,4.6364,-1.2232,0.5018
0.838,-0.3598,-2.2478,-0.4786,-1.1937,-1.8199,1.0303,-0.9335,0.7618,2.6054,3.5009,3.9568,0.5017,-0.8908,0.5563,0.5012,-0.5673,-0.5425,-0.7131,-0.29,-1.178,-1.2548,-1.3422,2.1238,2.9931,5.3656,4.5702,5.6046,-1.3612,0.0698
1.42,0.4232,-1.4192,0.3313,-0.332,-1.2322,1.8991,-1.393,0.2108,3.1511,3.9173,4.9989,1.8133,0.3383,1.3449,1.2842,0.2268,0.1119,0.25,0.6305,-0.0559,-0.1492,-0.4875,3.2511,3.2582,5.8015,5.6045,6.3811,-1.4535,-0.3915
2.1211,1.293,-0.4037,1.2211,0.5965,-0.5904,2.7139,-1.8716,-0.4025,3.5762,4.1374,5.7658,3.0507,1.5749,2.2307,2.1385,1.0285,0.9037,1.2385,1.6522,1.1262,0.9571,0.3963,4.153,3.3231,5.9054,6.3273,6.8513,-1.4901,-0.8165
2.8866,2.1528,0.6762,2.0962,1.4941,0.0399,3.364,-2.3316,-1.0364,3.7996,4.1125,6.1579,4.06,2.6767,3.1083,2.9701,1.7552,1.768,2.1418,2.6643,2.2386,1.9353,1.2104,4.701,3.154,5.6225,6.6238,6.9314,-1.4679,-1.1352
3.6527,2.9176,1.6958,2.8704,2.2707,0.6017,3.7584,-2.7318,-1.6413,3.7641,3.8236,6.1201,4.7172,3.5212,3.8708,3.6952,2.3432,2.6268,2.8685,3.5625,3.1653,2.6793,1.8683,4.8144,2.7482,4.9482,6.4337,6.5862,-1.3911,-1.2856
4.3559,3.5268,2.5515,3.4796,2.8582,1.0534,3.842,-3.0354,-2.1688,3.4486,3.2846,5.6506,4.9494,4.0272,4.43,4.2539,2.7563,3.4009,3.3621,4.268,3.8247,3.1245,2.3102,4.4756,2.1378,3.9331,5.763,5.8363,-1.2712,-1.2268
4.9438,3.9511,3.1778,3.8909,3.2212,1.3724,3.6053,-3.2175,-2.5793,2.8733,2.5412,4.8009,4.7469,4.1688,4.7357,4.6182,2.9893,4.0232,3.6083,4.7392,4.182,3.2571,2.5121,3.7321,1.3867,2.6771,4.6838,4.7551,-1.1251,-0.9489
5.3825,4.1931,3.5533,4.105,3.3604,1.5547,3.0858,-3.2696,-2.8482,2.0969,1.6637,3.6664,4.1626,3.9762,4.7852,4.7946,3.0648,4.4516,3.6329,4.9759,4.2521,3.1123,2.487,2.6869,0.5793,1.3126,3.3213,3.4553,-0.9727,-0.4768
5.6615,4.2822,3.6968,4.1526,3.3095,1.6136,2.3609,-3.1993,-2.9681,1.2079,0.7377,2.3714,3.3007,3.5269,4.6233,4.8188,3.0266,4.6766,3.4932,5.0144,4.092,2.7627,2.2794,1.4795,-0.1942,-0.0175,1.8328,2.0707,-0.8338,0.1321
5.7925,4.2655,3.6563,4.0861,3.1278,1.5755,1.5345,-3.0275,-2.9464,0.3093,-0.1482,1.0504,2.2978,2.9284,4.3303,4.7476,2.9299,4.7216,3.263,4.9171,3.786,2.302,1.9543,0.2613,-0.8527,-1.1828,0.3815,0.735,-0.7253,0.798
5.8048,4.1982,3.4941,3.9686,2.8874,1.4757,0.7199,-2.7825,-2.803,-0.4975,-0.9144,-0.1714,1.2997,2.2982,4.0037,4.6469,2.8309,4.6353,3.0183,4.7589,3.4285,1.8264,1.585,-0.8281,-1.3364,-2.0843,-0.8871,-0.4365,-0.6586,1.4326
5.7383,4.1329,3.2724,3.8618,2.6614,1.3534,0.0221,-2.4944,-2.5648,-1.1291,-1.5004,-1.194,0.438,1.7438,3.7365,4.5801,2.7777,4.4781,2.8233,4.6128,3.1071,1.4188,1.2394,-1.6809,-1.6143,-2.6668,-1.8656,-1.3606,-0.6377,1.9541
5.6365,4.111,3.0441,3.8161,2.5109,1.2462,-0.4768,-2.1901,-2.2626,-1.532,-1.8717,-1.954,-0.1884,1.347,3.5987,4.5974,2.8035,4.3077,2.722,4.5386,2.8899,1.1371,0.97,-2.2335,-1.6855,-2.9213,-2.4958,-1.9929,-0.6591,2.3024
5.5408,4.1573,2.8477,3.8626,2.4766,1.1853,-0.7284,-1.8902,-1.9279,-1.6883,-2.0231,-2.4284,-0.5255,1.1545,3.6255,4.7286,2.9225,4.1688,2.734,4.5747,2.8179,1.0096,0.8076,-2.4707,-1.5761,-2.8802,-2.7709,-2.3279,-0.7127,2.4497
5.4861,4.2768,2.7082,4.0097,2.5728,1.1909,-0.7215,-1.6087,-1.5912,-1.6145,-1.9753,-2.6314,-0.568,1.1749,3.814,4.9792,3.1292,4.0882,2.8554,4.7341,2.9019,1.0346,0.7587,-2.4207,-1.3314,-2.6053,-2.7288,-2.3918,-0.7844,2.4045
5.4966,4.456,2.6395,4.2425,2.7867,1.2695,-0.4808,-1.3537,-1.2807,-1.355,-1.7691,-2.6054,-0.3549,1.3808,4.1292,5.3302,3.4013,4.0747,3.0629,5.0038,3.124,1.185,0.8087,-2.1446,-1.0059,-2.1734,-2.4383,-2.2327,-0.8594,2.2083
5.5816,4.6667,2.6458,4.5273,3.0809,1.4126,-0.0601,-1.1298,-1.0201,-0.9708,-1.4555,-2.4081,0.0412,1.7166,4.516,5.7416,3.7047,4.1225,3.3197,5.3476,3.4425,1.4157,0.9261,-1.7213,-0.654,-1.6614,-1.9836,-1.9077,-0.9258,1.9241
5.7338,4.8732,2.7215,4.8181,3.3995,1.5984,0.4679,-0.9398,-0.8261,-0.5281,-1.0865,-2.0996,0.5293,2.1087,4.9124,6.1586,4.0004,4.2155,3.5823,5.7116,3.7978,1.6722,1.0705,-1.2325,-0.3217,-1.1349,-1.4472,-1.473,-0.977,1.6225
5.9282,5.0391,2.85,5.0642,3.6766,1.7949,1.0235,-0.7863,-0.7061,-0.0871,-0.706,-1.7322,1.0158,2.4777,5.2619,6.5211,4.2522,4.3305,3.8079,6.0325,4.1218,1.8998,1.2003,-0.7497,-0.0421,-0.6406,-0.8978,-0.9758,-1.0128,1.3673
6.125,5.1332,3.003,5.2181,3.8455,1.9645,1.5318,-0.6714,-0.6558,0.3046,-0.3449,-1.3436,1.4195,2.7494,5.5205,6.7714,4.4327,4.442,3.9595,6.2457,4.3461,2.0519,1.2798,-0.3242,0.1677,-0.2041,-0.382,-0.4516,-1.0395,1.205
6.2752,5.1318,3.1433,5.24,3.8479,2.0698,1.9319,-0.5961,-0.6602,0.6161,-0.0194,-0.9556,1.6829,2.8649,5.6608,6.8624,4.5255,4.5244,4.0107,6.2944,4.4114,2.0964,1.285,0.0164,0.3058,0.1685,0.078,0.0754,-1.0678,1.1589
6.328,5.0183,3.2298,5.101,3.6414,2.0779,2.1841,-0.5589,-0.6955,0.8335,0.2674,-0.5773,1.7778,2.7872,5.6727,6.7623,4.5249,4.5561,3.947,6.1363,4.2752,2.0195,1.2073,0.2679,0.3835,0.4855,0.4813,0.5882,-1.1096,1.2276
6.2395,4.7806,3.2238,4.7838,3.2057,1.965,2.2718,-0.5542,-0.7334,0.9576,0.521,-0.2102,1.7062,2.5053,5.5629,6.4551,4.4309,4.5224,3.7654,5.7479,3.9168,1.8253,1.0534,0.4444,0.421,0.7627,0.842,1.0732,-1.1757,1.3871
5.9793,4.4084,3.095,4.2828,2.5445,1.719,2.2009,-0.5718,-0.746,1.0008,0.7503,0.1455,1.4957,2.0333,5.3513,5.9402,4.2449,4.419,3.4723,5.1262,3.3401,1.5328,0.8428,0.5703,0.4418,1.0162,1.1803,1.5166,-1.2728,1.5971
5.535,3.8922,2.8251,3.6029,1.6852,1.3417,1.9953,-0.5978,-0.7102,0.9822,0.9634,0.4867,1.1914,1.4074,5.0652,5.2288,3.9652,4.251,3.0796,4.2876,2.5725,1.1694,0.6018,0.6723,0.467,1.2573,1.5143,1.9033,-1.4026,1.8097
4.9134,3.2257,2.41,2.76,0.6748,0.8485,1.6915,-0.6164,-0.6104,0.9236,1.1641,0.8042,0.845,0.6782,4.7303,4.3408,3.5855,4.0291,2.6014,3.265,1.6594,0.7641,0.3566,0.7714,0.5114,1.4896,1.8533,2.2186,-1.5609,1.9806
4.1385,2.4094,1.8595,1.7802,-0.4269,0.2674,1.3315,-0.6118,-0.4396,0.8451,1.3507,1.0823,0.5041,-0.0973,4.3627,3.3026,3.0965,3.7617,2.0512,2.103,0.6573,0.3411,0.1268,0.8776,0.5803,1.7088,2.1939,2.4498,-1.7382,2.0795
3.2476,1.455,1.1983,0.6991,-1.5547,-0.3646,0.9571,-0.5708,-0.1986,0.7621,1.5159,1.2995,0.2038,-0.865,3.9649,2.1451,2.491,3.4471,1.4412,0.8532,-0.3751,-0.084,-0.0789,0.9869,0.6691,1.9037,2.5182,2.587,-1.92,2.0968
2.2856,0.3881,0.4647,-0.4402,-2.6472,-1.0063,0.6043,-0.4845,0.1056,0.6835,1.648,1.4301,-0.0392,-1.5813,3.5273,0.9043,1.7686,3.0733,0.7834,-0.4313,-1.3841,-0.5048,-0.2631,1.0817,0.7637,2.0573,2.7952,2.6235,-2.0878,2.0446
1.3004,-0.7516,-0.2898,-1.5904,-3.6532,-1.6188,0.3003,-0.3486,0.4622,0.6119,1.7333,1.4471,-0.2282,-2.218,3.0346,-0.3794,0.9419,2.6237,0.0916,-1.699,-2.3274,-0.9219,-0.437,1.1331,0.8422,2.1489,2.9838,2.554,-2.2205,1.9519
0.3383,-1.9132,-1.0058,-2.7037,-4.5377,-2.1705,0.0613,-0.1632,0.8584,0.5452,1.7587,1.3267,-0.3839,-2.7646,2.4746,-1.6606,0.0391,2.0887,-0.6168,-2.9035,-3.176,-1.3394,-0.6163,1.1068,0.8788,2.1572,3.04,2.375,-2.2967,1.8555
-0.5595,-3.0389,-1.623,-3.7349,-5.2832,-2.6411,-0.1069,0.0687,1.2813,0.4803,1.7152,1.0534,-0.5377,-3.2264,1.8448,-2.8906,-0.8971,1.4748,-1.32,-4.0051,-3.9156,-1.761,-0.8159,0.9703,0.8487,2.0641,2.9248,2.0862,-2.2981,1.7911
-1.359,-4.0708,-2.0903,-4.6455,-5.8888,-3.0224,-0.2074,0.3433,1.7191,0.4161,1.6014,0.6262,-0.7241,-3.6206,1.1562,-4.0207,-1.814,0.8084,-1.9931,-4.9724,-4.5438,-2.1881,-1.0467,0.701,0.7341,1.8603,2.6147,1.6944,-2.2129,1.7854
-2.0356,-4.9574,-2.3768,-5.4063,-6.3664,-3.3166,-0.2489,0.656,2.1617,0.3561,1.4255,0.0629,-0.9713,-3.97,0.4318,-5.0072,-2.6569,0.1322,-2.6113,-5.7847,-5.0681,-2.6178,-1.3135,0.2945,0.5293,1.55,2.1106,1.2172,-2.0401,1.8517
-2.5747,-5.6603,-2.4788,-6.0003,-6.7356,-3.534,-0.2426,1.0015,2.5999,0.3088,1.2057,-0.5981,-1.2942,-4.2966,-0.2967,-5.8178,-3.3786,-0.5034,-3.1533,-6.4329,-5.5021,-3.0434,-1.6139,-0.2311,0.2444,1.1539,1.4425,0.6846,-1.7904,1.9886
-2.9724,-6.1603,-2.4205,-6.4245,-7.018,-3.6883,-0.1986,1.3723,3.0252,0.2866,0.968,-1.3004,-1.6894,-4.6169,-0.9943,-6.4362,-3.9487,-1.0509,-3.6053,-6.9213,-5.8622,-3.4554,-1.9388,-0.8347,-0.0953,0.7083,0.6694,0.1385,-1.4865,2.1808
-3.2354,-6.4593,-2.2484,-6.689,-7.2323,-3.7935,-0.1245,1.7566,3.4279,0.3031,0.7427,-1.9759,-2.1342,-4.9372,-1.6272,-6.8655,-4.3587,-1.4755,-3.9632,-7.2661,-6.164,-3.8421,-2.2725,-1.4566,-0.4526,0.2623,-0.1277,-0.3713,-1.1592,2.4027
-3.3797,-6.5786,-2.0188,-6.8147,-7.3904,-3.8597,-0.023,2.1386,3.7972,0.3701,0.5603,-2.554,-2.5885,-5.2518,-2.1669,-7.1264,-4.6226,-1.7621,-4.2322,-7.491,-6.4179,-4.1906,-2.5954,-2.0271,-0.784,-0.129,-0.8569,-0.7928,-0.8421,2.6225
-3.4281,-6.5527,-1.7852,-6.8274,-7.4947,-3.8911,0.1078,2.5006,4.1218,0.4958,0.4473,-2.9716,-2.9993,-5.5417,-2.5933,-7.2517,-4.7717,-1.9163,-4.4234,-7.621,-6.6254,-4.4871,-2.8858,-2.4771,-1.0474,-0.4122,-1.4293,-1.0785,-0.5656,2.8075
-3.407,-6.4209,-1.5857,-6.7517,-7.5375,-3.8849,0.2751,2.826,4.3925,0.6841,0.4232,-3.1821,-3.3076,-5.7763,-2.8962,-7.2776,-4.8444,-1.9613,-4.5491,-7.6746,-6.777,-4.7165,-3.1215,-2.7489,-1.209,-0.5428,-1.7719,-1.1914,-0.3509,2.9294
-3.3417,-6.2187,-1.4356,-6.6058,-7.5029,-3.8329,0.4899,3.1039,4.6056,0.9354,0.4994,-3.1619,-3.4568,-5.9174,-3.0777,-7.2353,-4.8756,-1.9302,-4.6169,-7.6586,-6.8522,-4.863,-3.2816,-2.8053,-1.2489,-0.4931,-1.8392,-1.1099,-0.2066,2.9696
-3.2528,-5.9713,-1.3254,-6.3982,-7.3707,-3.7246,0.7649,3.3321,4.7654,1.248,0.6788,-2.913,-3.4009,-5.9251,-3.1516,-7.1448,-4.8873,-1.8583,-4.6263,-7.5666,-6.8228,-4.9108,-3.3478,-2.6346,-1.1648,-0.2567,-1.6187,-0.832,-0.1274,2.9233
-3.1541,-5.6916,-1.2239,-6.1282,-7.1215,-3.5504,1.1123,3.5175,4.885,1.619,0.9554,-2.4623,-3.1126,-5.7652,-3.1418,-7.0129,-4.8833,-1.7754,-4.5686,-7.3819,-6.6592,-4.8462,-3.3062,-2.2516,-0.9716,0.1486,-1.1327,-0.377,-0.0963,2.8009
-3.0505,-5.3799,-1.0874,-5.7887,-6.7406,-3.3054,1.54,3.674,4.9841,2.0443,1.3143,-1.8579,-2.5879,-5.4158,-3.0773,-6.8346,-4.8506,-1.6993,-4.43,-7.084,-6.3366,-4.6599,-3.1484,-1.6944,-0.699,0.6823,-0.4331,0.2158,-0.0896,2.6258
-2.9378,-5.0283,-0.8717,-5.3699,-6.2219,-2.9898,2.0499,3.8177,5.0841,2.5171,1.7326,-1.1628,-1.8476,-4.8718,-2.9848,-6.5975,-4.7652,-1.6329,-4.1964,-6.6553,-5.8415,-4.3498,-2.8735,-1.0165,-0.385,1.2865,0.4066,0.8897,-0.0829,2.4284
-2.8033,-4.6241,-0.5452,-4.863,-5.568,-2.6083,2.6354,3.9621,5.2025,3.0261,2.1795,-0.4472,-0.9349,-4.1469,-2.8816,-6.2871,-4.6022,-1.5632,-3.8591,-6.0874,-5.1747,-3.9215,-2.4881,-0.2787,-0.0691,1.894,1.3027,1.5785,-0.0567,2.2393
-2.6281,-4.1539,-0.0978,-4.2632,-4.7901,-2.168,3.2816,4.1152,5.3485,3.5547,2.62,0.2205,0.0908,-3.2718,-2.7718,-5.891,-4.3446,-1.4643,-3.4184,-5.3839,-4.3517,-3.3886,-2.0062,0.4611,0.2151,2.4388,2.1725,2.2141,-0.0009,2.0806
-2.3915,-3.6071,0.4564,-3.5712,-3.9061,-1.6763,3.9669,4.278,5.5214,4.0813,3.0184,0.7814,1.1627,-2.2899,-2.6474,-5.4024,-3.9895,-1.3042,-2.885,-4.5598,-3.4001,-2.7717,-1.4471,1.1549,0.444,2.866,2.9444,2.737,0.0854,1.961
-2.0775,-2.9779,1.0832,-2.7941,-2.9381,-1.1403,4.6661,4.4461,5.711,4.5812,3.3433,1.1936,2.216,-1.2506,-2.4949,-4.8221,-3.5503,-1.0538,-2.2777,-3.6399,-2.3556,-2.0949,-0.8335,1.7698,0.6068,3.1391,3.5653,3.1035,0.1952,1.8744
-1.6811,-2.2682,1.7372,-1.9458,-1.9115,-0.5671,5.3539,4.6125,5.9015,5.0307,3.572,1.4349,3.1961,-0.2033,-2.3055,-4.1588,-3.0524,-0.697,-1.6201,-2.6547,-1.2574,-1.383,-0.1884,2.2904,0.7049,3.245,4.0055,3.2916,0.3185,1.8032
-1.2117,-1.4891,2.3727,-1.047,-0.8532,0.0344,6.0094,4.7703,6.0754,5.4103,3.6925,1.5031,4.0653,0.8094,-2.0836,-3.4302,-2.5285,-0.2382,-0.9366,-1.638,-0.1446,-0.6584,0.467,2.7178,0.7498,3.1949,4.2598,3.3017,0.4452,1.724
-0.6954,-0.6621,2.9516,-0.1247,0.2086,0.652,6.6186,4.9157,6.2182,5.709,3.7044,1.4127,4.8053,1.7547,-1.8514,-2.6623,-2.0108,0.2945,-0.2492,-0.6248,0.946,0.0611,1.1159,3.0666,0.7598,3.0211,4.346,3.1539,0.5688,1.6146
-0.1715,0.182,3.45,0.7896,1.2453,1.2702,7.1762,5.0489,6.3221,5.9264,3.6175,1.19,5.4171,2.612,-1.6452,-1.887,-1.5265,0.8495,0.424,0.35,1.9822,0.7628,1.746,3.3608,0.7574,2.7703,4.2999,2.8831,0.6866,1.4582
0.3133,1.007,3.8588,1.6628,2.2297,1.8703,7.685,5.1752,6.3876,6.0733,3.4497,0.8669,5.9172,3.3724,-1.5078,-1.1377,-1.0941,1.3592,1.0687,1.2543,2.9371,1.4386,2.349,3.6274,0.7646,2.4952,4.1687,2.5323,0.7997,1.246
0.7138,1.7774,4.1811,2.4653,3.1376,2.4325,8.1538,5.3033,6.4243,6.1694,3.2241,0.4758,6.3312,4.0361,-1.4759,-0.4446,-0.7221,1.7502,1.6741,2.061,3.7903,2.083,2.9186,3.8905,0.8001,2.2448,4.0017,2.1456,0.9118,0.9771
0.9951,2.4647,4.4263,3.1747,3.9497,2.9381,8.5933,5.4436,6.4486,6.2387,2.966,0.0463,6.6861,4.6093,-1.5698,0.1712,-0.4104,1.958,2.2303,2.7511,4.5282,2.69,3.4474,4.165,0.8743,2.0551,3.8413,1.7613,1.0269,0.657
1.1403,3.0513,4.6041,3.7778,4.6525,3.3709,9.0111,5.6058,6.4799,6.3036,2.7001,-0.3966,7.0027,5.0992,-1.7875,0.6991,-0.1545,1.9415,2.7265,3.3144,5.1431,3.2499,3.9246,4.4521,0.9868,1.9427,3.7151,1.4066,1.1491,0.2959
1.1528,3.5309,4.7213,4.27,5.2378,3.718,9.4083,5.7954,6.5367,6.38,2.4486,-0.8307,7.2905,5.5101,-2.1043,1.1385,0.0493,1.6939,3.1481,3.7492,5.6318,3.7469,4.3351,4.7374,1.1254,1.9031,3.6318,1.0959,1.2815,-0.092
1.0556,3.9055,4.7824,4.6527,5.7023,3.9705,9.778,6.0127,6.6322,6.4749,2.2313,-1.2349,7.5461,5.8412,-2.4787,1.4944,0.199,1.2454,3.4759,4.0594,5.9939,4.1591,4.6604,4.9934,1.2682,1.914,3.5827,0.8322,1.427,-0.4887
0.8854,4.181,4.7919,4.9296,6.0465,4.1243,10.1065,6.2513,6.7731,6.587,2.0663,-1.5854,7.7568,6.0871,-2.8629,1.7726,0.2852,0.657,3.6884,4.2522,6.2306,4.4624,4.8823,5.1869,1.3885,1.944,3.5479,0.6134,1.5876,-0.8729
0.6835,4.3631,4.7571,5.105,6.2747,4.1807,10.3781,6.4999,6.9596,6.7109,1.9723,-1.8537,7.9063,6.2406,-3.2137,1.9757,0.2942,0.0054,3.767,4.3355,6.3451,4.6359,4.9874,5.2884,1.4616,1.9629,3.506,0.4391,1.7644,-1.2201
0.4874,4.4556,4.6875,5.1831,6.3958,4.1482,10.58,6.7444,7.1874,6.8419,1.9694,-2.0076,7.9827,6.2973,-3.5034,2.1014,0.2132,-0.6358,3.7027,4.3172,6.3434,4.6687,4.9719,5.2814,1.4708,1.9516,3.444,0.3169,1.9562,-1.5051
0.3221,4.4606,4.5926,5.1692,6.4227,4.0426,10.7074,6.9708,7.4492,6.9799,2.0785,-2.0135,7.9837,6.2595,-3.726,2.1434,0.0374,-1.2128,3.5013,4.2045,6.2352,4.5643,4.8432,5.169,1.4119,1.908,3.3628,0.2645,2.1591,-1.706
0.1954,4.3809,4.4785,5.0713,6.3721,3.886,10.7651,7.1678,7.7363,7.13,2.3179,-1.843,7.9192,6.1374,-3.898,2.0936,-0.2266,-1.7003,3.1849,4.0043,6.034,4.3415,4.6195,4.9744,1.2941,1.8468,3.2776,0.3066,2.3663,-1.8091
0.0973,4.2208,4.3455,4.8999,6.2625,3.7041,10.7669,7.3276,8.0374,7.3,2.6974,-1.48,7.8089,5.9485,-4.0526,1.9445,-0.5602,-2.1013,2.7884,3.7226,5.7559,4.031,4.3262,4.7352,1.1372,1.7939,3.2129,0.4669,2.5688,-1.8138
0.0025,3.9873,4.1881,4.668,6.1118,3.5223,10.7312,7.4469,8.3383,7.4953,3.2125,-0.9284,7.6762,5.7128,-4.2301,1.6921,-0.9366,-2.4385,2.3525,3.3645,5.4173,3.6686,3.991,4.4943,0.966,1.777,3.1932,0.7579,2.7573,-1.735
-0.1216,3.6895,3.9965,4.3896,5.9348,3.3618,10.6762,7.5253,8.6209,7.7135,3.839,-0.2163,7.5422,5.449,-4.4666,1.3372,-1.326,-2.7411,1.9162,2.934,5.0332,3.2884,3.6389,4.2889,0.8043,1.8154,3.2334,1.1727,2.9233,-1.6018
-0.3056,3.3391,3.761,4.0788,5.7433,3.2375,10.6156,7.5645,8.8638,7.9424,4.5328,0.6031,7.4201,5.1713,-4.784,0.8876,-1.7003,-3.033,1.5103,2.4359,4.6159,2.9175,3.2901,4.1418,0.6686,1.913,3.3332,1.6804,3.06,-1.4505
-0.5684,2.9514,3.4773,3.7498,5.5462,3.1566,10.5571,7.5674,9.0443,8.1603,5.233,1.4559,7.3135,4.8889,-5.1853,0.3596,-2.0356,-3.3246,1.1545,1.8774,4.1759,2.5738,2.9597,4.0579,0.5652,2.055,3.4749,2.2281,3.1625,-1.3149
-0.9101,2.5464,3.1526,3.418,5.3527,3.1204,10.5022,7.5363,9.1422,8.3397,5.8696,2.2559,7.2189,4.6076,-5.6528,-0.222,-2.314,-3.6113,0.8571,1.2705,3.7239,2.267,2.6587,4.0256,0.4899,2.2107,3.628,2.7483,3.2276,-1.2156
-1.31,2.1482,2.8084,3.1002,5.1739,3.1257,10.4494,7.4727,9.1421,8.4537,6.3728,2.9159,7.1293,4.3327,-6.1512,-0.8256,-2.5236,-3.876,0.6181,0.6325,3.2732,2.0014,2.3956,4.0228,0.4303,2.3403,3.7559,3.1706,3.2526,-1.1543
-1.7294,1.7832,2.4794,2.8141,5.0234,3.1664,10.3969,7.3764,9.0373,8.4814,6.6844,3.3595,7.0391,4.0721,-6.6325,-1.4166,-2.6585,-4.0953,0.4322,-0.0139,2.8409,1.7792,2.1777,4.0243,0.3703,2.4041,3.8254,3.4341,3.2355,-1.1147
-2.1194,1.4755,2.2067,2.5759,4.9159,3.2347,10.3441,7.2466,8.8306,8.4132,6.7668,3.5333,6.9475,3.8366,-7.0427,-1.9613,-2.7188,-4.2454,0.2931,-0.6426,2.4472,1.6032,2.0111,4.0102,0.2955,2.3718,3.8142,3.4988,3.1741,-1.0692
-2.4318,1.2422,2.0261,2.3972,4.8639,3.3215,10.2932,7.0833,8.5353,8.2526,6.6103,3.4151,6.8593,3.6396,-7.3298,-2.4315,-2.7098,-4.3069,0.196,-1.2272,2.1135,1.4787,1.9009,3.9712,0.1974,2.2306,3.716,3.3535,3.0666,-0.9896
-2.6287,1.0891,1.9569,2.2817,4.8736,3.4162,10.2473,6.8902,8.1736,8.0165,6.2358,3.0197,6.7837,3.4932,-7.4523,-2.8065,-2.6408,-4.2688,0.1391,-1.7428,1.8581,1.412,1.8503,3.9097,0.0761,1.9886,3.5416,3.0186,2.9118,-0.8579
-2.6909,1.0082,1.9925,2.2228,4.9419,3.5079,10.209,6.676,7.7737,7.7317,5.6926,2.398,6.7305,3.4056,-7.3872,-3.0756,-2.5233,-4.1297,0.1237,-2.1691,1.6926,1.4089,1.8592,3.838,-0.0598,1.6733,3.3156,2.5431,2.7099,-0.6724
-2.622,0.9794,2.0995,2.2041,5.055,3.5854,10.1784,6.4549,7.3667,7.4308,5.0521,1.6322,6.706,3.3773,-7.1354,-3.2371,-2.3698,-3.8994,0.1513,-2.4921,1.6179,1.4706,1.9218,3.772,-0.196,1.3269,3.0706,1.9972,2.4648,-0.4498
-2.4475,0.9746,2.224,2.2024,5.1904,3.6394,10.1512,6.2452,6.9826,7.1472,4.3973,0.8253,6.71,3.3997,-6.7238,-3.2987,-2.1934,-3.5987,0.2211,-2.7063,1.6232,1.5899,2.025,3.7247,-0.3167,0.9959,2.8401,1.4611,2.1854,-0.2216
-2.2096,0.9637,2.3051,2.1927,5.3204,3.6638,10.1191,6.0652,6.6469,6.9102,3.8121,0.0879,6.7338,3.4559,-6.2027,-3.2758,-2.007,-3.2593,0.3271,-2.8153,1.6866,1.7497,2.1468,3.701,-0.4097,0.7216,2.6514,1.0116,1.8873,-0.0259
-1.9592,0.9205,2.2908,2.1532,5.4177,3.6568,10.0708,5.9296,6.3785,6.7413,3.3692,-0.4767,6.7617,3.5234,-5.6384,-3.1901,-1.8238,-2.9206,0.4565,-2.8326,1.7781,1.924,2.2587,3.6949,-0.4704,0.5309,2.5205,0.7103,1.593,0.1011
-1.745,0.8279,2.1526,2.0702,5.461,3.6215,9.9945,5.8446,6.1873,6.6519,3.121,-0.7877,6.7744,3.5782,-5.1018,-3.0672,-1.6562,-2.6248,0.5911,-2.7801,1.8658,2.0827,2.3297,3.6917,-0.503,0.4312,2.45,0.5934,1.3295,0.1342
-1.6047,0.6806,1.8935,1.9412,5.4399,3.5661,9.8805,5.8064,6.0737,6.6416,3.0914,-0.7988,6.7539,3.6004,-4.6562,-2.9335,-1.5147,-2.4106,0.7106,-2.6847,1.9215,2.1983,2.3336,3.6728,-0.5187,0.4106,2.4304,0.6676,1.1242,0.065
-1.5576,0.4863,1.5482,1.7749,5.3572,3.5031,9.7245,5.8013,6.0277,6.6986,3.2728,-0.5059,6.689,3.5784,-4.3459,-2.8115,-1.4048,-2.3052,0.7984,-2.5742,1.9276,2.2534,2.2562,3.6232,-0.5319,0.4427,2.4434,0.91,0.9991,-0.0957
-1.6013,0.2641,1.1746,1.5904,5.2295,3.447,9.529,5.8082,6.0302,6.801,3.6263,0.0514,6.5782,3.5127,-4.1889,-2.7162,-1.3242,-2.3181,0.847,-2.4713,1.881,2.2463,2.1009,3.5373,-0.5552,0.4943,2.4679,1.2731,0.9643,-0.319
-1.7121,0.0415,0.8384,1.4137,5.0838,3.4129,9.3033,5.8036,6.0546,6.9199,4.0865,0.7933,6.4315,3.4166,-4.1745,-2.6514,-1.2622,-2.4371,0.8611,-2.3892,1.7939,2.1923,1.8894,3.4226,-0.595,0.5336,2.4845,1.6933,1.0144,-0.5642
-1.8504,-0.1507,0.5981,1.2732,4.9533,3.4133,9.0625,5.766,6.0704,7.0237,4.5706,1.6114,6.2679,3.3144,-4.2653,-2.61,-1.2009,-2.6285,0.8577,-2.3286,1.692,2.1205,1.6587,3.2993,-0.65,0.5371,2.4799,2.101,1.1277,-0.7876
-1.9686,-0.2838,0.4922,1.1952,4.871,3.4552,8.8238,5.6797,6.048,7.083,4.991,2.383,6.1117,3.2372,-4.4036,-2.5752,-1.1208,-2.8415,0.8614,-2.278,1.6093,2.0675,1.4529,3.1953,-0.7118,0.4926,2.4478,2.4302,1.2702,-0.9541
-2.0221,-0.337,0.533,1.1991,4.8636,3.5379,8.6038,5.5368,5.9633,7.0756,5.2681,2.9892,5.9868,3.2166,-4.5213,-2.5265,-1.0055,-3.0174,0.8987,-2.2166,1.5813,2.0694,1.3147,3.14,-0.7683,0.3997,2.3884,2.6267,1.4018,-1.0455
-1.9783,-0.3014,0.7076,1.2944,4.9474,3.653,8.4153,5.3377,5.8024,6.9903,5.3427,3.3315,5.9121,3.2788,-4.553,-2.4443,-0.8476,-3.1011,0.991,-2.12,1.6386,2.1539,1.2763,3.1564,-0.8072,0.2668,2.3059,2.6544,1.4853,-1.0647
-1.824,-0.1814,0.983,1.4785,5.1251,3.7856,8.2656,5.0911,5.5638,6.8283,5.1843,3.346,5.8981,3.4389,-4.4495,-2.3159,-0.6497,-3.0519,1.1495,-1.9667,1.8002,2.3357,1.3542,3.2557,-0.8197,0.107,2.2057,2.4978,1.4927,-1.0325
-1.5671,0.0056,1.3146,1.7369,5.3859,3.9177,8.1555,4.813,5.2593,6.6024,4.796,3.0126,5.9447,3.6975,-4.1894,-2.138,-0.4242,-2.8502,1.3727,-1.7436,2.0697,2.6141,1.547,3.4345,-0.8028,-0.0654,2.092,2.1632,1.4103,-0.9795
-1.2341,0.2329,1.6548,2.0448,5.7066,4.0317,8.0802,4.5244,4.9119,6.3343,4.2135,2.3586,6.0413,4.039,-3.7849,-1.9188,-0.1902,-2.5003,1.6467,-1.4509,2.4334,2.9735,1.8373,3.6751,-0.7587,-0.2373,1.9677,1.6781,1.2396,-0.9351
-0.8638,0.4691,1.9605,2.3703,6.055,4.1143,8.0303,4.2486,4.5516,6.0501,3.5,1.4554,6.1688,4.434,-3.2791,-1.6764,0.03,-2.029,1.9481,-1.1029,2.8618,3.3867,2.1958,3.9496,-0.6931,-0.3975,1.8356,1.0895,0.9959,-0.9188
-0.4996,0.6825,2.1977,2.6781,6.3937,4.1586,7.9933,4.0064,4.2099,5.7764,2.7366,0.4094,6.3029,4.8434,-2.7373,-1.437,0.2142,-1.4827,2.2478,-0.7268,3.3139,3.819,2.5868,4.2251,-0.6113,-0.5351,1.7008,0.4595,0.7041,-0.935
-0.181,0.8461,2.3454,2.9354,6.6853,4.1649,7.9557,3.812,3.9138,5.5354,2.0099,-0.6517,6.4182,5.2252,-2.2325,-1.2308,0.3421,-0.9215,2.5162,-0.3584,3.7441,4.2334,2.9738,4.4701,-0.5156,-0.6386,1.5731,-0.1404,0.395,-0.9738
0.062,0.9414,2.3976,3.1161,6.8985,4.1403,7.9043,3.6702,3.6814,5.3417,1.3989,-1.5975,6.4929,5.5421,-1.8293,-1.0859,0.3984,-0.41,2.7281,-0.0352,4.1105,4.5959,3.3234,4.6612,-0.4039,-0.695,1.4676,-0.6381,0.0995,-1.0174
0.2132,0.9608,2.3636,3.2063,7.0133,4.0962,7.828,3.5749,3.5185,5.2003,0.9636,-2.3133,6.5122,5.7681,-1.5711,-1.0222,0.3749,-0.0049,2.8665,0.2113,4.382,4.8808,3.6094,4.7872,-0.2703,-0.6911,1.4036,-0.9717,-0.1551,-1.0475
0.2712,0.9091,2.2664,3.2064,7.0252,4.0462,7.7184,3.5111,3.4191,5.106,0.7358,-2.7178,6.4704,5.8926,-1.4711,-1.0456,0.2729,0.2565,2.9258,0.3629,4.5439,5.0745,3.8148,4.8505,-0.1081,-0.6163,1.4008,-1.0991,-0.3496,-1.0534
0.2491,0.8033,2.1378,3.1328,6.9463,4.0025,7.5703,3.4582,3.3668,5.0449,0.7145,-2.7764,6.3714,5.9225,-1.5111,-1.1446,0.1056,0.3653,2.9128,0.4184,4.5994,5.1775,3.9343,4.8664,0.0865,-0.4664,1.4745,-1.007,-0.4745,-1.0356
0.1713,0.6704,2.0125,3.0141,6.803,3.9739,7.3812,3.3941,3.3382,4.9962,0.8665,-2.5069,6.2264,5.8799,-1.6477,-1.2914,-0.1016,0.3416,2.8467,0.3945,4.5682,5.2051,3.9751,4.8588,0.3121,-0.247,1.6301,-0.7148,-0.5319,-1.0044
0.0707,0.5436,1.9216,2.8867,6.6306,3.9647,7.1514,3.2992,3.3062,4.936,1.1316,-1.9769,6.0517,5.7978,-1.8237,-1.4457,-0.3131,0.2297,2.7573,0.3221,4.482,5.185,3.9572,4.8551,0.5605,0.0255,1.8597,-0.2725,-0.5343,-0.9745
-0.0171,0.4563,1.8869,2.7875,6.4658,3.975,6.8834,3.1608,3.2449,4.8409,1.4332,-1.2918,5.8651,5.713,-1.9818,-1.5633,-0.4886,0.0864,2.6801,0.2398,4.3783,5.1533,3.9107,4.88,0.8184,0.3249,2.1417,0.2465,-0.5017,-0.9583
-0.06,0.4368,1.9179,2.7466,6.3394,4.0014,6.5823,2.9747,3.1332,4.6924,1.6917,-0.5762,5.6825,5.6596,-2.077,-1.6055,-0.5894,-0.0321,2.6503,0.1859,4.2928,5.1475,3.8709,4.9504,1.0692,0.6191,2.443,0.7584,-0.4577,-0.961
-0.0362,0.5025,2.0104,2.7815,6.2702,4.0389,6.2558,2.7466,2.9586,4.48,1.8385,0.0486,5.5152,5.6616,-2.0857,-1.5475,-0.5878,-0.0827,2.6948,0.1898,4.2528,5.1986,3.8704,5.0722,1.2968,0.8756,2.7247,1.1835,-0.4247,-0.9797
0.0607,0.6545,2.1475,2.8933,6.2622,4.0814,5.915,2.4906,2.7208,4.2045,1.8283,0.4858,5.3688,5.729,-2.0086,-1.3846,-0.4728,-0.0447,2.8254,0.266,4.2728,5.3238,3.9321,5.2395,1.4882,1.0673,2.949,1.4609,-0.4194,-1.0049
0.2184,0.8764,2.3024,3.0659,6.3042,4.1222,5.5736,2.2263,2.4321,3.8781,1.6472,0.6788,5.2425,5.8559,-1.8689,-1.1337,-0.2533,0.0767,3.0346,0.4108,4.3517,5.5217,4.0627,5.4362,1.6362,1.1779,3.087,1.5595,-0.4501,-1.0257
0.4075,1.1345,2.4417,3.2687,6.3735,4.1535,5.2476,1.974,2.1164,3.5232,1.3137,0.619,5.1312,6.0221,-1.7039,-0.83,0.0428,0.2528,3.2956,0.604,4.4743,5.7723,4.2507,5.64,1.74,1.2056,3.1246,1.4834,-0.5155,-1.0352
0.5872,1.3851,2.5312,3.4629,6.4415,4.1672,4.9528,1.7497,1.8043,3.1693,0.8746,0.3429,5.0269,6.1979,-1.5537,-0.5194,0.3751,0.4384,3.5678,0.8136,4.6151,6.0407,4.4684,5.8263,1.805,1.1627,3.0647,1.2693,-0.6062,-1.0348
0.7136,1.5832,2.5428,3.6099,6.4805,4.1559,4.7027,1.5619,1.5272,2.8476,0.3936,-0.0792,4.9212,6.35,-1.4493,-0.248,0.6979,0.5837,3.8053,1.0039,4.745,6.2853,4.6777,5.9724,1.8408,1.0731,2.9261,0.9777,-0.7077,-1.0352
0.7495,1.6944,2.4611,3.6798,6.4705,4.1152,4.5065,1.4093,1.3095,2.5857,-0.0614,-0.5604,4.8074,6.4493,-1.4039,-0.0523,0.9698,0.6474,3.967,1.1447,4.8388,6.4678,4.8396,6.0614,1.8589,0.9664,2.7378,0.6779,-0.8037,-1.0546
0.6729,1.7029,2.2887,3.6587,6.403,4.0449,4.3671,1.2836,1.1642,2.4026,-0.4324,-1.0162,4.6818,6.476,-1.4114,0.0489,1.1607,0.6078,4.0258,1.2179,4.8805,6.5613,4.9237,6.084,1.8699,0.871,2.5321,0.4329,-0.8803,-1.1128
0.4826,1.6165,2.0468,3.551,6.2827,3.9512,4.2811,1.1725,1.0903,2.3059,-0.6802,-1.3792,4.5454,6.4238,-1.451,0.0566,1.2565,0.4689,3.9744,1.2217,4.8672,6.5562,4.9152,6.0398,1.8813,0.8079,2.3374,0.2864,-0.928,-1.2243
0.199,1.4634,1.7702,3.378,6.1247,3.8454,4.24,1.0644,1.075,2.2917,-0.7896,-1.608,4.4033,6.3001,-1.4972,-0.0098,1.2604,0.2591,3.8263,1.1692,4.8078,6.4609,4.8188,5.9362,1.8965,0.7873,2.1735,0.2561,-0.9433,-1.3908
-0.1396,1.2852,1.4982,3.172,5.9505,3.7425,4.2302,0.952,1.097,2.3455,-0.7684,-1.6889,4.2642,6.1242,-1.5305,-0.1189,1.1907,0.0244,3.6122,1.0842,4.7197,6.2988,4.656,5.7873,1.9145,0.8076,2.0496,0.3335,-0.9288,-1.5981
-0.4848,1.1255,1.2644,2.968,5.7809,3.6567,4.2351,0.8319,1.1309,2.4449,-0.6432,-1.6321,4.1376,5.9217,-1.5443,-0.2357,1.0762,-0.1831,3.3725,0.9943,4.623,6.1016,4.46,5.6108,1.9317,0.8581,1.9657,0.49,-0.8922,-1.8166
-0.7872,1.0189,1.0888,2.7949,5.6312,3.5981,4.235,0.7032,1.1513,2.5624,-0.4525,-1.4641,4.0316,5.7187,-1.5475,-0.3293,0.95,-0.3174,3.1488,0.9236,4.5346,5.9016,4.2678,5.425,1.944,0.9233,1.9156,0.6868,-0.8452,-2.007
-1.0051,0.9826,0.9749,2.6691,5.5068,3.5687,4.2094,0.5643,1.1347,2.6681,-0.24,-1.2204,3.9495,5.5362,-1.5591,-0.3786,0.8433,-0.3493,2.9754,0.8877,4.4648,5.7261,4.112,5.2464,1.9494,0.9873,1.8894,0.8837,-0.8008,-2.1286
-1.1119,1.0145,0.914,2.5921,5.4027,3.562,4.1379,0.4113,1.0625,2.7325,-0.0485,-0.9392,3.8887,5.3858,-1.5992,-0.374,0.7803,-0.2732,2.8743,0.8921,4.4156,5.5923,4.0155,5.0874,1.9491,1.0373,1.8767,1.0478,-0.7713,-2.1483
-1.0986,1.096,0.8923,2.5522,5.3066,3.5651,4.0042,0.2377,0.9222,2.7294,0.0856,-0.6571,3.8404,5.2695,-1.6781,-0.3159,0.7755,-0.1061,2.8526,0.9335,4.3823,5.5063,3.9882,4.9547,1.9483,1.0646,1.8676,1.1568,-0.7657,-2.0495
-0.9738,1.2007,0.8998,2.5308,5.2031,3.5627,3.7984,0.0364,0.7092,2.6391,0.1354,-0.4065,3.7918,5.1808,-1.7879,-0.2105,0.8331,0.1185,2.904,1.0034,4.3565,5.4649,4.027,4.8493,1.9538,1.0641,1.8532,1.1997,-0.7879,-1.8373
-0.7593,1.3029,0.9342,2.5091,5.0787,3.542,3.52,-0.197,0.4277,2.4511,0.0863,-0.2146,3.7281,5.1089,-1.8999,-0.0662,0.9476,0.3618,3.0122,1.0928,4.3302,5.4579,4.1189,4.7666,1.9722,1.0334,1.8252,1.1753,-0.8363,-1.5377
-0.4835,1.3849,1.0013,2.4739,4.9262,3.4966,3.1779,-0.4623,0.0903,2.166,-0.0639,-0.1021,3.636,5.0414,-1.9703,0.1098,1.1061,0.5913,3.1552,1.1942,4.2983,5.4719,4.2445,4.6975,2.0071,0.9711,1.775,1.088,-0.9053,-1.1923
-0.1752,1.4416,1.1101,2.4213,4.7452,3.4277,2.7897,-0.753,-0.2829,1.7962,-0.3056,-0.0831,3.505,4.9683,-1.9517,0.3112,1.2915,0.7874,3.3102,1.3029,4.2589,5.4937,4.3832,4.6309,2.0581,0.8772,1.6946,0.9451,-0.9865,-0.8468
0.1419,1.4802,1.2675,2.3571,4.5428,3.3445,2.3792,-1.0566,-0.666,1.3648,-0.6201,-0.1641,3.3295,4.883,-1.809,0.5332,1.486,0.9463,3.4576,1.416,4.2132,5.5125,4.5167,4.5555,2.1208,0.7539,1.577,0.7552,-1.0721,-0.5388
0.4516,1.5178,1.4738,2.295,4.3308,3.2619,1.9723,-1.3555,-1.0306,0.903,-0.9825,-0.3438,3.1095,4.7832,-1.5321,0.7703,1.6751,1.0767,3.5834,1.5308,4.1635,5.5205,4.6322,4.462,2.1885,0.6066,1.4184,0.527,-1.1557,-0.2878
0.7442,1.5764,1.7222,2.2533,4.1237,3.1974,1.5939,-1.6295,-1.3492,0.4462,-1.3653,-0.6128,2.8499,4.6702,-1.1427,1.016,1.8495,1.1927,3.68,1.644,4.1113,5.5127,4.7232,4.3444,2.2527,0.4444,1.2198,0.2709,-1.2333,-0.0916
1.0148,1.6763,1.9991,2.2498,3.9349,3.1671,1.2637,-1.8588,-1.5992,0.029,-1.7416,-0.9537,2.5592,4.5469,-0.6909,1.2622,2.0042,1.3069,3.7451,1.7507,4.056,5.485,4.7876,4.1996,2.3044,0.2786,0.9875,-0.0011,-1.3028,0.0691
1.2595,1.8294,2.2868,2.2961,3.7737,3.1813,0.9924,-2.0279,-1.7664,-0.321,-2.0882,-1.3421,2.2468,4.4146,-0.243,1.4978,2.1356,1.4254,3.7785,1.8439,3.9933,5.4318,4.8254,4.026,2.334,0.1208,0.7321,-0.2743,-1.3619,0.2208
1.4731,2.0334,2.5648,2.3932,3.6428,3.241,0.7798,-2.1287,-1.8471,-0.5874,-2.387,-1.7483,1.9199,4.2702,0.1339,1.7096,2.237,1.5458,3.7787,1.9146,3.9146,5.3443,4.8352,3.8216,2.3314,-0.0198,0.4664,-0.5321,-1.4075,0.3842
1.6469,2.2697,2.8111,2.5286,3.5371,3.3357,0.6147,-2.1617,-1.8486,-0.7673,-2.6257,-2.1392,1.5818,4.1056,0.3876,1.8821,2.297,1.6593,3.7404,1.9526,3.8077,5.2101,4.8122,3.5826,2.2879,-0.1383,0.2033,-0.756,-1.4342,0.5653
1.7693,2.5063,3.0036,2.6781,3.4444,3.4443,0.4767,-2.1362,-1.7876,-0.8703,-2.7974,-2.4811,1.231,3.9085,0.4914,2.0003,2.3011,1.7542,3.6551,1.9479,3.6588,5.0154,4.749,3.3039,2.1978,-0.2337,-0.0466,-0.9279,-1.4358,0.7521
1.8291,2.7054,3.124,2.8102,3.3488,3.5384,0.3417,-2.0679,-1.6867,-0.9154,-2.8994,-2.742,0.8637,3.6659,0.447,2.0531,2.236,1.8202,3.5143,1.8932,3.4556,4.7485,4.6376,2.981,2.0616,-0.3082,-0.276,-1.0315,-1.4065,0.92
1.8199,2.8334,3.1619,2.8941,3.235,3.5893,0.1878,-1.9773,-1.571,-0.9253,-2.9328,-2.8957,0.4767,3.3686,0.2823,2.0371,2.097,1.8505,3.3137,1.7867,3.1914,4.405,4.4732,2.6129,1.8875,-0.3645,-0.4808,-1.0554,-1.3435,1.0434
1.7457,2.8704,3.1201,2.9077,3.0934,3.575,0.0008,-1.886,-1.4639,-0.9216,-2.9013,-2.9247,0.0721,3.0158,0.0428,1.9599,1.8933,1.8433,3.0583,1.6341,2.8686,3.9911,4.2576,2.2048,1.6915,-0.4045,-0.6598,-0.9953,-1.249,1.1079
1.6232,2.817,3.0163,2.8445,2.9245,3.4872,-0.2213,-1.8139,-1.3843,-0.9198,-2.8117,-2.824,-0.3406,2.6179,-0.219,1.8408,1.6497,1.8012,2.7642,1.45,2.5015,3.5262,4.0016,1.7707,1.4946,-0.4291,-0.8131,-0.8562,-1.1302,1.1183
1.4809,2.696,2.8821,2.7166,2.7407,3.3355,-0.4669,-1.7757,-1.3435,-0.9274,-2.6735,-2.603,-0.7423,2.1973,-0.4546,1.7092,1.4041,1.73,2.4581,1.2571,2.1165,3.0419,3.7255,1.3327,1.3191,-0.4391,-0.9416,-0.654,-0.9993,1.0992
1.3542,2.548,2.7574,2.5538,2.5648,3.1457,-0.7132,-1.7787,-1.345,-0.9426,-2.4996,-2.2862,-1.107,1.7857,-0.6274,1.5998,1.1998,1.6391,2.1739,1.0836,1.7487,2.5787,3.4568,0.9197,1.1835,-0.4365,-1.046,-0.4143,-0.8707,1.0871
1.2772,2.4231,2.6834,2.3972,2.4258,2.9555,-0.9301,-1.8206,-1.3842,-0.9567,-2.3059,-1.9115,-1.4047,1.4203,-0.7169,1.546,1.0763,1.5417,1.9466,0.9592,1.4378,2.18,3.2267,0.5635,1.0987,-0.4257,-1.1265,-0.1703,-0.7587,1.1171
1.2756,2.3693,2.6938,2.2906,2.3521,2.805,-1.0869,-1.8902,-1.4503,-0.9573,-2.1104,-1.5244,-1.6076,1.1371,-0.7189,1.5727,1.059,1.4547,1.8061,0.9093,1.2207,1.8851,3.0642,0.2945,1.0657,-0.4132,-1.1826,0.043,-0.6741,1.2108
1.3601,2.4214,2.807,2.2693,2.3637,2.7273,-1.1587,-1.9692,-1.5283,-0.932,-1.9312,-1.1712,-1.6956,0.9642,-0.6435,1.6905,1.1527,1.397,1.7701,0.9489,1.1244,1.7214,2.9895,0.1368,1.0764,-0.4054,-1.2129,0.1952,-0.6227,1.369
1.5236,2.5919,3.0207,2.3512,2.466,2.741,-1.133,-2.0359,-1.6023,-0.8733,-1.7841,-0.8907,-1.6613,0.9157,-0.5116,1.8917,1.3391,1.3842,1.8395,1.078,1.159,1.6979,3.009,0.1045,1.1162,-0.4059,-1.2145,0.2679,-0.6048,1.5714
1.7422,2.8664,3.309,2.5306,2.6458,2.8444,-1.0137,-2.0711,-1.6585,-0.7816,-1.6813,-0.7081,-1.5136,0.9872,-0.3512,2.149,1.5786,1.423,1.9958,1.278,1.3138,1.8022,3.1121,0.1986,1.1685,-0.4131,-1.183,0.2587,-0.6165,1.783
1.9797,3.205,3.6256,2.7777,2.8719,3.0164,-0.8224,-2.0636,-1.6889,-0.667,-1.6305,-0.6315,-1.2784,1.155,-0.1925,2.4197,1.8171,1.5059,2.2027,1.5135,1.5559,2.0002,3.2715,0.4058,1.219,-0.4193,-1.1135,0.1822,-0.6513,1.9636
2.1943,3.5498,3.9112,3.0441,3.0997,3.2198,-0.5958,-2.014,-1.6926,-0.5484,-1.6359,-0.6529,-0.9955,1.3783,-0.0636,2.6528,1.9953,1.6096,2.4105,1.7372,1.835,2.2411,3.448,0.6985,1.2591,-0.4116,-1.003,0.066,-0.7016,2.078
2.346,3.837,4.106,3.2737,3.2804,3.41,-0.3788,-1.9343,-1.6758,-0.4502,-1.6974,-0.7517,-0.7131,1.6068,0.0131,2.7992,2.0608,1.6978,2.5658,1.8993,2.0916,2.4651,3.5968,1.0369,1.2869,-0.3758,-0.8526,-0.0567,-0.7597,2.103
2.4028,4.0108,4.1617,3.4143,3.3708,3.5436,-0.2162,-1.8449,-1.6493,-0.397,-1.8106,-0.8995,-0.4794,1.7893,0.0233,2.8223,1.9783,1.7274,2.6207,1.9582,2.2688,2.6143,3.6762,1.3743,1.3058,-0.3006,-0.6708,-0.1551,-0.8185,2.0324
2.3447,4.035,4.0529,3.4292,3.3417,3.5862,-0.1434,-1.7694,-1.6244,-0.4076,-1.9655,-1.0659,-0.3348,1.8837,-0.0402,2.7053,1.7373,1.6593,2.5429,1.8886,2.3225,2.6428,3.6552,1.6624,1.3219,-0.1826,-0.4734,-0.208,-0.8711,1.8766
2.1662,3.8988,3.782,3.3028,3.1825,3.5169,-0.1807,-1.7281,-1.61,-0.49,-2.1458,-1.2226,-0.3049,1.8637,-0.178,2.4541,1.3534,1.468,2.3213,1.6867,2.2293,2.5246,3.5184,1.8591,1.3395,-0.029,-0.2827,-0.208,-0.9112,1.6602
1.8753,3.617,3.3788,3.0415,2.9013,3.33,-0.3304,-1.7345,-1.6098,-0.6397,-2.3305,-1.3476,-0.3975,1.7224,-0.3871,2.0936,0.863,1.1508,1.9661,1.3685,1.9893,2.2568,3.267,1.9343,1.359,0.1431,-0.1236,-0.1611,-0.9343,1.417
1.493,3.223,2.8942,2.6694,2.5213,3.0333,-0.5779,-1.793,-1.6226,-0.84,-2.4954,-1.4266,-0.6023,1.4709,-0.6612,1.6607,0.3133,0.7314,1.5043,0.9645,1.6233,1.8582,2.9164,1.8748,1.376,0.3102,-0.0182,-0.0836,-0.9383,1.1834
1.0499,2.7609,2.3893,2.2219,2.0753,2.6459,-0.8956,-1.899,-1.6427,-1.0649,-2.617,-1.4532,-0.8937,1.1349,-0.991,1.1954,-0.2494,0.2559,0.9727,0.5125,1.1674,1.3644,2.4928,1.6872,1.3838,0.4491,0.0198,0.0047,-0.9241,0.9927
0.5836,2.276,1.9234,1.739,1.5999,2.1945,-1.249,-2.0404,-1.6615,-1.2839,-2.6757,-1.4279,-1.2359,0.7487,-1.3632,0.7343,-0.7873,-0.2167,0.4111,0.0511,0.6659,0.8207,2.0278,1.3975,1.3763,0.5434,-0.0109,0.0871,-0.8963,0.8697
0.1349,1.8085,1.543,1.2601,1.1301,1.7096,-1.6024,-2.2007,-1.6705,-1.4679,-2.659,-1.3554,-1.5892,0.3495,-1.7586,0.3074,-1.2743,-0.6285,-0.1421,-0.3848,0.1648,0.2764,1.555,1.0481,1.3513,0.5886,-0.0973,0.1554,-0.8622,0.8269
-0.2567,1.3909,1.2753,0.8205,0.6957,1.223,-1.9251,-2.3619,-1.664,-1.5953,-2.5641,-1.2429,-1.9164,-0.0278,-2.1517,-0.0612,-1.6937,-0.9364,-0.6511,-0.7647,-0.2936,-0.2216,1.1073,0.6906,1.313,0.5926,-0.2153,0.2115,-0.8305,0.862
-0.5572,1.0477,1.1254,0.4496,0.3186,0.7638,-2.1964,-2.5093,-1.642,-1.6568,-2.4,-1.0993,-2.1877,-0.3551,-2.5111,-0.3515,-2.0333,-1.1191,-1.083,-1.0639,-0.6753,-0.6324,0.7153,0.3782,1.2715,0.5737,-0.3339,0.2664,-0.8095,0.9573
-0.7429,0.7969,1.0773,0.1698,0.0109,0.3563,-2.4073,-2.6338,-1.6118,-1.6584,-2.1878,-0.9354,-2.3854,-0.6135,-2.8021,-0.5462,-2.2829,-1.1794,-1.4094,-1.2644,-0.9575,-0.9255,0.4057,0.1561,1.2412,0.554,-0.4237,0.3342,-0.8049,1.0818
-0.8029,0.6513,1.1,-0.005,-0.2247,0.0183,-2.5608,-2.7337,-1.5882,-1.6204,-1.9595,-0.7649,-2.5045,-0.7957,-2.9926,-0.6318,-2.4332,-1.1393,-1.6093,-1.3565,-1.1309,-1.0844,0.1976,0.0536,1.2364,0.5527,-0.4636,0.4262,-0.8186,1.1975
-0.741,0.6182,1.1548,-0.0705,-0.3946,-0.2408,-2.669,-2.8143,-1.5897,-1.5736,-1.7535,-0.605,-2.5524,-0.905,-3.059,-0.6019,-2.4783,-1.0323,-1.6737,-1.3416,-1.2001,-1.1098,0.0998,0.0783,1.2672,0.5796,-0.447,0.5442,-0.8484,1.268
-0.5753,0.6983,1.205,-0.0328,-0.5116,-0.4185,-2.7481,-2.8843,-1.6335,-1.5513,-1.608,-0.4754,-2.5462,-0.9551,-2.9936,-0.4611,-2.4186,-0.8957,-1.6083,-1.234,-1.1827,-1.0203,0.1073,0.2151,1.3347,0.6311,-0.3831,0.6775,-0.8879,1.2683
-0.3368,0.8841,1.2235,0.0918,-0.5924,-0.5185,-2.8138,-2.9524,-1.7292,-1.5815,-1.5532,-0.3964,-2.508,-0.9661,-2.809,-0.2272,-2.2626,-0.7624,-1.435,-1.0603,-1.1063,-0.8505,0.2002,0.4286,1.4284,0.6909,-0.2947,0.8039,-0.9284,1.1923
-0.0656,1.1582,1.1973,0.2786,-0.6545,-0.5486,-2.8771,-3.0235,-1.8738,-1.6789,-1.6041,-0.3847,-2.4613,-0.9617,-2.5398,0.0689,-2.0262,-0.6566,-1.1889,-0.8565,-1.0038,-0.6462,0.3452,0.671,1.5275,0.7347,-0.2125,0.8947,-0.9604,1.0557
0.1936,1.4927,1.1282,0.4965,-0.7136,-0.5185,-2.9422,-3.097,-2.0507,-1.8414,-1.7569,-0.4491,-2.4263,-0.9654,-2.2387,0.3867,-1.7311,-0.5903,-0.913,-0.6637,-0.9092,-0.4568,0.5,0.8908,1.6044,0.7367,-0.1664,0.923,-0.9761,0.893
0.3975,1.8495,1.0302,0.7113,-0.7826,-0.44,-3.0076,-3.1668,-2.2325,-2.051,-1.9893,-0.5876,-2.4182,-0.9974,-1.966,0.681,-1.4021,-0.5633,-0.6517,-0.5215,-0.853,-0.3268,0.6206,1.0432,1.6312,0.678,-0.1787,0.8714,-0.9713,0.7487
0.5109,2.1828,0.9248,0.8879,-0.8718,-0.3269,-3.0696,-3.2247,-2.3883,-2.2795,-2.2663,-0.7867,-2.4464,-1.0727,-1.7757,0.9091,-1.0655,-0.5645,-0.4442,-0.4625,-0.8586,-0.2889,0.6687,1.0973,1.5863,0.5519,-0.2589,0.7378,-0.9462,0.665
0.5128,2.444,0.836,0.9945,-0.9891,-0.1972,-3.1254,-3.2633,-2.4922,-2.496,-2.5483,-1.0234,-2.5145,-1.2005,-1.7012,1.0372,-0.7481,-0.5753,-0.3193,-0.5073,-0.9396,-0.3585,0.6191,1.0404,1.4605,0.3659,-0.4026,0.5367,-0.9052,0.6704
0.4021,2.589,0.7841,1.0068,-1.1402,-0.0724,-3.1761,-3.2802,-2.5298,-2.6753,-2.7989,-1.2692,-2.6209,-1.3826,-1.7462,1.0458,-0.4758,-0.5748,-0.2925,-0.6609,-1.0982,-0.5324,0.4646,0.8789,1.2596,0.1405,-0.5928,0.2968,-0.856,0.7722
0.1981,2.5884,0.7815,0.9133,-1.3277,0.0232,-3.2266,-3.279,-2.502,-2.8017,-2.991,-1.4937,-2.7593,-1.6133,-1.8827,0.9344,-0.2721,-0.5464,-0.3648,-0.9111,-1.3251,-0.7907,0.2172,0.6357,1.0041,-0.0957,-0.804,0.0559,-0.8076,0.9537
-0.0609,2.4347,0.8292,0.7187,-1.5495,0.0666,-3.2842,-3.269,-2.4246,-2.8709,-3.1094,-1.6695,-2.918,-1.8787,-2.0574,0.7217,-0.1558,-0.4839,-0.5239,-1.2299,-1.6007,-1.1017,-0.0944,0.3461,0.7266,-0.3114,-1.007,-0.1462,-0.7681,1.1782
-0.3245,2.1461,0.9182,0.4456,-1.7981,0.0403,-3.3556,-3.264,-2.3241,-2.8874,-3.1502,-1.7746,-3.0813,-2.1579,-2.2027,0.443,-0.1394,-0.3959,-0.7482,-1.5777,-1.8984,-1.429,-0.4311,0.0517,0.4661,-0.4785,-1.1731,-0.2736,-0.7436,1.3958
-0.5386,1.7634,1.0326,0.1306,-2.0609,-0.0641,-3.4444,-3.2788,-2.2313,-2.8614,-3.1187,-1.7956,-3.2308,-2.4257,-2.2504,0.1437,-0.2288,-0.3049,-1.0118,-1.91,-2.1896,-1.7392,-0.7508,-0.207,0.2609,-0.5765,-1.2795,-0.3008,-0.7367,1.5544
-0.6543,1.3405,1.1549,-0.1822,-2.3221,-0.2447,-3.55,-3.3266,-2.1744,-2.8047,-3.0261,-1.728,-3.3486,-2.6568,-2.1438,-0.1299,-0.423,-0.2421,-1.2899,-2.1859,-2.4492,-2.0079,-1.0172,-0.3965,0.1416,-0.5951,-1.3117,-0.2153,-0.747,1.6093
-0.6374,0.9324,1.2704,-0.4513,-2.5665,-0.4902,-3.6677,-3.4162,-2.1734,-2.7283,-2.8859,-1.5772,-3.4209,-2.8308,-1.8474,-0.3394,-0.7144,-0.2384,-1.5624,-2.3751,-2.6597,-2.2234,-1.2055,-0.496,0.1258,-0.5346,-1.2656,-0.0188,-0.7715,1.5316
-0.4744,0.582,1.3697,-0.6468,-2.783,-0.7835,-3.7907,-3.5499,-2.2366,-2.6406,-2.7122,-1.3558,-3.4411,-2.9369,-1.3524,-0.4617,-1.0886,-0.3153,-1.817,-2.4636,-2.8146,-2.3861,-1.3066,-0.5006,0.2149,-0.4052,-1.1473,0.2747,-0.8057,1.3131
-0.1758,0.3114,1.4496,-0.7577,-2.968,-1.1058,-3.9131,-3.7235,-2.3601,-2.5481,-2.5182,-1.0825,-3.4115,-2.9772,-0.6786,-0.4933,-1.5257,-0.4783,-2.0489,-2.4564,-2.918,-2.5061,-1.3275,-0.4209,0.3943,-0.2238,-0.9714,0.6422,-0.845,0.9675
0.2254,0.1175,1.5118,-0.7945,-3.1264,-1.4408,-4.032,-3.927,-2.5301,-2.4556,-2.3159,-0.7786,-3.3438,-2.9664,0.1283,-0.4501,-2.0014,-0.7141,-2.2604,-2.3756,-2.9835,-2.5989,-1.2889,-0.2805,0.6375,-0.0112,-0.7582,1.0556,-0.8856,0.5273
0.6807,-0.0237,1.5612,-0.7852,-3.2699,-1.7761,-4.1478,-4.1467,-2.7266,-2.3679,-2.1165,-0.4658,-3.2564,-2.9292,1.0046,-0.3629,-2.4902,-0.9941,-2.4585,-2.2558,-3.0302,-2.6811,-1.2198,-0.111,0.9107,0.2112,-0.5308,1.4851,-0.9248,0.0379
