FP1,F3,F7,FC3,C3,C5,P3,P7,PO7,PO3,O1,Oz,Pz,CPz,FP2,Fz,F4,F8,FC4,FCz,Cz,C4,C6,P4,P8,PO8,PO4,O2,HEOG_left,HEOG_right
1.0375,1.4609,-0.6427,0.8215,0.106,0.097,0.292,-0.8375,-1.1199,-0.0492,0.0925,1.3291,0.7348,0.7217,1.5827,1.4502,2.0114,2.7219,2.0301,1.2352,1.2417,1.5568,1.9728,1.4239,1.6674,1.6324,2.4314,1.2791,-0.3294,0.5543
1.3853,1.5974,0.0037,0.8941,0.4255,0.3305,0.6065,-0.5923,-0.9951,-0.0273,0.0022,1.3259,0.9863,1.1245,1.651,1.7313,2.0168,2.4487,2.0252,1.4683,1.4619,1.613,1.8464,1.4279,1.324,1.279,2.094,1.1981,-0.0458,0.7694
1.6961,1.731,0.6103,0.9757,0.7347,0.5701,0.9283,-0.3131,-0.8318,0.0229,-0.0496,1.3331,1.2326,1.507,1.7072,1.9856,2.0159,2.1795,2.016,1.6901,1.6697,1.6639,1.7254,1.432,1.0011,0.9358,1.7759,1.1172,0.2295,0.9468
1.9322,1.8526,1.1389,1.0676,1.0183,0.8119,1.2555,0.0163,-0.6058,0.1177,-0.0382,1.3562,1.4615,1.8428,1.733,2.182,1.9954,1.9129,1.9896,1.8826,1.8464,1.6984,1.6087,1.431,0.713,0.6123,1.492,1.0342,0.4781,1.0514
2.0668,1.9506,1.5606,1.164,1.2597,1.0448,1.5769,0.3929,-0.311,0.2601,0.0459,1.396,1.6588,2.1066,1.7129,2.2981,1.9443,1.6505,1.9343,2.0294,1.9755,1.705,1.4933,1.419,0.4707,0.3209,1.2532,0.9491,0.6815,1.0628
2.0869,2.0113,1.8568,1.2517,1.4429,1.2511,1.8727,0.7936,0.0394,0.4389,0.195,1.4474,1.8092,2.2768,1.636,2.3217,1.8536,1.3967,1.8403,2.1163,2.0441,1.6724,1.3739,1.3899,0.2815,0.0761,1.0655,0.8637,0.8229,0.9786
1.9927,2.02,2.0192,1.3114,1.5537,1.4087,2.1181,1.1801,0.4157,0.6316,0.3868,1.5001,1.8989,2.3379,1.4978,2.251,1.7172,1.1578,1.7008,2.132,2.0435,1.592,1.2447,1.3387,0.1476,-0.1087,0.9285,0.7811,0.8894,0.8123
1.7949,1.9638,2.0489,1.3215,1.5829,1.497,2.2888,1.5083,0.7799,0.8095,0.5908,1.5404,1.9182,2.2844,1.2998,2.0923,1.5323,0.9383,1.5133,2.0696,1.9696,1.4598,1.1016,1.2627,0.0666,-0.2254,0.8352,0.7044,0.8739,0.5884
1.5128,1.8345,1.9549,1.2633,1.528,1.5012,2.3682,1.7401,1.0949,0.9453,0.7753,1.5544,1.8641,2.1219,1.0487,1.858,1.2996,0.7388,1.2804,1.9271,1.8233,1.2784,0.9437,1.162,0.0309,-0.2739,0.773,0.6345,0.7768,0.3356
1.1712,1.6315,1.7542,1.1262,1.3958,1.4178,2.3518,1.8537,1.3337,1.0193,0.9157,1.5311,1.7417,1.8685,0.7558,1.5642,1.0241,0.5541,1.0098,1.7089,1.6113,1.0573,0.7746,1.0401,0.0289,-0.2645,0.7253,0.5699,0.6073,0.0809
0.798,1.3635,1.4706,0.9117,1.2018,1.2566,2.2492,1.8493,1.4853,1.0244,0.999,1.4659,1.5641,1.5534,0.4351,1.2297,0.7144,0.3746,0.714,1.4266,1.3466,0.8121,0.6017,0.903,0.0463,-0.2159,0.6746,0.5061,0.3819,-0.1548
0.4216,1.0482,1.1326,0.6341,0.969,1.0395,2.082,1.7492,1.5557,0.9665,1.0261,1.3613,1.3509,1.213,0.1027,0.8746,0.3831,0.1894,0.4092,1.0983,1.048,0.5621,0.4346,0.7593,0.069,-0.1511,0.606,0.4373,0.1226,-0.3583
0.0677,0.7097,0.7701,0.3185,0.7234,0.7954,1.8782,1.5911,1.5639,0.8617,1.0086,1.2255,1.1245,0.8857,-0.2234,0.5199,0.0456,-0.0084,0.1137,0.7478,0.7383,0.3272,0.2831,0.6191,0.0851,-0.0923,0.5099,0.3584,-0.1474,-0.5236
-0.2449,0.3741,0.4099,-0.0055,0.4888,0.5537,1.6646,1.4168,1.5333,0.7307,0.9638,1.0696,0.9061,0.6049,-0.5241,0.1871,-0.2806,-0.2185,-0.1545,0.4008,0.4413,0.1252,0.1557,0.4926,0.0878,-0.0546,0.3839,0.2668,-0.4076,-0.6504
-0.5063,0.0643,0.0716,-0.31,0.2814,0.3361,1.4593,1.2595,1.4824,0.5911,0.9069,0.9035,0.7112,0.3931,-0.7808,-0.104,-0.5771,-0.4305,-0.3791,0.082,0.1779,-0.0311,0.0589,0.3888,0.0765,-0.0429,0.2328,0.1639,-0.6435,-0.742
-0.7162,-0.2031,-0.2343,-0.5744,0.1063,0.1516,1.2671,1.1342,1.4172,0.4528,0.8452,0.7337,0.5466,0.2574,-0.977,-0.3367,-0.8261,-0.6258,-0.5478,-0.189,-0.0375,-0.1351,-0.0027,0.3139,0.0578,-0.0505,0.0666,0.0548,-0.8477,-0.8029
-0.882,-0.4206,-0.5047,-0.7886,-0.0422,-0.0049,1.0798,1.0339,1.3291,0.3151,0.7759,0.5628,0.4098,0.189,-1.1004,-0.4996,-1.0127,-0.7814,-0.6536,-0.3998,-0.1994,-0.1873,-0.0261,0.2705,0.0438,-0.0613,-0.1019,-0.0518,-1.0186,-0.8371
-1.0149,-0.5879,-0.7403,-0.9523,-0.1772,-0.1495,0.8803,0.9336,1.1985,0.1704,0.6884,0.3915,0.2914,0.1667,-1.1443,-0.5877,-1.1263,-0.8758,-0.6954,-0.5465,-0.3103,-0.194,-0.0095,0.2572,0.0506,-0.0544,-0.2594,-0.1447,-1.1573,-0.8463
-1.1236,-0.7102,-0.9402,-1.071,-0.3135,-0.3019,0.6505,0.7992,1.0024,0.0084,0.5692,0.2209,0.1788,0.1627,-1.1087,-0.6031,-1.1622,-0.8948,-0.6772,-0.6321,-0.3792,-0.1657,0.0473,0.2694,0.0941,-0.0098,-0.3942,-0.2118,-1.263,-0.8291
-1.2108,-0.7935,-1.0981,-1.1518,-0.461,-0.4776,0.3791,0.5994,0.7238,-0.1774,0.4092,0.0553,0.0617,0.1501,-1.0007,-0.5538,-1.122,-0.835,-0.6069,-0.6648,-0.4171,-0.1144,0.1424,0.3,0.1868,0.0863,-0.4973,-0.2421,-1.3309,-0.7814
-1.2699,-0.8417,-1.202,-1.1983,-0.6202,-0.6806,0.0668,0.3163,0.3595,-0.3857,0.2081,-0.0981,-0.0649,0.1096,-0.8332,-0.4522,-1.0122,-0.7044,-0.4943,-0.6548,-0.434,-0.0516,0.2711,0.3409,0.3332,0.2365,-0.563,-0.2281,-1.3509,-0.6976
-1.2868,-0.8548,-1.2386,-1.2082,-0.781,-0.9011,-0.2714,-0.0479,-0.0762,-0.6063,-0.0226,-0.2304,-0.1983,0.0335,-0.6229,-0.3132,-0.8433,-0.52,-0.35,-0.6115,-0.4361,0.0135,0.4252,0.3836,0.5263,0.4302,-0.5893,-0.1687,-1.3103,-0.573
-1.2434,-0.8289,-1.1986,-1.1737,-0.9249,-1.1164,-0.6092,-0.4703,-0.5521,-0.8217,-0.2618,-0.3328,-0.3288,-0.0734,-0.3879,-0.1518,-0.628,-0.3043,-0.1842,-0.5421,-0.4254,0.0741,0.5935,0.4201,0.7468,0.6445,-0.5777,-0.0707,-1.1989,-0.4062
-1.1246,-0.7595,-1.0829,-1.0846,-1.0295,-1.2966,-0.9138,-0.9109,-1.0245,-1.0105,-0.4824,-0.3996,-0.4427,-0.1962,-0.1451,0.0185,-0.3801,-0.0807,-0.0075,-0.4513,-0.4009,0.126,0.7617,0.4441,0.9651,0.8472,-0.533,0.0511,-1.0139,-0.2011
-0.9254,-0.645,-0.9055,-0.9338,-1.0747,-1.4122,-1.1529,-1.3207,-1.4447,-1.1524,-0.6575,-0.4299,-0.5254,-0.3144,0.0912,0.1855,-0.1153,0.1296,0.1687,-0.3424,-0.3607,0.1659,0.9132,0.4507,1.1464,1.0031,-0.463,0.1762,-0.7646,0.0314
-0.6566,-0.4908,-0.6935,-0.722,-1.0482,-1.4421,-1.3018,-1.6518,-1.7678,-1.232,-0.7657,-0.4284,-0.5654,-0.4071,0.309,0.3379,0.1485,0.3092,0.3311,-0.2197,-0.3046,0.191,1.0298,0.4368,1.2574,1.0808,-0.3774,0.2822,-0.4744,0.2729
-0.3467,-0.3109,-0.4817,-0.4611,-0.9485,-1.3789,-1.3485,-1.8652,-1.9601,-1.2416,-0.796,-0.4048,-0.557,-0.4586,0.4967,0.4642,0.3903,0.444,0.4645,-0.0901,-0.2353,0.1978,1.0929,0.4013,1.273,1.0594,-0.2871,0.3491,-0.1779,0.498
-0.0378,-0.1267,-0.3047,-0.1729,-0.786,-1.2304,-1.2961,-1.9379,-2.005,-1.1818,-0.7493,-0.3729,-0.5018,-0.4617,0.6421,0.552,0.5868,0.5222,0.5524,0.0353,-0.1594,0.1818,1.0854,0.3437,1.1811,0.9326,-0.2037,0.3638,0.0852,0.6774
0.2223,0.0366,-0.1875,0.1138,-0.5804,-1.0175,-1.1616,-1.8649,-1.9044,-1.0609,-0.6384,-0.3474,-0.4081,-0.4193,0.7327,0.5892,0.7146,0.5334,0.5793,0.142,-0.0861,0.1376,0.9944,0.2642,0.9849,0.7102,-0.1382,0.3222,0.2795,0.7825
0.3924,0.1557,-0.1376,0.3697,-0.3563,-0.7676,-0.9718,-1.6579,-1.6771,-0.8924,-0.4846,-0.3414,-0.2902,-0.3437,0.7568,0.5658,0.7549,0.4696,0.5335,0.2138,-0.0269,0.0598,0.8144,0.1628,0.7016,0.4156,-0.1001,0.2288,0.3827,0.7919
0.4481,0.2147,-0.1436,0.5703,-0.1388,-0.5085,-0.7574,-1.343,-1.3551,-0.6928,-0.3137,-0.364,-0.1658,-0.2545,0.707,0.4762,0.6977,0.3275,0.4101,0.236,0.0074,-0.0551,0.5493,0.0394,0.359,0.0813,-0.097,0.0952,0.3927,0.6971
0.3881,0.2081,-0.1779,0.7005,0.0514,-0.2621,-0.5474,-0.9548,-0.9772,-0.4796,-0.151,-0.4189,-0.0545,-0.1745,0.5829,0.3215,0.5453,0.1123,0.2138,0.1986,0.0074,-0.207,0.2137,-0.106,-0.0099,-0.2581,-0.1332,-0.0638,0.3288,0.505
0.2345,0.1418,-0.207,0.7566,0.2008,-0.0411,-0.365,-0.5323,-0.5836,-0.2684,-0.0171,-0.5035,0.0256,-0.1249,0.3928,0.1103,0.3128,-0.1601,-0.0415,0.0989,-0.0319,-0.3905,-0.1688,-0.2726,-0.373,-0.5711,-0.2087,-0.2333,0.2269,0.2373
0.0259,0.0304,-0.2023,0.7448,0.3043,0.1511,-0.2254,-0.1138,-0.2093,-0.072,0.0755,-0.6101,0.0599,-0.1215,0.1532,-0.1422,0.026,-0.4632,-0.3328,-0.0574,-0.1108,-0.5942,-0.5689,-0.458,-0.7032,-0.8339,-0.3192,-0.4006,0.1295,-0.0739
-0.1931,-0.108,-0.1504,0.6786,0.364,0.3174,-0.1355,0.2672,0.1195,0.1013,0.1237,-0.7266,0.0399,-0.1711,-0.1134,-0.4158,-0.2833,-0.7634,-0.6323,-0.2565,-0.2238,-0.8017,-0.9561,-0.657,-0.9813,-1.0319,-0.4549,-0.5561,0.0743,-0.3932
-0.3828,-0.2558,-0.0566,0.5741,0.3864,0.4627,-0.0954,0.5838,0.3881,0.2481,0.1331,-0.8394,-0.0358,-0.2704,-0.3822,-0.6881,-0.5829,-1.0257,-0.9103,-0.478,-0.3602,-0.9932,-1.3032,-0.8616,-1.197,-1.16,-0.6017,-0.6926,0.0839,-0.6873
-0.5176,-0.3995,0.057,0.4469,0.3801,0.5896,-0.1002,0.8174,0.5923,0.3687,0.1148,-0.9355,-0.1605,-0.4076,-0.6297,-0.9371,-0.8445,-1.2196,-1.14,-0.6984,-0.5061,-1.1495,-1.5894,-1.0609,-1.3471,-1.2205,-0.7419,-0.805,0.1605,-0.9302
-0.5896,-0.5312,0.1593,0.3098,0.3517,0.6949,-0.1433,0.9569,0.7348,0.4654,0.0814,-1.0061,-0.3211,-0.5652,-0.8361,-1.1446,-1.0475,-1.3246,-1.3014,-0.8946,-0.6463,-1.2548,-1.8016,-1.2421,-1.434,-1.2213,-0.8571,-0.8893,0.2868,-1.1043
-0.6076,-0.6475,0.2197,0.1719,0.3048,0.7689,-0.2183,0.9977,0.8215,0.5399,0.0426,-1.0475,-0.5008,-0.7248,-0.9869,-1.2984,-1.1796,-1.3333,-1.3834,-1.048,-0.7677,-1.3002,-1.9336,-1.3921,-1.462,-1.1727,-0.931,-0.9428,0.4322,-1.1992
-0.5906,-0.7477,0.2173,0.0385,0.2387,0.7974,-0.3216,0.9411,0.8569,0.5911,0.0028,-1.0625,-0.6827,-0.872,-1.0736,-1.3942,-1.2378,-1.2517,-1.3858,-1.148,-0.8618,-1.2847,-1.9856,-1.4989,-1.4359,-1.0858,-0.9524,-0.9641,0.562,-1.2102
-0.5605,-0.8324,0.146,-0.0877,0.1494,0.7652,-0.4523,0.7933,0.8426,0.6142,-0.0396,-1.0581,-0.8532,-0.9994,-1.0941,-1.4363,-1.2269,-1.0979,-1.3181,-1.1938,-0.9266,-1.2157,-1.9618,-1.554,-1.3594,-0.9702,-0.9179,-0.9535,0.6474,-1.1358
-0.5346,-0.9023,0.016,-0.206,0.0318,0.6613,-0.6115,0.5657,0.7776,0.6022,-0.0905,-1.044,-1.0053,-1.1078,-1.0526,-1.4368,-1.1588,-0.8988,-1.1986,-1.1937,-0.9674,-1.1077,-1.8709,-1.5547,-1.2373,-0.8337,-0.8325,-0.9135,0.6723,-0.9778
-0.5217,-0.9596,-0.1503,-0.3178,-0.1184,0.4819,-0.8007,0.2742,0.6605,0.5475,-0.157,-1.0294,-1.1391,-1.206,-0.9607,-1.4142,-1.051,-0.6858,-1.0519,-1.1647,-0.9963,-0.98,-1.7266,-1.5056,-1.0769,-0.6823,-0.71,-0.8481,0.636,-0.7435
-0.5214,-1.0082,-0.3253,-0.4257,-0.3027,0.2333,-1.0187,-0.0606,0.4928,0.4458,-0.2443,-1.0205,-1.2608,-1.3072,-0.8364,-1.3902,-0.9255,-0.491,-0.9062,-1.1283,-1.0303,-0.8551,-1.5477,-1.4196,-0.8909,-0.5221,-0.5712,-0.7635,0.5517,-0.4484
-0.5277,-1.0546,-0.4851,-0.5328,-0.5175,-0.069,-1.2601,-0.4153,0.281,0.2991,-0.3528,-1.0195,-1.3798,-1.4249,-0.7036,-1.3871,-0.8064,-0.3415,-0.7895,-1.1069,-1.0873,-0.7549,-1.3586,-1.316,-0.6973,-0.3592,-0.4405,-0.6666,0.4414,-0.1181
-0.5332,-1.1061,-0.6163,-0.6419,-0.7537,-0.4018,-1.5141,-0.7644,0.038,0.1181,-0.4763,-1.0233,-1.5036,-1.5676,-0.5887,-1.4233,-0.7166,-0.2559,-0.7255,-1.1187,-1.1817,-0.6979,-1.1856,-1.2171,-0.5172,-0.2012,-0.3416,-0.5642,0.3299,0.2122
-0.533,-1.1683,-0.7187,-0.7524,-0.9958,-0.7373,-1.7656,-1.0829,-0.2169,-0.0784,-0.6017,-1.0241,-1.6342,-1.7347,-0.5157,-1.5092,-0.6733,-0.2419,-0.7289,-1.1732,-1.3192,-0.6951,-1.0532,-1.1427,-0.3697,-0.0555,-0.2919,-0.4623,0.2391,0.5022
-0.5247,-1.2423,-0.8031,-0.8597,-1.2232,-1.0464,-1.9972,-1.348,-0.4601,-0.265,-0.7113,-1.0108,-1.765,-1.9133,-0.5006,-1.6446,-0.6829,-0.2955,-0.8015,-1.2681,-1.4933,-0.7471,-0.9781,-1.1049,-0.2657,0.0719,-0.2994,-0.3648,0.1845,0.7137
-0.5073,-1.3224,-0.8843,-0.9532,-1.4115,-1.3019,-2.1929,-1.542,-0.6676,-0.4148,-0.7865,-0.9713,-1.881,-2.0798,-0.5468,-1.8166,-0.7382,-0.4032,-0.9306,-1.3879,-1.6841,-0.8427,-0.9652,-1.1052,-0.2053,0.1772,-0.3604,-0.2737,0.1746,0.8196
-0.4772,-1.3958,-0.9734,-1.0177,-1.5359,-1.4804,-2.3406,-1.6538,-0.819,-0.5044,-0.8127,-0.8956,-1.9613,-2.2024,-0.6419,-2.0004,-0.8177,-0.5441,-1.0897,-1.506,-1.8607,-0.9602,-1.0059,-1.1331,-0.1778,0.2601,-0.4603,-0.1899,0.212,0.8111
-0.4265,-1.4453,-1.0708,-1.0353,-1.5739,-1.5647,-2.4337,-1.6799,-0.9008,-0.5186,-0.783,-0.7779,-1.984,-2.2479,-0.7592,-2.163,-0.8886,-0.6938,-1.2433,-1.589,-1.9859,-1.0704,-1.0804,-1.1689,-0.165,0.3236,-0.5764,-0.1134,0.2952,0.7007
-0.3439,-1.4527,-1.1638,-0.99,-1.51,-1.5456,-2.472,-1.6246,-0.9087,-0.4529,-0.6999,-0.619,-1.9309,-2.1888,-0.863,-2.2689,-0.9138,-0.8279,-1.354,-1.6039,-2.0245,-1.1429,-1.1623,-1.1886,-0.1468,0.3728,-0.6815,-0.0449,0.4199,0.5195
-0.2187,-1.404,-1.2285,-0.8717,-1.3395,-1.4228,-2.4597,-1.4993,-0.8479,-0.3149,-0.5742,-0.4262,-1.7922,-2.0107,-0.9164,-2.2882,-0.8609,-0.926,-1.3914,-1.5258,-1.9512,-1.1523,-1.2256,-1.17,-0.1062,0.414,-0.7498,0.0147,0.5795,0.3104
-0.0466,-1.2937,-1.2361,-0.6805,-1.0713,-1.2067,-2.4049,-1.3206,-0.7312,-0.1219,-0.423,-0.2131,-1.5699,-1.7175,-0.8924,-2.2049,-0.7119,-0.9756,-1.3397,-1.3458,-1.7589,-1.0853,-1.2517,-1.0984,-0.0335,0.452,-0.7611,0.0636,0.7647,0.1179
0.1656,-1.1274,-1.1617,-0.429,-0.729,-0.9175,-2.3182,-1.1089,-0.5763,0.1015,-0.2651,0.0022,-1.2796,-1.3341,-0.7814,-2.023,-0.4695,-0.9753,-1.2029,-1.076,-1.4628,-0.9446,-1.2344,-0.9724,0.071,0.4883,-0.7057,0.0988,0.9635,-0.0219
0.398,-0.9218,-0.9933,-0.1418,-0.3494,-0.5842,-2.2122,-0.8858,-0.4039,0.3267,-0.1187,0.1996,-0.9493,-0.9048,-0.5959,-1.7686,-0.1592,-0.9358,-1.0055,-0.7498,-1.1011,-0.7505,-1.1821,-0.8053,0.1963,0.5194,-0.5878,0.1166,1.1617,-0.0877
0.6207,-0.7025,-0.7383,0.1481,0.0225,-0.2415,-2.1013,-0.6733,-0.2352,0.5249,0.0007,0.3584,-0.6174,-0.4869,-0.3676,-1.4858,0.1753,-0.8782,-0.7884,-0.4175,-0.7289,-0.5372,-1.1158,-0.6245,0.3218,0.5367,-0.4253,0.1115,1.3459,-0.0756
0.801,-0.4991,-0.4234,0.4046,0.3396,0.0748,-2.0016,-0.4923,-0.0911,0.6698,0.0805,0.4596,-0.3271,-0.1416,-0.1407,-1.2284,0.4818,-0.8289,-0.5993,-0.1365,-0.4086,-0.3459,-1.0635,-0.4661,0.4215,0.5282,-0.2478,0.0773,1.5062,0.0028
0.9113,-0.3393,-0.0896,0.5946,0.5605,0.3317,-1.9306,-0.3618,0.0091,0.7411,0.1117,0.4884,-0.1201,0.0766,0.0402,-1.0478,0.7114,-0.8138,-0.4826,0.0405,-0.1975,-0.2163,-1.053,-0.3672,0.4703,0.4818,-0.0908,0.0085,1.6391,0.1256
0.9364,-0.2451,0.2171,0.6933,0.6559,0.5036,-1.9061,-0.2973,0.0492,0.7271,0.0889,0.4362,-0.0295,0.1297,0.1399,-0.9815,0.8296,-0.8513,-0.469,0.0761,-0.1364,-0.1781,-1.1035,-0.3575,0.4502,0.3889,0.0121,-0.098,1.7484,0.2658
0.876,-0.2298,0.4558,0.687,0.6125,0.5747,-1.944,-0.3092,0.0184,0.626,0.0114,0.3021,-0.0746,0.0025,0.1405,-1.0464,0.8232,-0.9474,-0.5698,-0.044,-0.2424,-0.2453,-1.2219,-0.452,0.356,0.2484,0.0365,-0.2399,1.843,0.3973
0.7426,-0.2976,0.5975,0.574,0.434,0.5409,-2.0552,-0.4011,-0.0862,0.4467,-0.1161,0.0937,-0.2575,-0.2963,0.044,-1.2369,0.7014,-1.0942,-0.7753,-0.3101,-0.5077,-0.4152,-1.4002,-0.6478,0.1971,0.0686,-0.0264,-0.4089,1.9322,0.499
0.5563,-0.4452,0.6287,0.3628,0.1392,0.4081,-2.2433,-0.5683,-0.2582,0.2069,-0.2825,-0.1741,-0.5636,-0.7366,-0.131,-1.5288,0.4916,-1.2718,-1.0586,-0.6914,-0.9028,-0.6702,-1.6187,-0.9246,-0.0038,-0.1335,-0.168,-0.5912,2.0199,0.5569
0.3382,-0.6636,0.5513,0.0699,-0.2432,0.1899,-2.5021,-0.7984,-0.4808,-0.0703,-0.4724,-0.4811,-0.965,-1.2744,-0.3558,-1.8865,0.2318,-1.4532,-1.3824,-1.1446,-1.3845,-0.9833,-1.8508,-1.2495,-0.2151,-0.3346,-0.3639,-0.7701,2.1009,0.5656
0.1046,-0.9408,0.3778,-0.284,-0.68,-0.096,-2.8162,-1.0715,-0.7281,-0.3599,-0.6674,-0.8055,-1.4255,-1.8599,-0.6005,-2.2724,-0.0391,-1.612,-1.7079,-1.6236,-1.9048,-1.3241,-2.069,-1.5845,-0.4027,-0.5102,-0.5797,-0.9303,2.1594,0.5268
-0.1359,-1.2637,0.1265,-0.6774,-1.1389,-0.4314,-3.1621,-1.3626,-0.9672,-0.6396,-0.8494,-1.1266,-1.9067,-2.4461,-0.8413,-2.654,-0.2889,-1.7283,-2.0024,-2.0884,-2.4196,-1.6653,-2.251,-1.8944,-0.5367,-0.639,-0.779,-1.0616,2.1718,0.4472
-0.3826,-1.6202,-0.1852,-1.0902,-1.5928,-0.7989,-3.5107,-1.6435,-1.162,-0.8914,-1.0027,-1.4275,-2.3721,-2.9942,-1.0651,-3.0102,-0.4985,-1.7934,-2.2449,-2.5114,-2.8945,-1.9863,-2.3833,-2.1527,-0.5963,-0.7065,-0.9302,-1.1613,2.1132,0.336
-0.6399,-1.9989,-0.5442,-1.5054,-2.02,-1.1825,-3.8306,-1.8854,-1.2774,-1.1021,-1.1148,-1.695,-2.7895,-3.4751,-1.271,-3.3324,-0.6636,-1.8115,-2.4283,-2.8799,-3.3068,-2.2752,-2.4627,-2.3451,-0.5739,-0.7079,-1.0117,-1.2348,1.9639,0.2013
-0.9132,-2.3894,-0.942,-1.9077,-2.4035,-1.5656,-4.0908,-2.0616,-1.2848,-1.2627,-1.1775,-1.9198,-3.1315,-3.8688,-1.4668,-3.623,-0.7928,-1.7976,-2.5586,-3.1931,-3.644,-2.5271,-2.4948,-2.4685,-0.4756,-0.6481,-1.0137,-1.2922,1.7167,0.0488
-1.2049,-2.78,-1.3713,-2.283,-2.7287,-1.9296,-4.2642,-2.1514,-1.1677,-1.367,-1.1873,-2.0952,-3.376,-4.1611,-1.6646,-3.8911,-0.9022,-1.7736,-2.6495,-3.4569,-3.9004,-2.7413,-2.4911,-2.5278,-0.3194,-0.5409,-0.9377,-1.3457,1.3792,-0.12
-1.5109,-3.1568,-1.8214,-2.6165,-2.982,-2.2541,-4.3316,-2.1436,-0.9275,-1.4118,-1.1469,-2.2171,-3.5063,-4.3414,-1.8741,-4.1457,-1.009,-1.7633,-2.717,-3.677,-4.0721,-2.9172,-2.4649,-2.5311,-0.1311,-0.4057,-0.7935,-1.4047,0.9741,-0.3065
-1.8196,-3.5019,-2.2732,-2.8919,-3.1499,-2.5176,-4.2847,-2.0398,-0.5861,-1.397,-1.0662,-2.2834,-3.5121,-4.4007,-2.0974,-4.3891,-1.1235,-1.7851,-2.7713,-3.8528,-4.1536,-3.0505,-2.4267,-2.4849,0.0619,-0.2639,-0.5953,-1.473,0.5353,-0.5127
-2.1108,-3.792,-2.6969,-3.0902,-3.2197,-2.7005,-4.1276,-1.8551,-0.1857,-1.3271,-0.962,-2.2934,-3.3897,-4.3317,-2.3253,-4.6116,-1.2435,-1.8468,-2.8119,-3.9737,-4.1348,-3.1308,-2.3808,-2.3909,0.2365,-0.1339,-0.3576,-1.5461,0.1042,-0.7367
-2.3571,-3.998,-3.0521,-3.1899,-3.1796,-2.7863,-3.8748,-1.6161,0.2174,-1.21,-0.8552,-2.2468,-3.1415,-4.1279,-2.5361,-4.7886,-1.3513,-1.9411,-2.8248,-4.0179,-4.0014,-3.1406,-2.3235,-2.2447,0.3787,-0.0271,-0.091,-1.6105,-0.2752,-0.9684
-2.525,-4.0866,-3.2917,-3.1674,-3.0198,-2.7626,-3.5479,-1.3563,0.5622,-1.0561,-0.7667,-2.1418,-2.7754,-3.785,-2.6977,-4.8826,-1.4153,-2.0451,-2.7832,-3.9547,-3.7358,-3.0577,-2.2434,-2.0362,0.4853,0.0545,0.1998,-1.6447,-0.5595,-1.1866
-2.578,-4.0245,-3.369,-2.9997,-2.7327,-2.6207,-3.169,-1.1098,0.7942,-0.876,-0.7121,-1.9746,-2.3025,-3.3015,-2.7727,-4.849,-1.3949,-2.1237,-2.6531,-3.7505,-3.3212,-2.8582,-2.1236,-1.7536,0.5628,0.1174,0.517,-1.6226,-0.7095,-1.359
-2.4821,-3.7849,-3.2458,-2.6689,-2.3144,-2.3559,-2.7575,-0.9053,0.875,-0.6789,-0.6993,-1.7404,-1.7367,-2.6804,-2.7243,-4.6454,-1.25,-2.1361,-2.4018,-3.3763,-2.7462,-2.5232,-1.9464,-1.3877,0.6232,0.1741,0.8674,-1.5189,-0.6936,-1.4459
-2.2123,-3.3548,-2.9017,-2.1676,-1.7675,-1.9684,-2.3277,-0.7629,0.7881,-0.472,-0.7273,-1.4364,-1.0942,-1.9321,-2.5241,-4.2434,-0.9513,-2.0459,-2.0069,-2.8166,-2.0103,-2.0441,-1.6981,-0.9366,0.679,0.2381,1.2594,-1.3155,-0.4916,-1.4077
-1.7599,-2.7405,-2.34,-1.5034,-1.1033,-1.4647,-1.8905,-0.6919,0.5396,-0.2611,-0.788,-1.0647,-0.3949,-1.0766,-2.1581,-3.6368,-0.4892,-1.8295,-1.4643,-2.0762,-1.1284,-1.4279,-1.3738,-0.4092,0.7391,0.3196,1.6983,-1.0065,-0.0977,-1.213
-1.1365,-1.9686,-1.5891,-0.7006,-0.3433,-0.8598,-1.4559,-0.6923,0.1551,-0.0515,-0.8694,-0.6354,0.3377,-0.1445,-1.6298,-2.8462,0.1233,-1.4819,-0.79,-1.182,-0.1312,-0.6981,-0.9786,0.1743,0.8067,0.421,2.1818,-0.6007,0.4779,-0.8458
-0.3736,-1.0818,-0.6976,0.2027,0.4814,-0.1771,-1.0359,-0.7564,-0.3262,0.1507,-0.9574,-0.1671,1.077,0.8253,-0.9598,-1.9156,0.8539,-1.0169,-0.0166,-0.1792,0.9377,0.1086,-0.5264,0.785,0.8792,0.5363,2.6972,-0.1212,1.21,-0.3097
0.4834,-0.1299,0.2753,1.1612,1.3342,0.5533,-0.6448,-0.8714,-0.859,0.3388,-1.0389,0.3153,1.7957,1.7908,-0.1817,-0.9021,1.6601,-0.4618,0.8155,0.8786,2.0289,0.951,-0.0345,1.3906,0.9507,0.651,3.221,0.3983,2.0617,0.3731
1.3847,0.8392,1.2711,2.1303,2.1773,1.2983,-0.2979,-1.0211,-1.3981,0.506,-1.1031,0.7836,2.4685,2.7129,0.6653,0.1367,2.5013,0.151,1.6685,1.9405,3.0959,1.7907,0.4815,1.9613,1.0146,0.7456,3.7213,0.9189,2.9892,1.1668
2.2852,1.7873,2.2404,3.0727,2.9775,2.0255,-0.0096,-1.188,-1.9036,0.6466,-1.1427,1.2107,3.0745,3.5608,1.5429,1.1536,3.347,0.7921,2.5143,2.9665,4.1007,2.5994,1.0119,2.4739,1.0662,0.7995,4.162,1.4027,3.946,2.0296
3.1498,2.6881,3.1481,3.9607,3.708,2.7068,0.209,-1.3552,-2.3446,0.7562,-1.1552,1.5729,3.5974,4.3135,2.4183,2.117,4.1795,1.4405,3.336,3.9307,5.0163,3.3593,1.5524,2.9141,1.1031,0.7959,4.5085,1.8172,4.8875,2.9199
3.9553,3.5246,3.9733,4.7748,4.3496,3.3198,0.3504,-1.5075,-2.7009,0.8321,-1.1434,1.8517,4.0248,4.9588,3.2663,3.0094,4.9905,2.0832,4.1244,4.818,5.8249,4.06,2.1009,3.2749,1.125,0.7246,4.7338,2.1382,5.7729,3.8007
4.6874,4.2844,4.7056,5.5002,4.8885,3.8482,0.4114,-1.6337,-2.9633,0.8726,-1.1145,2.0338,4.3466,5.4896,4.0668,3.8213,5.7735,2.7124,4.8718,5.6184,6.5138,4.6934,2.6524,3.5539,1.1324,0.5852,4.8222,2.3503,6.5675,4.6417
5.3376,4.955,5.34,6.1229,5.3145,4.2812,0.3922,-1.7265,-3.1321,0.8774,-1.079,2.1109,4.554,5.8995,4.8024,4.5444,6.5159,3.3203,5.5655,6.3202,7.072,5.2486,3.1946,3.7504,1.1251,0.387,4.7721,2.4472,7.2439,5.4179
5.8986,5.5212,5.8708,6.6276,5.6193,4.6119,0.2963,-1.7835,-3.2145,0.848,-1.0468,2.0809,4.6399,6.1812,5.4547,5.1661,7.195,3.8946,6.1851,6.9066,7.4881,5.7099,3.7058,3.8634,1.1019,0.1485,4.5958,2.4302,7.7837,6.1085
6.3618,5.9648,6.2891,6.997,5.7952,4.836,0.1306,-1.806,-3.2214,0.7878,-1.0246,1.9485,4.6007,6.3255,6.0035,5.667,7.7776,4.4167,6.7022,7.3547,7.7504,6.0575,4.1563,3.8911,1.0611,-0.1057,4.3169,2.3083,8.1787,6.6952
6.7159,6.2667,6.5823,7.2147,5.8369,4.951,-0.0947,-1.7983,-3.164,0.7034,-1.0133,1.7268,4.4389,6.3247,6.4279,6.0234,8.2254,4.8622,7.0848,7.6397,7.8495,6.2717,4.5129,3.8325,1.0018,-0.3484,3.9671,2.0974,8.4319,7.1623
6.9488,6.4117,6.7371,7.2685,5.7441,4.9568,-0.3652,-1.7658,-3.0516,0.6046,-1.0075,1.4372,4.1655,6.1771,6.7103,6.2128,8.5039,5.2052,7.3049,7.7411,7.7825,6.3383,4.7456,3.6899,0.9258,-0.5538,3.5821,1.8201,8.556,7.4976
7.0504,6.3925,6.7448,7.1554,5.5244,4.8569,-0.6617,-1.7143,-2.8908,0.5045,-0.9963,1.1087,3.8028,5.8923,6.8402,6.2205,8.5913,5.4236,7.3462,7.6502,7.5579,6.2544,4.8352,3.4729,0.8395,-0.701,3.198,1.5051,8.572,7.6947
7.0178,6.2143,6.6074,6.8857,5.1967,4.6613,-0.9604,-1.6478,-2.6854,0.4195,-0.9655,0.7751,3.3847,5.4956,6.8186,6.0471,8.4862,5.5041,7.2108,7.3765,7.199,6.0322,4.7786,3.2006,0.7546,-0.7759,2.8486,1.1855,8.505,7.7548
6.8589,5.897,6.341,6.4847,4.7915,4.3881,-1.2343,-1.5688,-2.4381,0.3671,-0.9012,0.4709,2.9543,5.0278,6.6584,5.7113,8.2094,5.4452,6.9216,6.9497,6.7443,5.699,4.5911,2.9016,0.6866,-0.7728,2.5625,0.8954,8.381,7.688
6.5946,5.4737,5.9759,5.9919,4.3486,4.0629,-1.4558,-1.4778,-2.1523,0.3636,-0.7923,0.2271,2.5597,4.5413,6.383,5.2492,7.8012,5.2582,6.5184,6.4165,6.2441,5.2933,4.3037,2.6109,0.6521,-0.693,2.3606,0.6663,8.2239,7.5128
6.2575,4.9874,5.5527,5.4554,3.9119,3.7175,-1.6009,-1.3742,-1.8338,0.4209,-0.6336,0.0671,2.2462,4.0923,6.0226,4.7086,7.3133,4.9647,6.0521,5.8337,5.7531,4.8595,3.9567,2.3637,0.6652,-0.545,2.2543,0.5229,8.0521,7.2546
5.8881,4.4851,5.1159,4.926,3.523,3.3856,-1.6529,-1.2582,-1.4925,0.544,-0.4262,0.004,2.0497,3.7322,5.61,4.1424,6.8,4.5945,5.5751,5.2598,5.3232,4.4412,3.5929,2.1901,0.7337,-0.3419,2.2449,0.4801,7.8784,6.9432
5.5284,4.0118,4.7069,4.4492,3.2153,3.0977,-1.6059,-1.1316,-1.1422,0.7294,-0.1783,0.0401,1.9911,3.4994,5.1786,3.6011,6.3106,4.1822,5.1343,4.7468,4.9959,4.077,3.2519,2.1097,0.8585,-0.1005,2.3249,0.541,7.71,6.6093
5.216,3.605,4.359,4.0603,3.0102,2.877,-1.4652,-0.9996,-0.8003,0.9663,0.0962,0.1672,2.0739,3.4149,4.7605,3.1275,5.8841,3.7639,4.7661,4.3347,4.7983,3.7976,2.9652,2.1299,1.0332,0.1612,2.4806,0.6981,7.5504,6.2827
4.979,3.2916,4.0944,3.7804,2.9153,2.7362,-1.2459,-0.8704,-0.4861,1.2381,0.3799,0.3689,2.2854,3.4815,4.3861,2.7531,5.5466,3.3749,4.4941,4.0486,4.7412,3.6238,2.7554,2.2467,1.2463,0.4257,2.6963,0.9351,7.403,5.9895
4.8322,3.0857,3.9238,3.6162,2.9258,2.6764,-0.9701,-0.7549,-0.2183,1.5259,0.6539,0.6234,2.6008,3.6856,4.0825,2.4962,5.311,3.0466,4.3284,3.8978,4.82,3.5663,2.6346,2.4471,1.4847,0.6783,2.9573,1.2304,7.2721,5.7507
4.7763,2.9887,3.8461,3.5618,3.027,2.6884,-0.6618,-0.6648,-0.0122,1.8124,0.9011,0.9066,2.9882,4.002,3.8702,2.3613,5.1777,2.8029,4.2671,3.8763,5.0169,3.625,2.6047,2.7129,1.7353,0.9085,3.252,1.5604,7.1642,5.5796
4.7992,2.9899,3.8501,3.6012,3.1987,2.7563,-0.3429,-0.6094,0.1233,2.0837,1.1078,1.1946,3.4153,4.3988,3.7588,2.339,5.1358,2.6567,4.2976,3.9653,5.3043,3.7888,2.658,3.0234,1.9873,1.1107,3.5712,1.902,7.0861,5.48
4.8786,3.0686,3.9161,3.7127,3.419,2.8614,-0.0298,-0.593,0.1877,2.3311,1.2655,1.4664,3.8527,4.8422,3.7433,2.4073,5.1641,2.6068,4.3984,4.1364,5.6485,4.0369,2.7776,3.3575,2.2315,1.2839,3.9067,2.2344,7.0421,5.4452
4.9869,3.1961,4.0181,3.8713,3.6676,2.9861,0.2682,-0.6133,0.1894,2.5508,1.371,1.7052,4.2766,5.2997,3.8022,2.534,5.2339,2.6373,4.5416,4.3548,6.0142,4.3397,2.9396,3.6946,2.4597,1.4297,4.2482,2.5389,7.0319,5.4581
5.0954,3.3398,4.127,4.0522,3.9269,3.1169,0.5475,-0.6605,0.1446,2.7417,1.4257,1.8993,4.6689,5.7416,3.9004,2.6808,5.3128,2.7207,4.6962,4.5842,6.3674,4.6627,3.1162,4.0151,2.6634,1.5498,4.5815,2.7986,7.0491,5.4948
5.1796,3.4672,4.2155,4.2325,4.182,3.2453,0.8081,-0.7189,0.0745,2.904,1.4348,2.0416,5.016,6.1415,3.9962,2.8088,5.3697,2.8236,4.8324,4.7907,6.6787,4.9703,3.2797,4.3012,2.8338,1.6451,4.8887,2.9992,7.0826,5.5299
5.2228,3.5509,4.2617,4.3932,4.4206,3.367,1.0497,-0.7696,0.0019,3.0384,1.4071,2.1305,5.3077,6.4778,4.0499,2.8849,5.3801,2.9148,4.9266,4.947,6.9259,5.231,3.4076,4.5385,2.9629,1.7141,5.1502,3.1295,7.119,5.5424
5.2188,3.5733,4.253,4.5204,4.6317,3.4807,1.2696,-0.7943,-0.0518,3.1454,1.3539,2.17,5.5366,6.7341,4.0335,2.8872,5.3312,2.9727,4.9653,5.0354,7.0953,5.4227,3.4866,4.7179,3.0457,1.7544,5.3481,3.1843,7.1458,5.5209
5.1712,3.5285,4.1881,4.6061,4.8065,3.5863,1.4623,-0.7785,-0.0693,3.227,1.2895,2.1706,5.6988,6.9015,3.9356,2.8084,5.2233,2.9899,4.947,5.0492,7.1821,5.5354,3.5151,4.8371,3.0818,1.7647,5.4707,3.1658,7.1539,5.465
5.0906,3.4229,4.0758,4.6482,4.938,3.6834,1.6202,-0.7145,-0.0399,3.2879,1.2299,2.1489,5.7946,6.9798,3.763,2.6553,5.0687,2.9729,4.8812,4.9917,7.1904,5.5731,3.5033,4.9015,3.0776,1.7476,5.5153,3.0855,7.1384,5.3829
4.9908,3.2731,3.9336,4.6499,5.0231,3.7714,1.737,-0.6021,0.0404,3.3357,1.1913,2.1263,5.8297,6.9789,3.536,2.4463,4.8874,2.9389,4.7851,4.875,7.1318,5.552,3.4704,4.9234,3.0464,1.711,5.4906,2.9632,7.0974,5.2868
4.8843,3.1025,3.7835,4.6193,5.0635,3.8489,1.8108,-0.4479,0.1686,3.3811,1.1889,2.1253,5.816,6.9181,3.2818,2.2063,4.7026,2.909,4.6798,4.7171,7.0248,5.4976,3.4413,4.9206,3.0074,1.6692,5.4155,2.8254,7.0303,5.1869
4.779,2.937,3.6484,4.5681,5.0677,3.9165,1.848,-0.263,0.3363,3.4368,1.2338,2.1663,5.7722,6.8253,3.0272,1.9624,4.5364,2.9029,4.5868,4.541,6.8939,5.4414,3.4418,4.9151,2.9846,1.6413,5.3174,2.7008,6.9351,5.0866
4.6784,2.8017,3.5484,4.5121,5.052,3.9774,1.8634,-0.0598,0.5322,3.5155,1.3316,2.262,5.723,6.7347,2.7936,1.741,4.4075,2.935,4.5267,4.3736,6.7689,5.4166,3.496,4.9301,3.0029,1.6483,5.2278,2.6155,6.808,4.981
4.5826,2.718,3.4986,4.4703,5.0402,4.0396,1.8804,0.1507,0.7439,3.6287,1.4809,2.415,5.6977,6.6835,2.595,1.5666,4.3316,3.0136,4.5194,4.2452,6.6842,5.4564,3.6237,4.9885,3.085,1.7091,5.1778,2.5885,6.6439,4.8594
4.4914,2.7024,3.507,4.4648,5.0619,4.1162,1.927,0.3606,0.9599,3.7844,1.6724,2.6161,5.728,6.7088,2.439,1.4614,4.323,3.1435,4.5851,4.1887,6.6761,5.5909,3.8397,5.1101,3.2469,1.8366,5.194,2.6284,6.44,4.7096
4.4072,2.7655,3.5746,4.5186,5.1484,4.2238,2.0311,0.5658,1.1705,3.9865,1.8898,2.8464,5.8435,6.8435,2.3299,1.446,4.396,3.3279,4.7443,4.2369,6.7801,5.8453,4.1532,5.3099,3.4949,2.0344,5.2941,2.7326,6.1979,4.5235
4.3371,2.913,3.6951,4.6529,5.3276,4.3796,2.2148,0.7654,1.3684,4.2342,2.1129,3.0816,6.0672,7.1119,2.2712,1.5381,4.5652,3.5707,5.0164,4.4186,7.0253,6.2368,4.5678,5.5963,3.8249,2.2965,5.4853,2.8887,5.926,4.3003
4.2919,3.1447,3.8563,4.8831,5.6179,4.5973,2.4896,0.9605,1.5489,4.5219,2.3213,3.2981,6.4111,7.5255,2.2667,1.751,4.8433,3.8763,5.4161,4.7533,7.4301,6.7718,5.0805,5.9697,4.2221,2.6084,5.7634,3.0794,5.6386,4.048
4.2842,3.4551,4.0416,5.2141,6.0235,4.8824,2.8531,1.1525,1.7099,4.8398,2.4989,3.4789,6.8724,8.0807,2.32,2.0909,5.237,4.2465,5.9492,5.2466,7.9973,7.4428,5.6809,6.4219,4.664,2.9505,6.1141,3.2879,5.3532,3.7811
4.3238,3.8324,4.2308,5.638,6.5319,5.2293,3.2894,1.3423,1.8517,5.1758,2.6378,3.6178,7.4338,8.7572,2.4318,2.5538,5.7425,4.678,6.6078,5.8875,8.7124,8.2278,6.3497,6.9376,5.1231,3.3023,6.5163,3.503,5.0859,3.5163
4.4131,4.2583,4.4025,6.1341,7.1153,5.6206,3.7713,1.5289,1.9772,5.5169,2.7399,3.7203,8.0646,9.5208,2.5976,3.1233,6.3426,5.1583,7.3685,6.6486,9.5443,9.0914,7.0595,7.4954,5.5709,3.6464,6.9461,3.7225,4.847,3.2667
4.5435,4.7091,4.5363,6.6719,7.7352,6.0297,4.2662,1.7096,2.0912,5.851,2.8163,3.8017,8.7267,10.3279,2.8051,3.7714,7.0068,5.6651,8.1937,7.4889,10.4496,9.9883,7.7757,8.0706,5.9814,3.9712,7.3818,3.9528,4.6376,3.0384
4.696,5.1583,4.6154,7.2175,8.3502,6.426,4.7421,1.8811,2.1996,6.1694,2.8842,3.8831,9.381,11.1329,3.0358,4.4611,7.6956,6.1677,9.0364,8.3607,11.3785,10.8704,8.4612,8.6386,6.3337,4.271,7.8067,4.2049,4.4499,2.8278
4.8445,5.5811,4.6307,7.7399,8.9241,6.782,5.1744,2.0408,2.3089,6.4677,2.9623,3.9851,9.9948,11.8959,3.2674,5.1521,8.3673,6.6319,9.8487,9.2172,12.2831,11.6934,9.0813,9.1777,6.6144,4.5448,8.2121,4.4891,4.2695,2.6237
4.9626,5.9595,4.5845,8.218,9.4328,7.0795,5.5494,2.1883,2.4248,6.7462,3.0652,4.1239,10.5468,12.5891,3.4792,5.807,8.9859,7.0268,10.5899,10.0201,13.1246,12.4244,9.6104,9.6722,6.8186,4.7937,8.5967,4.809,4.0799,2.4119
5.0312,6.2871,4.4918,8.6438,9.8682,7.3137,5.8662,2.3265,2.5511,7.0096,3.1997,4.3069,11.0296,13.2003,3.657,6.3983,9.5281,7.3314,11.2339,10.746,13.8786,13.0459,10.0359,10.1134,6.9502,5.0175,8.9642,5.1579,3.868,2.181
5.0443,6.5703,4.3795,9.023,10.2377,7.4946,6.134,2.4607,2.6885,7.2639,3.3615,4.5311,11.4477,13.7322,3.7965,6.9124,9.9866,7.5405,11.7726,11.3878,14.5362,13.5567,10.3603,10.4997,7.0208,5.2123,9.3187,5.5177,3.6282,1.9275
5.0113,6.8262,4.2822,9.3712,10.5602,7.6433,6.3681,2.597,2.8336,7.5139,3.5362,4.7833,11.813,14.198,3.9046,7.35,10.3694,7.6657,12.214,11.9528,15.1026,13.9688,10.5991,10.8342,7.0476,5.3701,9.6603,5.8615,3.3653,1.6594
4.9559,7.0777,4.2352,9.7083,10.8597,7.7873,6.5836,2.7406,2.9793,7.7597,3.7018,5.0419,12.1382,14.6148,3.997,7.7241,10.696,7.7324,12.5774,12.4579,15.5912,14.3016,10.7753,11.1216,7.0496,5.4796,9.9814,6.1586,3.095,1.3956
4.9102,7.3473,4.2683,10.0529,11.1589,7.954,6.7912,2.8933,3.1147,7.9958,3.8329,5.2803,12.4325,14.9975,4.0955,8.0552,10.9909,7.7734,12.8859,12.9224,16.0184,14.5755,10.9133,11.3653,7.044,5.5286,10.2659,6.3794,2.8422,1.162
4.9079,7.6514,4.4006,10.4176,11.474,8.1646,6.9941,3.0529,3.227,8.2104,3.9058,5.4708,12.6977,15.3542,4.2224,8.3655,11.2769,7.8197,13.16,13.3627,16.3983,14.8069,11.0328,11.5654,7.0431,5.5069,10.4913,6.5012,2.6369,0.9852
4.9754,7.9967,4.6375,10.8073,11.8123,8.43,7.1879,3.2131,3.3035,8.3872,3.9024,5.5884,12.9287,15.6848,4.3948,8.6741,11.5694,7.8932,13.4127,13.7881,16.7396,15.0051,11.145,11.718,7.0515,5.4088,10.6321,6.5109,2.5085,0.8845
5.1247,8.3792,4.9714,11.218,12.1707,8.7492,7.3619,3.3645,3.3338,8.5085,3.8132,5.6141,13.1149,15.9815,4.6197,8.9922,11.8727,8.0013,13.6475,14.1988,17.0449,15.1726,11.2507,11.816,7.0653,5.2341,10.6656,6.4065,2.4793,0.8656
5.3496,8.7846,5.382,11.6378,12.537,9.1089,7.5014,3.4963,3.3121,8.5589,3.6385,5.5373,13.2432,16.2314,4.8899,9.3203,12.1781,8.1353,13.8584,14.586,17.3108,15.3056,11.341,11.8508,7.0728,4.9884,10.5765,6.1968,2.5584,0.9174
5.6249,9.1895,5.8387,12.0472,12.891,9.4856,7.5918,3.5989,3.239,8.5292,3.3889,5.3578,13.3022,16.419,5.183,9.6472,12.4654,8.2731,14.0324,14.9326,17.529,15.3962,11.3995,11.8147,7.0577,4.6834,10.3622,5.9002,2.7374,1.013
5.9107,9.5646,6.3035,12.4216,13.2077,9.8498,7.622,3.6662,3.1231,8.421,3.0855,5.0881,13.2847,16.5302,5.4642,9.9512,12.7065,8.3851,14.1523,15.2165,17.6881,15.4356,11.4071,11.7041,7.003,4.3367,10.0356,5.5441,2.9903,1.1152
6.1599,9.8796,6.7346,12.7346,13.4615,10.171,7.588,3.6978,2.9812,8.2486,2.7591,4.7538,13.1915,16.5553,5.6924,10.2051,12.8714,8.4408,14.2016,15.4148,17.7766,15.4164,11.347,11.5232,6.8976,3.9718,9.6259,5.1635,3.2755,1.1845
6.3271,10.1076,7.0918,12.9631,13.6312,10.4235,7.4963,3.7,2.8368,8.0402,2.448,4.3921,13.033,16.4928,5.828,10.3822,12.9352,8.4173,14.1691,15.5093,17.7859,15.3359,11.2103,11.2856,6.7402,3.6179,9.1761,4.7987,3.543,1.1877
6.3776,10.2314,7.3426,13.0923,13.7051,10.591,7.3632,3.6853,2.7171,7.8342,2.1939,4.0474,12.8285,16.3516,5.8417,10.4626,12.8845,8.3038,14.0527,15.4919,17.7149,15.1983,11.0004,11.0152,6.542,3.307,8.738,4.491,3.7426,1.1048
6.2953,10.2467,7.4672,13.1201,13.6842,10.6695,7.2129,3.6696,2.6479,7.6729,2.0349,3.7647,12.6048,16.1516,5.7216,10.4391,12.7221,8.1055,13.8625,15.3686,17.5718,15.0161,10.7339,10.7436,6.3261,3.0707,8.3645,4.2769,3.8348,0.933
6.0867,10.1644,7.4625,13.0593,13.5831,10.6682,7.0732,3.6694,2.6485,7.5937,1.9989,3.5827,12.3922,15.9223,5.4764,10.3191,12.4678,7.8431,13.6197,15.1607,17.3757,14.8095,10.4397,10.5054,6.1226,2.9352,8.1022,4.1822,3.7997,0.6877
5.7813,10.0097,7.3441,12.9364,13.4284,10.6072,6.9701,3.6977,2.7275,7.6221,2.0979,3.5281,12.2199,15.6991,5.1351,10.1246,12.1559,7.55,13.355,14.9024,17.1541,14.6041,10.1535,10.3329,5.9625,2.9169,7.9843,4.2176,3.6424,0.3987
5.427,9.8187,7.1451,12.7882,13.2548,10.5142,6.9235,3.7618,2.8816,7.7655,2.3262,3.6124,12.1122,15.5173,4.7423,9.8886,11.8304,7.267,13.1035,14.6355,16.9396,14.4272,9.912,10.2502,5.8713,3.0192,8.0263,4.3768,3.3937,0.105
5.0817,9.6322,6.9117,12.6549,13.0989,10.4188,6.9452,3.8624,3.0964,8.0127,2.6617,3.832,12.0847,15.4072,4.35,9.65,11.5369,7.0354,12.8988,14.4025,16.7636,14.3033,9.7464,10.2693,5.8627,3.2309,8.2239,4.6387,3.1035,-0.1532
4.8023,9.4898,6.6968,12.5735,12.9928,10.3473,7.0375,3.9935,3.3495,8.3361,3.0703,4.1695,12.1426,15.3878,4.0087,9.4466,11.3152,6.8903,12.7683,14.2391,16.6511,14.2501,9.6766,10.3882,5.9372,3.5282,8.5542,4.9711,2.8302,-0.3415
4.6341,9.4226,6.5514,12.5701,12.9581,10.3174,7.1943,4.1435,3.6145,8.6979,3.5126,4.5972,12.2799,15.4646,3.7584,9.3099,11.1929,6.8541,12.7281,14.1688,16.6162,14.2758,9.7087,10.5914,6.0813,3.8772,8.9789,5.3365,2.6271,-0.4379
4.6022,9.4476,6.5149,12.6554,13.0026,10.3353,7.4024,4.2973,3.8657,9.0567,3.9492,5.0796,12.4805,15.6274,3.6234,9.2597,11.1806,6.9332,12.7805,14.1988,16.6594,14.3772,9.8346,10.8521,6.2718,4.2392,9.4501,5.6974,2.5297,-0.436
4.7072,9.5654,6.6073,12.8222,13.1187,10.3952,7.6433,4.4381,4.0814,9.375,4.3463,5.5769,12.7208,15.853,3.609,9.3017,11.2718,7.1174,12.9139,14.3198,16.7687,14.5409,10.0342,11.1367,6.4804,4.5757,9.9165,6.0205,2.5484,-0.345
4.9257,9.7604,6.824,13.0472,13.2862,10.4814,7.8949,4.55,4.2475,9.6236,4.6782,6.0485,12.9726,16.1089,3.7038,9.4268,11.4445,7.3827,13.1053,14.5081,16.9223,14.7445,10.2793,11.4098,6.6792,4.854,10.3298,6.2799,2.6671,-0.1872
5.216,10.0042,7.1368,13.2966,13.4761,10.5727,8.1341,4.621,4.3583,9.7857,4.9293,6.4558,13.2071,16.359,3.8835,9.6139,11.6664,7.6957,13.324,14.7304,17.0928,14.9601,10.5383,11.6398,6.8453,5.0514,10.6504,6.4583,2.849,0.0077
5.5267,10.2614,7.4986,13.5318,13.657,10.6465,8.3388,4.6447,4.4167,9.8566,5.0934,6.7669,13.398,16.5696,4.116,9.8324,11.9008,8.0195,13.5366,14.9493,17.2516,15.1577,10.7807,11.8028,6.9634,5.1574,10.8513,6.5474,3.046,0.2082
5.8056,10.495,7.853,13.717,13.7998,10.684,8.4895,4.6212,4.4321,9.8422,5.1726,6.9586,13.5239,16.7133,4.3664,10.047,12.1109,8.3177,13.7111,15.1284,17.3722,15.3081,10.9799,11.8854,7.0263,5.1743,10.92,6.5471,3.2096,0.3864
6.0088,10.671,8.1457,13.8232,13.8816,10.6715,8.572,4.5566,4.4167,9.7559,5.1752,7.0201,13.5697,16.7717,4.6005,10.2215,12.2639,8.5576,13.8198,15.2367,17.432,15.3865,11.1148,11.8849,7.034,5.115,10.8597,6.4644,3.3011,0.5211
6.1063,10.762,8.334,13.8321,13.8875,10.6023,8.5778,4.4612,4.3822,9.6147,5.114,6.9537,13.5268,16.736,4.7879,10.3231,12.3332,8.7126,13.8414,15.2514,17.4138,15.374,11.1705,11.8076,6.9912,5.0004,10.6875,6.3128,3.2977,0.5993
6.0854,10.7503,8.3945,13.737,13.8114,10.4755,8.5061,4.3465,4.337,9.4367,5.0043,6.7751,13.3943,16.6063,4.9048,10.3266,12.3014,8.7652,13.763,15.1597,17.3066,15.2602,11.1394,11.6666,6.9061,4.8552,10.4323,6.111,3.1963,0.6163
5.951,10.6299,8.3257,13.5426,13.6555,10.2959,8.3633,4.2237,4.2848,9.2379,4.8621,6.5116,13.1785,16.3906,4.9362,10.2191,12.1627,8.7092,13.5813,14.9604,17.1078,15.0448,11.0217,11.479,6.7886,4.7039,10.1301,5.8811,3.0124,0.5743
5.723,10.4085,8.1464,13.2646,13.4302,10.0732,8.1626,4.102,4.2248,9.0307,4.7028,6.1984,12.8927,16.1031,4.8776,10.0023,11.924,8.5514,13.3042,14.6637,16.8244,14.7379,10.8265,11.2628,6.6494,4.5673,9.8175,5.6465,2.7757,0.4816
5.4319,10.1074,7.8909,12.9274,13.1525,9.8211,7.9225,3.9878,4.154,8.8237,4.5391,5.8734,12.5563,15.7628,4.7351,9.6942,11.6052,8.311,12.9511,14.2905,16.4737,14.3591,10.5711,11.0341,6.4989,4.4594,9.5254,5.428,2.5236,0.3514
5.1131,9.7589,7.6014,12.5611,12.8444,9.5569,7.6643,3.8853,4.0694,8.6218,4.3807,5.5712,12.1922,15.3913,4.5243,9.3253,11.2363,8.0168,12.5505,13.8699,16.082,13.9347,10.2792,10.8051,6.3446,4.3854,9.2742,5.2412,2.2932,0.2004
4.8014,9.4006,7.3206,12.1973,12.5296,9.2991,7.4094,3.7971,3.9703,8.4276,4.2336,5.3183,11.8235,15.0103,4.2674,8.9333,10.8515,7.7013,12.136,13.4339,15.6796,13.4934,9.9772,10.5816,6.19,4.3407,9.0706,5.0935,2.1156,0.0477
4.5248,9.0685,7.084,11.8635,12.2299,9.0655,7.1767,3.7247,3.8599,8.2429,4.1009,5.1291,11.4706,14.6397,3.9886,8.5546,10.4829,7.3942,11.7403,13.0113,15.2952,13.0613,9.6896,10.3635,6.0338,4.3122,8.9089,4.9837,2.0108,-0.0876
4.3019,8.79,6.914,11.5792,11.9616,8.8701,6.9802,3.6694,3.7457,8.0702,3.9842,5.0059,11.1483,14.2946,3.7112,8.2167,10.1539,7.1178,11.3886,12.6227,14.9497,12.6581,9.4354,10.1459,5.8711,4.281,8.7743,4.9025,1.9857,-0.1887
4.1399,8.5796,6.8179,11.3535,11.7339,8.721,6.828,3.6319,3.6385,7.9127,3.8845,4.9401,10.8655,13.9854,3.4544,7.9343,9.8759,6.8845,11.0953,12.2774,14.6526,12.2947,9.2254,9.9224,5.6968,4.2277,8.649,4.8361,2.0343,-0.2423
4.0362,8.4378,6.7877,11.185,11.5485,8.6189,6.7215,3.6121,3.5496,7.7742,3.8022,4.9163,10.6255,13.7174,3.2334,7.7087,9.6488,6.6967,10.8623,11.9744,14.4021,11.9746,9.0622,9.6891,5.5097,4.1384,8.5176,4.7698,2.1398,-0.2398
3.9817,8.3541,6.8043,11.0649,11.4013,8.5583,6.6571,3.6086,3.4885,7.658,3.7373,4.9168,10.4281,13.492,3.059,7.5318,9.4634,6.5503,10.6819,11.7064,14.1888,11.6953,8.9417,9.4477,5.3154,4.0088,8.372,4.6922,2.2783,-0.1773
3.963,8.3108,6.8428,10.9805,11.2856,8.5294,6.6269,3.6187,3.4607,7.5665,3.6887,4.9257,10.2708,13.3081,2.9369,7.3909,9.306,6.4374,10.5403,11.4648,14.0004,11.4514,8.8549,9.207,5.1272,3.8466,8.2131,4.5984,2.4233,-0.055
3.9657,8.2878,6.8796,10.9182,11.1939,8.5205,6.6217,3.6389,3.4662,7.5,3.6543,4.9321,10.1505,13.163,2.8669,7.2728,9.1619,6.3491,10.4217,11.2433,13.8268,11.2372,8.7903,8.9812,4.9634,3.6694,8.0507,4.4907,2.5511,0.1216
3.9746,8.2655,6.896,10.8656,11.1194,8.5205,6.6322,3.6653,3.4995,7.457,3.6311,4.9314,10.064,13.0524,2.8419,7.1664,9.0184,6.2776,10.3118,11.0396,13.6623,11.0474,8.7354,8.7863,4.8425,3.4999,7.9003,4.3789,2.6439,0.3414
3.9754,8.2277,6.8819,10.812,11.0561,8.5203,6.6506,3.6942,3.5506,7.4336,3.6155,4.925,10.0077,12.9715,2.848,7.064,8.8663,6.2167,10.1997,10.8549,13.5064,10.8785,8.6777,8.6359,4.7775,3.36,7.7784,4.2763,2.6925,0.588
3.956,8.1631,6.8355,10.7498,10.999,8.514,6.6713,3.7222,3.6066,7.4243,3.6042,4.9182,9.978,12.9152,2.8682,6.9615,8.702,6.1629,10.0793,10.6922,13.3625,10.7289,8.6078,8.5376,4.772,3.2646,7.6978,4.1967,2.6967,0.8414
3.9099,8.0681,6.7623,10.6751,10.9444,8.4992,6.6912,3.7462,3.6541,7.4225,3.5944,4.9176,9.9714,12.8794,2.8878,6.8597,8.5296,6.1165,9.9514,10.5557,13.2371,10.6003,8.5218,8.4913,4.8181,3.2196,7.6639,4.1495,2.6646,1.0822
3.8403,7.9486,6.6738,10.5899,10.8908,8.4776,6.7097,3.7636,3.681,7.4211,3.5829,4.9282,9.9845,12.8617,2.9005,6.7651,8.362,6.0826,9.8237,10.4511,13.1377,10.4974,8.4236,8.4901,4.899,3.2205,7.6727,4.1371,2.6108,1.2965
3.7611,7.8195,6.5849,10.5023,10.8391,8.4546,6.7287,3.7725,3.6785,7.4139,3.5662,4.951,10.0144,12.8617,2.9115,6.6902,8.2196,6.0708,9.7103,10.3849,13.0711,10.428,8.3259,8.5223,4.9921,3.2549,7.7107,4.1538,2.555,1.4793
3.6951,7.7019,6.5114,10.425,10.7924,8.4375,6.7513,3.7724,3.6434,7.3962,3.5402,4.9813,10.0571,12.8792,2.9369,6.651,8.1265,6.0927,9.628,10.3634,13.0413,10.3996,8.2463,8.5731,5.0746,3.3053,7.7571,4.1865,2.5186,1.6352
3.6675,7.6169,6.4667,10.3712,10.7541,8.433,6.7799,3.7643,3.5781,7.3655,3.5002,5.0092,10.1066,12.9114,2.9979,6.6619,8.1029,6.1574,9.5913,10.3903,13.0468,10.4163,8.2029,8.626,5.1273,3.3522,7.7861,4.2174,2.5206,1.7743
3.6965,7.5789,6.4585,10.3497,10.7254,8.4431,6.814,3.7502,3.49,7.3201,3.4411,5.0201,10.1529,12.9508,3.1123,6.7304,8.158,6.2671,9.6064,10.4626,13.0787,10.4741,8.2072,8.6641,5.1376,3.3773,7.7717,4.2277,2.5728,1.906
3.7868,7.5906,6.4856,10.3605,10.7024,8.4627,6.8468,3.7312,3.3884,7.2575,3.3576,4.9963,10.1813,12.9829,3.2866,6.8522,8.2844,6.4136,9.6675,10.5685,13.1204,10.5595,8.2595,8.6705,5.1006,3.3657,7.6908,4.2,2.6749,2.0327
3.9262,7.6408,6.5375,10.3926,10.6755,8.479,6.8649,3.706,3.2814,7.1731,3.2445,4.92,10.1736,12.9881,3.5114,7.0099,8.4577,6.5788,9.7564,10.6877,13.1503,10.6497,8.3471,8.6302,5.0182,3.3089,7.5285,4.1214,2.8134,2.1467
4.0881,7.7072,6.5956,10.426,10.6307,8.4735,6.8503,3.6699,3.1732,7.06,3.0977,4.777,10.1117,12.9452,3.7627,7.1762,8.6415,6.7383,9.8462,10.7939,13.1451,10.7172,8.4475,8.5326,4.8987,3.2054,7.2808,3.9855,2.9637,2.2308
4.2389,7.7617,6.6377,10.4357,10.5526,8.4266,6.7847,3.6166,3.0641,6.9116,2.9159,4.5606,9.9831,12.8367,4.0073,7.3196,8.7956,6.8672,9.9076,10.8609,13.0856,10.736,8.5329,8.3748,4.755,3.0627,6.9582,3.7938,3.0962,2.2636
4.3469,7.7787,6.6428,10.3988,10.4301,8.3232,6.6563,3.5403,2.9523,6.7252,2.7033,4.2761,9.7862,12.6545,4.2109,7.4117,8.8859,6.9465,9.9163,10.868,12.9603,10.6876,8.5773,8.1634,4.6035,2.8959,6.5851,3.5571,3.1842,2.2264
4.3895,7.7402,6.5958,10.2998,10.2593,8.1573,6.4648,3.4395,2.8372,6.506,2.4718,3.9414,9.5331,12.4034,4.3461,7.4332,8.8915,6.9662,9.858,10.8048,12.7688,10.5653,8.5619,7.9153,4.463,2.7261,6.1974,3.295,3.2107,2.1086
4.3577,7.6404,6.491,10.1345,10.0456,7.9341,6.2229,3.3182,2.7213,6.2685,2.2403,3.5858,9.2487,12.1001,4.3976,7.3773,8.8088,6.9266,9.7316,10.6733,12.5208,10.3746,8.4783,7.6542,4.3513,2.5759,5.8357,3.034,3.1712,1.9117
4.2556,7.485,6.3317,9.9102,9.802,7.6683,5.9535,3.1855,2.6101,6.0338,2.0319,3.2439,8.9647,11.7699,4.3639,7.2494,8.6496,6.8361,9.5472,10.4851,12.2336,10.1315,8.3291,7.4061,4.2827,2.4648,5.5374,2.8027,3.074,1.6496
4.0978,7.2887,6.1292,9.6427,9.5451,7.3801,5.6833,3.0524,2.51,5.8255,1.8683,2.9487,8.7116,11.4396,4.2545,7.0637,8.4363,6.7074,9.3226,10.2583,11.9271,9.8567,8.1255,7.1927,4.2651,2.4052,5.3286,2.6268,2.9358,1.3464
3.9043,7.0699,5.8997,9.3518,9.2901,7.0907,5.436,2.9284,2.4253,5.6632,1.7642,2.725,8.5106,11.1316,4.0868,6.8393,8.1947,6.5538,9.0778,10.0109,11.6191,9.5709,7.8844,7.0262,4.2985,2.3994,5.2187,2.524,2.7781,1.0324
3.6962,6.8463,5.6617,9.0567,9.0479,6.8177,5.2269,2.8192,2.3566,5.5579,1.724,2.5852,8.3686,10.8589,3.8809,6.5942,7.9471,6.3849,8.8299,9.7568,11.3226,9.2903,7.6242,6.907,4.3754,2.4397,5.1998,2.5003,2.6228,0.739
3.4915,6.6303,5.4333,8.7724,8.8229,6.5738,5.0609,2.7261,2.3005,5.5102,1.7407,2.5286,8.2778,10.6245,3.6567,6.3423,7.7073,6.2054,8.5896,9.5032,11.0436,9.0242,7.3619,6.8245,4.4819,2.5106,5.25,2.5503,2.4893,0.4926
3.3031,6.4274,5.23,8.5082,8.6145,6.3654,4.9335,2.6475,2.2519,5.5113,1.7985,2.544,8.2196,10.4228,3.4308,6.0911,7.4788,6.0147,8.3591,9.2497,10.7824,8.7754,7.1098,6.7605,4.6009,2.5926,5.3399,2.658,2.3921,0.3094
3.138,6.2363,5.0616,8.2666,8.4185,6.1943,4.8351,2.5814,2.206,5.5459,1.8775,2.6133,8.1714,10.2434,3.2156,5.8421,7.2554,5.8081,8.1329,8.9905,10.5353,8.5414,6.875,6.6948,4.7139,2.6659,5.4398,2.8004,2.3385,0.1919
2.9968,6.0513,4.9317,8.0454,8.2302,6.059,4.7541,2.5275,2.1611,5.5965,1.9584,2.7158,8.1132,10.0745,3.0186,5.5926,7.0256,5.5802,7.9004,8.7172,10.2964,8.3173,6.6591,6.61,4.8044,2.715,5.5257,2.9516,2.328,0.1284
2.8764,5.8663,4.8371,7.8393,8.0462,5.9559,4.6811,2.488,2.1195,5.6467,2.0263,2.8318,8.0321,9.9063,2.8435,5.3391,6.7774,5.3278,7.6507,8.423,10.0605,8.0981,6.4606,6.4957,4.8596,2.7311,5.5825,3.0866,2.3526,0.0967
2.7719,5.6787,4.7713,7.6432,7.8659,5.8813,4.611,2.468,2.0872,5.6837,2.0729,2.9452,7.9249,9.7326,2.6913,5.0805,6.5044,5.0533,7.3777,8.1059,9.8247,7.8815,6.2781,6.3508,4.8723,2.7137,5.6051,3.1855,2.3996,0.0699
2.6796,5.4916,4.7278,7.4548,7.6922,5.8317,4.5444,2.4734,2.0722,5.6993,2.0969,3.0454,7.7972,9.5522,2.5626,4.8205,6.2098,4.7662,7.0839,7.7715,9.5897,7.6695,6.1132,6.1828,4.8429,2.6704,5.5974,3.2359,2.4564,0.0241
2.5988,5.3148,4.7043,7.2765,7.5318,5.8048,4.487,2.5097,2.0823,5.691,2.1032,3.1277,7.6612,9.3693,2.4592,4.569,5.9081,4.4836,6.7819,7.4339,9.3611,7.4685,5.9723,6.0069,4.7799,2.6147,5.5698,3.2355,2.5141,-0.0554
2.5326,5.1634,4.7032,7.116,7.3943,5.7994,4.4481,2.5799,2.1224,5.6608,2.1002,3.1927,7.5322,9.1929,2.3855,4.3409,5.623,4.2276,6.4933,7.1144,9.1487,7.2894,5.8669,5.8424,4.6993,2.5628,5.5361,3.1915,2.5707,-0.1705
2.4864,5.0546,4.7305,6.9849,7.2911,5.8148,4.4379,2.6837,2.1928,5.6146,2.0979,3.2446,7.4257,9.0361,2.3481,4.154,5.3833,4.0217,6.2448,6.8386,8.966,7.1455,5.8108,5.7091,4.6218,2.5293,5.5103,3.119,2.6298,-0.3112
2.4659,5.0028,4.7908,6.8959,7.2329,5.851,4.4649,2.8163,2.288,5.56,2.1046,3.2887,7.3545,8.9136,2.3538,4.0257,5.2166,3.8855,6.0626,6.6319,8.8281,7.0504,5.816,5.6236,4.569,2.5235,5.5031,3.0367,2.6978,-0.4602
2.4746,5.0155,4.8837,6.8591,7.2272,5.9073,4.5326,2.9687,2.3974,5.5041,2.1252,3.3279,7.326,8.8386,2.4068,3.9684,5.1425,3.8307,5.9665,6.5142,8.7483,7.0139,5.8887,5.5955,4.5578,2.5469,5.5197,2.9621,2.7793,-0.5994
2.5121,5.0892,5.0005,6.8787,7.2753,5.9815,4.6371,3.1283,2.5068,5.4519,2.1597,3.3609,7.3419,8.8196,2.5055,3.9865,5.1679,3.858,5.9653,6.4952,8.7348,7.0399,6.0266,5.6256,4.5964,2.5926,5.5593,2.9074,2.8726,-0.7164
2.5742,5.2094,5.1246,6.9502,7.3709,6.0689,4.7674,3.2803,2.601,5.4049,2.2036,3.381,7.3967,8.8571,2.6413,4.0736,5.2847,3.9581,6.0546,6.5716,8.7875,7.1239,6.2183,5.7058,4.6822,2.6475,5.6159,2.8766,2.9686,-0.8083
2.6547,5.3523,5.2358,7.0604,7.4999,6.1619,4.9061,3.4104,2.667,5.3611,2.249,3.3779,7.479,8.9425,2.8003,4.2142,5.4717,4.1128,6.2171,6.7268,8.8964,7.2528,6.4451,5.8198,4.8027,2.6954,5.6806,2.8647,3.0528,-0.8817
2.7473,5.4913,5.3157,7.1904,7.6425,6.2512,5.0329,3.5074,2.6967,5.3165,2.2868,3.3407,7.5728,9.0592,2.9669,4.3858,5.6993,4.3,6.4262,6.934,9.0427,7.4071,6.6849,5.9464,4.9385,2.7211,5.7443,2.8597,3.1101,-0.9486
2.8487,5.6039,5.3546,7.3198,7.7774,6.3279,5.129,3.5656,2.6888,5.2672,2.3094,3.2628,7.6596,9.1857,3.1286,4.5658,5.9367,4.498,6.6519,7.1619,9.2016,7.5647,6.9155,6.0636,5.0675,2.714,5.8,2.8463,3.1305,-1.0202
2.9587,5.6787,5.3553,7.4332,7.8868,6.3857,5.1807,3.586,2.6491,5.2109,2.312,3.1453,7.7226,9.301,3.2805,4.7368,6.1594,4.6896,6.8669,7.3818,9.3486,7.7053,7.1193,6.1528,5.1697,2.6708,5.8442,2.8109,3.1141,-1.1014
3.0809,5.7189,5.3343,7.5251,7.961,6.4241,5.1827,3.5757,2.5886,5.1494,2.2935,2.9992,7.7495,9.3901,3.4272,4.8919,6.3548,4.8657,7.0529,7.5748,9.4649,7.8155,7.2857,6.2034,5.2314,2.597,5.8768,2.7463,3.0737,-1.1869
3.2221,5.7424,5.3187,7.6018,8.0008,6.4487,5.1387,3.546,2.5207,5.0877,2.2567,2.8444,7.7361,9.4483,3.5825,5.036,6.5243,5.0256,7.2037,7.7354,9.5429,7.8917,7.4134,6.2155,5.248,2.5058,5.9011,2.6546,3.0338,-1.2619
3.3911,5.7766,5.3399,7.6799,8.017,6.4702,5.0597,3.5094,2.4576,5.0337,2.2065,2.7058,7.6873,9.4818,3.7643,5.1846,6.6821,5.1767,7.3258,7.8726,9.5876,7.9409,7.5102,6.2,5.2251,2.4163,5.9215,2.547,3.026,-1.3051
3.5972,5.8505,5.4243,7.7804,8.0264,6.5008,4.9612,3.4759,2.4074,4.9953,2.1489,2.6083,7.6161,9.506,3.99,5.3573,6.8497,5.3309,7.4349,8.0052,9.615,7.9787,7.5908,6.1758,5.1771,2.3495,5.9418,2.4415,3.0813,-1.2951
3.8467,5.9851,5.5844,7.9207,8.0465,6.5498,4.8584,3.4506,2.3718,4.9777,2.0884,2.5708,7.5397,9.5394,4.2689,5.5714,7.0482,5.5001,7.5501,8.1546,9.6468,8.0242,7.6726,6.164,5.1235,2.3237,5.9632,2.3575,3.2217,-1.2163
4.1392,6.1855,5.8129,8.107,8.0885,6.6181,4.761,3.4312,2.3453,4.9799,2.0275,2.6005,7.4735,9.5962,4.5981,5.8339,7.29,5.6909,7.6863,8.3354,9.7019,8.0935,7.7697,6.1802,5.0832,2.3486,5.9822,2.3104,3.4526,-1.0643
4.4646,6.4374,6.081,8.3295,8.1526,6.6964,4.6697,3.4085,2.3166,4.9935,1.9648,2.6906,7.4251,9.6791,4.9597,6.1368,7.5729,5.9002,7.848,8.5483,9.7885,8.1935,7.8877,6.2292,5.0694,2.4221,5.9906,2.3065,3.759,-0.8483
4.8017,6.7089,6.3438,8.5616,8.226,6.7657,4.5754,3.3684,2.2717,5.0033,1.8969,2.821,7.391,9.7761,5.3228,6.457,7.8778,6.1136,8.0259,8.7766,9.8987,8.3183,8.0204,6.301,5.0857,2.5294,5.9772,2.3411,4.1069,-0.5907
5.1201,6.9577,6.5507,8.7653,8.2855,6.8021,4.4621,3.296,2.1974,4.9908,1.8199,2.9634,7.3569,9.8617,5.6489,6.7596,8.1724,6.3076,8.1978,8.9893,10.0088,8.4492,8.1501,6.3731,5.1253,2.6453,5.9305,2.4002,4.4497,-0.3224
5.3858,7.1421,6.6583,8.9002,8.3041,6.784,4.3133,3.1808,2.0861,4.9401,1.7322,3.0874,7.3024,9.9036,5.8999,7.0063,8.4179,6.4547,8.3345,9.1487,10.085,8.5591,8.2519,6.4163,5.1724,2.7397,5.8428,2.4643,4.7391,-0.0769
5.5683,7.232,6.6429,8.9344,8.2596,6.7001,4.1193,3.0215,1.9387,4.8434,1.6371,3.1681,7.2088,9.8727,6.0468,7.1644,8.5798,6.5304,8.4075,9.2212,10.0944,8.6201,8.3002,6.4032,5.2061,2.7848,5.713,2.5143,4.9365,0.1179
5.6488,7.2168,6.5076,8.8544,8.1432,6.5546,3.8838,2.8289,1.766,4.7054,1.5428,3.1912,7.0675,9.7538,6.0769,7.2151,8.6365,6.5201,8.3975,9.1884,10.0158,8.6113,8.2762,6.3168,5.2058,2.7614,5.5484,2.5367,5.0215,0.2447
5.6256,7.1092,6.2819,8.6707,7.9646,6.3693,3.6259,2.6256,1.5871,4.544,1.4617,3.1567,6.8852,9.5529,5.9961,7.1589,8.5857,6.4234,8.3006,9.054,9.8492,8.5255,8.1734,6.1567,5.1568,2.6631,5.3648,2.5268,4.9953,0.3001
5.5149,6.9406,6.0137,8.4166,7.7514,6.1789,3.3776,2.4417,1.4262,4.387,1.4072,3.0777,6.6858,9.2983,5.8268,7.0159,8.4452,6.255,8.1303,8.8441,9.6181,8.3719,8.0004,5.9416,5.054,2.4975,5.184,2.4894,4.8785,0.2929
5.3464,6.7533,5.7562,8.1406,7.5427,6.0236,3.1765,2.3086,1.3067,4.2654,1.3895,2.9772,6.5046,9.0349,5.6013,6.8202,8.2473,6.0411,7.9145,8.6019,9.3649,8.1739,7.7789,5.7052,4.9038,2.2836,5.0295,2.4364,4.7043,0.2399
5.1545,6.5882,5.5542,7.8934,7.3782,5.9374,3.0556,2.2507,1.2461,4.2055,1.412,2.8821,6.3792,8.8123,5.3536,6.6111,8.0298,5.8123,7.6879,8.3756,9.1396,7.9627,7.5381,5.4889,4.7227,2.0472,4.921,2.3821,4.5096,0.1595
4.9693,6.474,5.4329,7.7147,7.2871,5.9394,3.0335,2.2793,1.2508,4.2215,1.4685,2.8164,6.3383,8.6715,5.1116,6.4225,7.8257,5.5959,7.4834,8.2055,8.9858,7.7681,7.3072,5.3309,4.5331,1.8144,4.8697,2.3386,4.3271,0.0664
4.8093,6.4211,5.3932,7.6235,7.2798,6.0283,3.1094,2.3897,1.3156,4.3115,1.5441,2.7952,6.3925,8.6327,4.8928,6.2748,7.6556,5.409,7.3233,8.1134,8.9277,7.6106,7.1077,5.2565,4.3582,1.6068,4.8746,2.3114,4.1795,-0.0308
4.6782,6.4207,5.4147,7.6146,7.3456,6.1836,3.2625,2.5623,1.4241,4.4583,1.6175,2.8215,6.5305,8.6906,4.7042,6.172,7.5249,5.2571,7.2159,8.0988,8.9641,7.4965,6.9496,5.272,4.2182,1.4376,4.9236,2.2973,4.0772,-0.1301
4.5687,6.4512,5.4644,7.6639,7.4575,6.3723,3.4576,2.7678,1.5538,4.6323,1.6658,2.8852,6.7213,8.8164,4.5458,6.1045,7.4278,5.1364,7.1558,8.1415,9.0695,7.4181,6.831,5.3634,4.1265,1.3108,4.996,2.2856,4.0191,-0.2317
4.469,6.4877,5.5097,7.7373,7.5802,6.5583,3.6543,2.9734,1.68,4.7989,1.6699,2.966,6.9222,8.9664,4.4162,6.0569,7.3545,5.0414,7.1295,8.2105,9.2032,7.3591,6.7424,5.5013,4.0886,1.2226,5.0687,2.2615,3.9972,-0.334
4.372,6.5118,5.5303,7.8035,7.6813,6.7124,3.8167,3.1493,1.7803,4.9256,1.6188,3.0384,7.0893,9.0947,4.3182,6.0168,7.2991,4.9717,7.1232,8.2757,9.3219,7.3023,6.6729,5.6489,4.1029,1.1643,5.1214,2.2105,4.0008,-0.4293
4.2816,6.519,5.5253,7.8431,7.7398,6.8186,3.9207,3.2733,1.8382,4.9882,1.5115,3.0771,7.1885,9.1654,4.261,5.9819,7.2655,4.9366,7.1295,8.3179,9.3928,7.2375,6.617,5.7727,4.1621,1.1251,5.1416,2.1234,4.0212,-0.5028
4.215,6.5204,5.5138,7.8551,7.7513,6.8773,3.958,3.3328,1.8437,4.9757,1.3579,3.0636,7.2027,9.1615,4.2595,5.9631,7.2684,4.9547,7.1519,8.3349,9.4034,7.1669,6.5787,5.85,4.256,1.0959,5.1261,1.9999,4.0542,-0.5343
4.2,6.5388,5.5276,7.8564,7.7289,6.9027,3.9354,3.3263,1.7946,4.8913,1.1757,2.9899,7.1358,9.0892,4.3297,5.9819,7.3289,5.0474,7.2042,8.3421,9.3648,7.1055,6.5719,5.8749,4.3738,1.0709,5.0811,1.8496,4.0999,-0.5029
4.267,6.6009,5.6005,7.877,7.6988,6.918,3.8708,3.2612,1.6946,4.7515,0.987,2.8605,7.0108,8.9756,4.4828,6.0635,7.4682,5.2308,7.3054,8.3674,9.3088,7.0777,6.6165,5.8584,4.5054,1.0487,5.0198,1.6904,4.1607,-0.3924
4.4393,6.728,5.7555,7.9517,7.6932,6.9473,3.7871,3.1523,1.5532,4.5812,0.8136,2.6911,6.8641,8.8613,4.7206,6.2289,7.6988,5.508,7.4733,8.4432,9.279,7.11,6.7317,5.8242,4.6415,1.0321,4.9588,1.5455,4.2387,-0.1958
4.724,6.9282,5.996,8.1102,7.7415,7.009,3.7067,3.0178,1.384,4.4083,0.6731,2.5049,6.7366,8.7903,5.0321,6.4863,8.0193,5.8654,7.716,8.5961,9.3183,7.2229,6.9281,5.8014,4.7725,1.0266,4.9141,1.4369,4.3321,0.0811
5.1064,7.1928,6.3022,8.3688,7.862,7.1103,3.6462,2.8767,1.2029,4.2579,0.5765,2.3274,6.6639,8.7979,5.3937,6.8271,8.4109,6.2746,8.0274,8.8386,9.4566,7.423,7.2024,5.8155,4.8876,1.0381,4.8975,1.3815,4.4335,0.4201
5.5503,7.4967,6.6349,8.724,8.0565,7.245,3.614,2.7451,1.0274,4.1471,0.5273,2.1808,6.6682,8.9021,5.7724,7.2243,8.8394,6.6978,8.3855,9.1633,9.7008,7.6999,7.534,5.8808,4.9735,1.0703,4.9145,1.3861,4.5299,0.7919
6.0037,7.8035,6.9429,9.1525,8.3084,7.3954,3.6096,2.6348,0.8744,4.0826,0.5228,2.0802,6.7532,9.0975,6.1301,7.6369,9.261,7.0963,8.7549,9.5423,10.0305,8.0252,7.8878,5.9954,5.0156,1.1226,4.9627,1.4473,4.605,1.1615
6.4092,8.0733,7.1757,9.6137,8.5855,7.5356,3.6245,2.5513,0.7577,4.0615,0.5565,2.0315,6.9027,9.3553,6.4296,8.0165,9.6292,7.437,9.0936,9.9304,10.4004,8.3574,8.22,6.1416,5.0006,1.19,5.0332,1.552,4.6431,1.4941
6.7144,8.2701,7.2932,10.0567,8.8446,7.6363,3.6435,2.4941,0.6861,4.072,0.6194,2.0312,7.0844,9.6287,6.6398,8.3162,9.9028,7.6965,9.3603,10.2737,10.7483,8.6492,8.4869,6.29,4.9202,1.2637,5.1124,1.6811,4.6325,1.7607
6.8813,8.3675,7.2741,10.4292,9.0398,7.6696,3.6479,2.4568,0.6615,4.0979,0.7019,2.0695,7.2562,9.8618,6.7384,8.4979,10.0522,7.8616,9.5221,10.5191,11.0082,8.8558,8.6528,6.4066,4.7755,1.3342,5.1855,1.8142,4.5662,1.9419
6.8912,8.3513,7.1184,10.6859,9.1302,7.6128,3.6188,2.4285,0.6777,4.1215,0.7947,2.1321,7.3757,10.0019,6.7134,8.5377,10.062,7.9269,9.5587,10.6245,11.1245,8.9432,8.696,6.461,4.5783,1.3935,5.2391,1.9332,4.4416,2.0292
6.7453,8.2196,6.8451,10.7966,9.088,7.4524,3.5414,2.3963,0.7227,4.1279,0.8894,2.2048,7.4094,10.0113,6.5619,8.4282,9.9325,7.8923,9.4655,10.5667,11.0638,8.8934,8.6111,6.4333,4.35,1.4372,5.2645,2.0262,4.2584,2.0223
6.4617,7.982,6.4861,10.7517,8.9041,7.1868,3.4094,2.3492,0.7816,4.109,0.9795,2.2763,7.3412,9.876,6.2909,8.1795,9.6781,7.7613,9.2527,10.3467,10.8235,8.7079,8.4083,6.3186,4.117,1.4647,5.2592,2.0889,4.018,1.9272
6.0718,7.6577,6.0789,10.564,8.5924,6.8291,3.2289,2.2817,0.842,4.066,1.0624,2.3407,7.1764,9.6104,5.917,7.8175,9.3255,7.5411,8.9442,9.9904,10.4334,8.407,8.1109,6.1285,3.9053,1.4801,5.228,2.1252,3.7244,1.754
5.615,7.2755,5.6599,10.2676,8.1891,6.4084,3.0197,2.1976,0.8978,4.0106,1.1394,2.3991,6.9428,9.2554,5.4685,7.3821,8.9123,7.2447,8.5746,9.5457,9.9512,8.0283,7.7526,5.8899,3.7376,1.491,5.1833,2.1455,3.3868,1.5164
5.1351,6.872,5.2608,9.9128,7.7484,5.9675,2.8144,2.1103,0.9521,3.964,1.2166,2.4577,6.6855,8.8721,4.9859,6.9243,8.4838,6.8938,8.1866,9.0766,9.4528,7.623,7.3745,5.6417,3.6316,1.5085,5.1436,2.1653,3.0226,1.2329
4.6765,6.4904,4.9074,9.559,7.3345,5.5593,2.6536,2.0415,1.0163,3.9537,1.3022,2.5263,6.4595,8.5303,4.5203,6.5013,8.0898,6.5189,7.8265,8.6543,9.0195,7.2504,7.0222,5.4298,3.602,1.546,5.1319,2.2013,2.6584,0.9276
4.2797,6.1757,4.6198,9.2647,7.0108,5.2389,2.579,2.0164,1.107,4.0082,1.4052,2.6144,6.3185,8.2964,4.1279,6.1696,7.7796,6.158,7.5396,8.3466,8.724,6.9708,6.741,5.3005,3.662,1.618,5.1721,2.2683,2.3286,0.6292
3.9769,5.9686,4.4124,9.0787,6.8289,5.0546,2.6253,2.0585,1.2419,4.1518,1.5327,2.7286,6.3055,8.2216,3.8614,5.9763,7.5952,5.8505,7.3633,8.2076,8.6183,6.8361,6.5704,5.2937,3.8241,1.7374,5.2854,2.377,2.0699,0.3686
3.7875,5.8969,4.2917,9.0313,6.8193,5.0377,2.8127,2.1834,1.4344,4.3991,1.6882,2.8718,6.4445,8.3331,3.7592,5.951,7.5634,5.6287,7.3211,8.2684,8.7262,6.8813,6.5369,5.435,4.0975,1.913,5.4864,2.5315,1.9132,0.1727
3.7142,5.9693,4.2551,9.1298,6.986,5.1959,3.1424,2.3957,1.6906,4.7521,1.8717,3.0422,6.7369,8.6303,3.8358,6.099,7.6903,5.5102,7.4172,8.5315,9.04,7.1158,6.6481,5.7309,4.4838,2.1474,5.7793,2.7299,1.8752,0.0581
3.7422,6.1717,4.2891,9.3576,7.3066,5.5103,3.5961,2.6869,2.0068,5.1986,2.0797,3.2351,7.1621,9.0862,4.0773,6.3997,7.9583,5.4925,7.6349,8.9703,9.5244,7.5209,6.8897,6.1653,4.9722,2.4354,6.1558,2.9649,1.9522,0.0259
3.8408,6.469,4.3701,9.6787,7.7366,5.9383,4.1392,3.0372,2.3704,5.7142,2.3062,3.444,7.6818,9.6533,4.4419,6.8101,8.3281,5.553,7.9394,9.5335,10.124,8.0511,7.2265,6.7017,5.5368,2.7639,6.5955,3.2255,2.1187,0.0595
3.9699,6.8123,4.4678,10.0453,8.219,6.4217,4.7264,3.4187,2.7616,6.2653,2.5434,3.6617,8.2477,10.2727,4.8682,7.2722,8.7461,5.6546,8.2842,10.1552,10.774,8.643,7.609,7.2888,6.138,3.114,7.068,3.4985,2.332,0.128
