FP1,F3,F7,FC3,C3,C5,P3,P7,PO7,PO3,O1,Oz,Pz,CPz,FP2,Fz,F4,F8,FC4,FCz,Cz,C4,C6,P4,P8,PO8,PO4,O2,(corr) HEOG,(corr) VEOG
0.6991,1.7469,1.0829,0.9055,1.0369,1.0699,0.8509,0.6704,-1.5294,-2.1394,-1.569,-2.567,-0.3716,0.9111,0.9807,1.5993,1.2955,0.1244,1.2018,1.6714,1.7498,2.3118,0.8445,-0.8268,-1.6172,-3.9921,-2.057,-3.5702,-0.1051,-1.0389
1.0438,1.6805,1.0296,1.0736,1.0728,1.0003,0.8214,0.7261,-1.5086,-1.9214,-1.5359,-2.4431,-0.2495,0.841,0.9019,1.7323,1.4329,0.5025,1.269,1.9119,1.6264,2.1336,0.9117,-0.7867,-1.4418,-3.9359,-2.0987,-3.3728,-0.2378,-0.6224
1.3702,1.6476,1.011,1.2534,1.1313,0.9649,0.8133,0.7977,-1.4612,-1.6828,-1.4779,-2.2876,-0.1075,0.7958,0.8543,1.8681,1.565,0.8483,1.3336,2.1562,1.5405,1.9577,0.9629,-0.7212,-1.2568,-3.8136,-2.0795,-3.1343,-0.3518,-0.2469
1.6483,1.6587,1.0374,1.4417,1.216,0.9755,0.835,0.8872,-1.3693,-1.4131,-1.3767,-2.0754,0.0631,0.7888,0.8519,1.9966,1.6783,1.125,1.3832,2.3961,1.5129,1.7808,0.9799,-0.6117,-1.0511,-3.565,-1.951,-2.8145,-0.4351,0.0489
1.8543,1.7142,1.1085,1.6319,1.323,1.0325,0.8873,0.9933,-1.2219,-1.1074,-1.2204,-1.7878,0.2633,0.8266,0.8961,2.1088,1.76,1.3069,1.4075,2.6242,1.5526,1.6003,0.9518,-0.4455,-0.8155,-3.1497,-1.6817,-2.3821,-0.4815,0.2392
1.9721,1.8022,1.2118,1.8129,1.4398,1.1235,0.9633,1.1109,-1.0158,-0.7688,-1.0045,-1.4168,0.4848,0.9065,0.974,2.1961,1.7988,1.3822,1.3981,2.833,1.6533,1.4131,0.8752,-0.2189,-0.5464,-2.5557,-1.2636,-1.8208,-0.4903,0.3142
1.9933,1.8987,1.3235,1.9675,1.5461,1.2252,1.05,1.2319,-0.7569,-0.4086,-0.7334,-0.9693,0.7113,1.0156,1.0606,2.2487,1.7851,1.3515,1.3465,3.0124,1.7928,1.2148,0.7534,0.0596,-0.249,-1.8036,-0.7152,-1.1357,-0.4661,0.2802
1.916,1.9711,1.4109,2.0732,1.6166,1.3073,1.1311,1.347,-0.4597,-0.0457,-0.4201,-0.4685,0.92,1.1318,1.1236,2.2539,1.7112,1.2248,1.2438,3.1484,1.9365,0.999,0.5935,0.3681,0.0609,-0.9442,-0.0804,-0.3558,-0.4176,0.1576
1.7434,1.9822,1.4376,2.104,1.6252,1.3389,1.1909,1.4467,-0.1451,0.2969,-0.0844,0.0488,1.0861,1.2271,1.1295,2.1949,1.5713,1.0161,1.0795,3.2206,2.0412,0.7582,0.404,0.6735,0.3587,-0.0496,0.5787,0.4685,-0.356,-0.0243
1.4827,1.8977,1.3703,2.0342,1.5507,1.2948,1.2184,1.5239,0.1627,0.5974,0.2509,0.5388,1.1867,1.2718,1.0497,2.0519,1.362,0.7395,0.8425,3.2034,2.0627,0.485,0.1922,0.9369,0.6154,0.8005,1.1929,1.2736,-0.2926,-0.2322
1.1452,1.6939,1.1864,1.8446,1.3817,1.1622,1.2095,1.5746,0.4404,0.8407,0.5634,0.9596,1.2058,1.2404,0.8665,1.8055,1.0827,0.4077,0.5244,3.0693,1.9637,0.1747,-0.0356,1.1205,0.8034,1.5343,1.6982,1.9933,-0.2368,-0.434
0.7471,1.364,0.8816,1.5283,1.1223,0.9452,1.1684,1.5987,0.6701,1.0223,0.8354,1.2789,1.1369,1.1161,0.5773,1.4424,0.7371,0.0327,0.1227,2.7954,1.721,-0.1727,-0.2748,1.1956,0.9022,2.0986,2.0469,2.5698,-0.1925,-0.6027
0.31,0.9218,0.4727,1.0947,0.7925,0.6646,1.1054,1.5993,0.8413,1.1489,1.0549,1.4791,0.9845,0.8948,0.1957,0.9613,0.3352,-0.3709,-0.3545,2.3711,1.3316,-0.5509,-0.5206,1.1478,0.9015,2.4638,2.2137,2.9612,-0.1579,-0.7181
-0.1404,0.3989,-0.0041,0.5695,0.4261,0.354,1.0335,1.58,0.9506,1.234,1.2151,1.5574,0.7627,0.5864,-0.2495,0.377,-0.1065,-0.7837,-0.8871,1.803,0.8138,-0.9473,-0.7671,0.98,0.802,2.6236,2.1964,3.1449,-0.1261,-0.7687
-0.5781,-0.1629,-0.5015,-0.0096,0.0626,0.0509,0.963,1.542,0.9983,1.2907,1.3112,1.5224,0.4911,0.2127,-0.7199,-0.2799,-0.5657,-1.181,-1.4435,1.117,0.205,-1.3438,-1.0071,0.7118,0.6146,2.5896,2.0126,3.1174,-0.089,-0.7512
-0.9822,-0.722,-0.9718,-0.6005,-0.2619,-0.2137,0.896,1.4809,0.9839,1.3239,1.3371,1.3891,0.1901,-0.1974,-1.1739,-0.9678,-1.0167,-1.5359,-1.9848,0.3544,-0.4452,-1.7185,-1.232,0.3745,0.3595,2.3856,1.6921,2.8914,-0.0419,-0.6714
-1.3409,-1.2455,-1.3774,-1.1641,-0.5238,-0.4234,0.8239,1.3852,0.9025,1.3244,1.2828,1.1728,-0.1238,-0.6136,-1.5738,-1.6398,-1.4328,-1.8227,-2.4702,-0.4346,-1.0839,-2.0487,-1.4326,0.0051,0.0634,2.0422,1.2697,2.4913,0.0128,-0.5426
-1.6513,-1.7128,-1.6963,-1.6693,-0.7168,-0.5797,0.7282,1.2382,0.744,1.2684,1.1353,0.8866,-0.4408,-1.0101,-1.8902,-2.2507,-1.7888,-2.0212,-2.8626,-1.1976,-1.6627,-2.3129,-1.6001,-0.361,-0.2434,1.5937,0.7788,1.9492,0.065,-0.3836
-1.9156,-2.1134,-1.9216,-2.094,-0.8508,-0.6982,0.5854,1.023,0.497,1.1231,0.8826,0.5408,-0.757,-1.3685,-2.1046,-2.7611,-2.0617,-2.1197,-3.1332,-1.8863,-2.1441,-2.4929,-1.7272,-0.696,-0.5317,1.0751,0.2481,1.3015,0.1006,-0.216
-2.134,-2.44,-2.0561,-2.4234,-0.9464,-0.8012,0.3743,0.7285,0.1554,0.8571,0.5207,0.1443,-1.0719,-1.6787,-2.2081,-3.139,-2.2322,-2.1165,-3.2641,-2.4594,-2.5039,-2.5762,-1.8081,-0.9827,-0.7796,0.5191,-0.2996,0.5859,0.1073,-0.0614
-2.2989,-2.682,-2.105,-2.6461,-1.0264,-0.9085,0.0832,0.355,-0.2743,0.4523,0.0591,-0.2923,-1.384,-1.9362,-2.1995,-3.3603,-2.2859,-2.0191,-3.2485,-2.884,-2.7308,-2.5561,-1.8395,-1.2154,-0.977,-0.0466,-0.8458,-0.1611,0.0804,0.0616
-2.3921,-2.8217,-2.0701,-2.7523,-1.1073,-1.0298,-0.2852,-0.0837,-0.7699,-0.0869,-0.4763,-0.7543,-1.6868,-2.1382,-2.0825,-3.4086,-2.2152,-1.8424,-3.0892,-3.136,-2.8241,-2.4322,-1.8191,-1.3966,-1.1263,-0.6007,-1.374,-0.9049,0.0264,0.14
-2.3873,-2.8365,-1.9477,-2.7329,-1.1937,-1.1615,-0.7121,-0.5605,-1.294,-0.729,-1.0446,-1.2215,-1.9652,-2.2789,-1.8645,-3.2768,-2.0214,-1.6045,-2.7961,-3.2005,-2.7889,-2.2094,-1.7436,-1.5313,-1.2384,-1.1271,-1.8656,-1.6121,-0.0388,0.169
-2.2587,-2.7061,-1.7314,-2.5825,-1.2767,-1.2879,-1.1642,-1.0397,-1.8,-1.4176,-1.5958,-1.6681,-2.1958,-2.3479,-1.5572,-2.9693,-1.7164,-1.3234,-2.3843,-3.0733,-2.6328,-1.8966,-1.6077,-1.6214,-1.3247,-1.6109,-2.2977,-2.249,-0.0943,0.1526
-1.9915,-2.4222,-1.4173,-2.3033,-1.3362,-1.3862,-1.599,-1.4821,-2.2401,-2.0801,-2.0782,-2.0635,-2.3496,-2.3302,-1.1773,-2.505,-1.3232,-1.0132,-1.8734,-2.7638,-2.3649,-1.5062,-1.4033,-1.6624,-1.3889,-2.0352,-2.6425,-2.781,-0.1219,0.1028
-1.5921,-1.9964,-1.0106,-1.9095,-1.3476,-1.4323,-1.9715,-1.8513,-2.5729,-2.6406,-2.4474,-2.3755,-2.3977,-2.2105,-0.7479,-1.9191,-0.8735,-0.6835,-1.2875,-2.2969,-1.9961,-1.054,-1.1229,-1.6433,-1.4228,-2.3796,-2.8714,-3.1748,-0.1115,0.0379
-1.0921,-1.4638,-0.5296,-1.4293,-1.289,-1.4076,-2.2411,-2.1191,-2.769,-3.033,-2.672,-2.5739,-2.3184,-1.9788,-0.2972,-1.2621,-0.405,-0.34,-0.6563,-1.7141,-1.5422,-0.56,-0.7641,-1.5509,-1.4077,-2.6219,-2.9596,-3.4022,-0.066,-0.0219
-0.5453,-0.8801,-0.0066,-0.9041,-1.1482,-1.3026,-2.3788,-2.2674,-2.813,-3.2114,-2.7372,-2.6352,-2.1034,-1.6358,0.1425,-0.5957,0.0429,0.0123,-0.0164,-1.0715,-1.0268,-0.0485,-0.335,-1.3745,-1.3197,-2.7416,-2.8918,-3.4455,0,-0.0578
-0.0191,-0.314,0.5142,-0.3846,-0.9281,-1.1205,-2.3705,-2.2898,-2.7021,-3.1565,-2.644,-2.5451,-1.7611,-1.197,0.5374,0.0131,0.4326,0.3637,0.5892,-0.4347,-0.4831,0.4514,0.1428,-1.1114,-1.1378,-2.7235,-2.6665,-3.3005,0.0641,-0.0557
0.4192,0.1644,0.982,0.0755,-0.6484,-0.8774,-2.2186,-2.1899,-2.4444,-2.8758,-2.406,-2.3011,-1.3164,-0.6929,0.855,0.5009,0.7306,0.6964,1.1141,0.1282,0.0467,0.9078,0.6338,-0.7699,-0.8516,-2.5609,-2.2965,-2.9781,0.1031,-0.0097
0.7146,0.4953,1.3465,0.4273,-0.3424,-0.6007,-1.9408,-1.9813,-2.0556,-2.4,-2.0452,-1.913,-0.8075,-0.1655,1.0673,0.8163,0.9112,0.9838,1.5139,0.5566,0.5166,1.2887,1.0939,-0.3691,-0.4655,-2.2555,-1.807,-2.5014,0.1002,0.0767
0.8344,0.6405,1.5653,0.6356,-0.0511,-0.3248,-1.5662,-1.6851,-1.5579,-1.7765,-1.587,-1.402,-0.2791,0.3378,1.1554,0.929,0.9599,1.1943,1.7544,0.8074,0.8833,1.5666,1.4786,0.0637,-0.0006,-1.8178,-1.2314,-1.9025,0.0501,0.1903
0.7733,0.5908,1.6127,0.6859,0.1864,-0.0841,-1.1305,-1.3279,-0.9786,-1.0618,-1.0578,-0.7992,0.2248,0.7729,1.1147,0.8364,0.8772,1.2996,1.8195,0.8623,1.1153,1.7236,1.7517,0.4975,0.5078,-1.2658,-0.6062,-1.2187,-0.0395,0.3101
0.5527,0.3686,1.4845,0.5878,0.3423,0.0948,-0.6709,-0.9391,-0.3488,-0.3145,-0.4833,-0.1422,0.6672,1.1053,0.9577,0.5656,0.6798,1.283,1.7154,0.7306,1.1991,1.7543,1.8918,0.9015,1.0143,-0.6242,0.0327,-0.4895,-0.1489,0.4117
0.2166,0.0241,1.1999,0.3737,0.4054,0.1984,-0.2221,-0.5476,0.2987,0.4109,0.1116,0.5275,1.0227,1.3146,0.7126,0.169,0.3987,1.1456,1.4703,0.4463,1.1411,1.6665,1.8944,1.2485,1.4695,0.0762,0.652,0.2453,-0.2515,0.4727
-0.1778,-0.3751,0.7988,0.0914,0.3817,0.2289,0.186,-0.1802,0.9301,1.0677,0.701,1.1678,1.2777,1.3953,0.4188,-0.2851,0.0722,0.9065,1.1281,0.0591,0.9649,1.4773,1.7696,1.517,1.8261,0.7993,1.2221,0.9463,-0.32,0.4788
-0.57,-0.7573,0.3341,-0.2063,0.2897,0.2008,0.5288,0.1387,1.5123,1.6182,1.2569,1.7395,1.429,1.3544,0.1181,-0.726,-0.2628,0.5988,0.7381,-0.377,0.704,1.2083,1.5372,1.6907,2.0462,1.5044,1.7165,1.5768,-0.3327,0.4281
-0.9064,-1.0619,-0.1372,-0.4735,0.1534,0.1354,0.7868,0.387,2.0136,2.0353,1.7494,2.2083,1.4803,1.2078,-0.1534,-1.0935,-0.5777,0.2615,0.3453,-0.8133,0.3938,0.8806,1.2217,1.7592,2.1065,2.1486,2.1117,2.1043,-0.2789,0.3323
-1.1474,-1.2493,-0.5632,-0.6785,-0.0054,0.0535,0.9459,0.5447,2.4051,2.3024,2.1484,2.548,1.4399,0.9774,-0.3713,-1.3463,-0.8558,-0.0671,-0.0155,-1.2132,0.0655,0.514,0.8494,1.7184,2.0033,2.6894,2.3881,2.5038,-0.1605,0.2146
-1.2709,-1.3051,-0.9034,-0.8066,-0.17,-0.0289,0.9983,0.5964,2.6634,2.4147,2.4278,2.7419,1.3201,0.6895,-0.5244,-1.4646,-1.0888,-0.3542,-0.3203,-1.5518,-0.2557,0.1282,0.4483,1.5718,1.7538,3.0889,2.5321,2.7587,0.0083,0.1035
-1.2704,-1.2361,-1.132,-0.8563,-0.3291,-0.1019,0.9442,0.5351,2.7734,2.3795,2.569,2.7841,1.1377,0.3749,-0.6113,-1.446,-1.2699,-0.5734,-0.5515,-1.8127,-0.5478,-0.2526,0.0496,1.3316,1.3946,3.3178,2.5386,2.8618,0.2052,0.0264
-1.1506,-1.0606,-1.2361,-0.8312,-0.4723,-0.159,0.7942,0.366,2.732,2.2156,2.5643,2.6798,0.915,0.0693,-0.6347,-1.2981,-1.3858,-0.7037,-0.6923,-1.9813,-0.7885,-0.5969,-0.3114,1.0205,0.9762,3.3594,2.413,2.814,0.4044,0.0015
-0.9217,-0.7967,-1.2135,-0.7329,-0.5862,-0.1938,0.5692,0.1093,2.5502,1.9522,2.4182,2.4447,0.6804,-0.189,-0.595,-1.0313,-1.4129,-0.7295,-0.7225,-2.0414,-0.9518,-0.8663,-0.5966,0.6703,0.5545,3.2123,2.1728,2.6239,0.5818,0.0328
-0.5955,-0.4542,-1.0685,-0.5567,-0.6525,-0.197,0.2992,-0.2012,2.2534,1.6256,2.148,2.1046,0.4655,-0.3625,-0.4868,-0.6537,-1.3188,-0.6408,-0.6198,-1.975,-1.0104,-1.02,-0.7701,0.3197,0.1824,2.8935,1.8469,2.3075,0.719,0.108
-0.1846,-0.0329,-0.8109,-0.2936,-0.6504,-0.1577,0.0188,-0.5232,1.8792,1.275,1.7821,1.6933,0.3015,-0.4217,-0.3001,-0.1723,-1.0708,-0.4368,-0.3651,-1.7671,-0.9406,-1.0237,-0.8048,0.0091,-0.0986,2.4376,1.4725,1.8895,0.8055,0.2004
0.2963,0.4709,-0.4563,0.0623,-0.5636,-0.0671,-0.2396,-0.8148,1.4719,0.9373,1.3563,1.2503,0.2127,-0.3514,-0.0257,0.4035,-0.6483,-0.1278,0.0494,-1.414,-0.732,-0.8591,-0.6897,-0.2255,-0.263,1.8947,1.0902,1.4035,0.8397,0.2767
0.8266,1.0534,-0.0295,0.504,-0.389,0.0743,-0.4512,-1.0432,1.0773,0.6424,0.9099,0.8176,0.2111,-0.1571,0.3357,1.0545,-0.0541,0.2626,0.6114,-0.9317,-0.3952,-0.5304,-0.4341,-0.3584,-0.3028,1.3258,0.7381,0.8916,0.8268,0.3072
1.3774,1.6907,0.4333,1.004,-0.1434,0.252,-0.6044,-1.1911,0.7373,0.4094,0.482,0.4356,0.2919,0.1338,0.7665,1.7457,0.6776,0.6994,1.2839,-0.3609,0.0331,-0.0678,-0.0687,-0.3793,-0.2254,0.7943,0.4464,0.4006,0.7776,0.2766
1.9102,2.3327,0.8836,1.5123,0.1342,0.4363,-0.7015,-1.2581,0.4867,0.2452,0.107,0.1382,0.4341,0.4743,1.2282,2.4238,1.481,1.14,2.0041,0.2332,0.4923,0.4756,0.3574,-0.2952,-0.05,0.3573,0.2331,-0.023,0.7046,0.1907
2.3778,2.9051,1.2647,1.9612,0.3879,0.5856,-0.7577,-1.2581,0.3498,0.1448,-0.1884,-0.052,0.603,0.8049,1.6648,3.0207,2.2652,1.5396,2.6903,0.7689,0.9055,1.0313,0.7834,-0.1305,0.1971,0.0561,0.1022,-0.3415,0.6201,0.0763
2.7299,3.3216,1.5206,2.2783,0.5564,0.6568,-0.7961,-1.2138,0.3388,0.0945,-0.3881,-0.1278,0.7576,1.0645,2.0119,3.4615,2.9292,1.8572,3.2527,1.1605,1.1925,1.5257,1.1468,0.0775,0.4859,-0.0902,0.044,-0.532,0.5332,-0.0258
2.9187,3.5035,1.6077,2.4015,0.5875,0.6158,-0.8411,-1.15,0.4523,0.076,-0.4875,-0.0989,0.8579,1.2013,2.2095,3.6782,3.3784,2.0606,3.6073,1.334,1.2849,1.8921,1.3933,0.2849,0.7875,-0.086,0.0384,-0.5904,0.4489,-0.0724
2.9084,3.3988,1.5062,2.2939,0.4521,0.4481,-0.9122,-1.0883,0.6742,0.0713,-0.4944,0.0101,0.8725,1.1832,2.2146,3.6231,3.5419,2.1306,3.6907,1.242,1.1396,2.0802,1.4862,0.4498,1.0765,0.0456,0.0602,-0.5308,0.3682,-0.0301
2.682,2.9988,1.2273,1.954,0.1519,0.1642,-1.0198,-1.0436,0.9743,0.0665,-0.4274,0.1651,0.7842,1.0028,2.0115,3.2812,3.3851,2.0626,3.4705,0.873,0.748,2.0628,1.4117,0.5404,1.3337,0.2695,0.0851,-0.3812,0.2902,0.115
2.2494,2.3437,0.813,1.4189,-0.2796,-0.2011,-1.1634,-1.0236,1.3111,0.0532,-0.3133,0.3289,0.5916,0.6775,1.6161,2.6766,2.9164,1.8668,2.9531,0.2553,0.1386,1.8384,1.1799,0.5402,1.5469,0.5473,0.0945,-0.177,0.2148,0.3547
1.6502,1.5186,0.3298,0.7581,-0.7851,-0.5967,-1.3345,-1.03,1.6364,0.0273,-0.1845,0.4671,0.307,0.2444,1.0753,1.8713,2.1865,1.567,2.183,-0.5481,-0.6276,1.4291,0.8217,0.4493,1.7109,0.8431,0.0771,0.0446,0.1446,0.662
0.9509,0.6374,-0.1448,0.0605,-1.2977,-0.9669,-1.5209,-1.0605,1.9003,-0.0134,-0.0743,0.5531,-0.0481,-0.2497,0.458,0.9561,1.28,1.1975,1.2371,-1.4507,-1.4689,0.875,0.3809,0.2811,1.8256,1.1263,0.0284,0.2497,0.0848,1.0009
0.2363,-0.1798,-0.5376,-0.584,-1.7566,-1.2648,-1.712,-1.1114,2.0581,-0.0722,-0.0136,0.5703,-0.4493,-0.7594,-0.1573,0.035,0.3003,0.7987,0.212,-2.3579,-2.2983,0.2265,-0.0943,0.056,1.8931,1.372,-0.053,0.4097,0.0414,1.3371
-0.405,-0.8304,-0.7938,-1.1023,-2.1206,-1.463,-1.9025,-1.1792,2.0761,-0.1552,-0.0259,0.5116,-0.8749,-1.2501,-0.6975,-0.794,-0.6476,0.4117,-0.7911,-3.1836,-3.0404,-0.464,-0.5604,-0.2055,1.9151,1.5598,-0.1693,0.503,0.0188,1.6473
-0.8957,-1.2476,-0.886,-1.4511,-2.3748,-1.558,-2.0928,-1.2602,1.9361,-0.2705,-0.1248,0.3786,-1.3091,-1.7023,-1.1078,-1.4549,-1.474,0.0731,-1.6823,-3.8623,-3.6426,-1.1492,-0.9847,-0.4883,1.8909,1.6726,-0.3254,0.5151,0.0174,1.9235
-1.1823,-1.4097,-0.8167,-1.6214,-2.5281,-1.5672,-2.2869,-1.3512,1.637,-0.4258,-0.3123,0.179,-1.7421,-2.1114,-1.3601,-1.9046,-2.1166,-0.1904,-2.3952,-4.3561,-4.0811,-1.7902,-1.3479,-0.7845,1.817,1.6968,-0.5286,0.4383,0.0324,2.1716
-1.2427,-1.3389,-0.6147,-1.6359,-2.6067,-1.5227,-2.4896,-1.4499,1.194,-0.6252,-0.5792,-0.0743,-2.168,-2.4827,-1.4555,-2.1368,-2.5472,-0.3653,-2.8943,-4.6554,-4.36,-2.358,-1.6435,-1.0913,1.6904,1.6256,-0.7843,0.2735,0.0559,2.4067
-1.0891,-1.0923,-0.3272,-1.5408,-2.6442,-1.4618,-2.7035,-1.5569,0.6355,-0.8665,-0.9069,-0.3648,-2.5815,-2.8253,-1.4214,-2.1788,-2.7714,-0.4521,-3.1775,-4.7764,-4.5062,-2.8336,-1.8753,-1.407,1.5133,1.4626,-1.0911,0.0319,0.0778,2.6458
-0.766,-0.7483,-0.0108,-1.3944,-2.6733,-1.4206,-2.9285,-1.6773,-0.0002,-1.1398,-1.2702,-0.6721,-2.9757,-3.1466,-1.3045,-2.0843,-2.8241,-0.4639,-3.2722,-4.7551,-4.5615,-3.2063,-2.0534,-1.7266,1.2984,1.2263,-1.4357,-0.263,0.0886,2.9016
-0.3431,-0.3922,0.2768,-1.257,-2.721,-1.4285,-3.1623,-1.821,-0.6669,-1.4284,-1.6398,-0.972,-3.3411,-3.4496,-1.1602,-1.9216,-2.761,-0.4222,-3.2283,-4.6403,-4.5737,-3.4734,-2.1914,-2.0396,1.0706,0.9519,-1.7916,-0.5758,0.0796,3.1788
0.0946,-0.1024,0.4839,-1.181,-2.8062,-1.5065,-3.4009,-1.9992,-1.3127,-1.7111,-1.9851,-1.2386,-3.6665,-3.7322,-1.0417,-1.7617,-2.6474,-0.3513,-3.1072,-4.4856,-4.588,-3.6389,-2.303,-2.3293,0.8641,0.6866,-2.1215,-0.8629,0.0432,3.4723
0.4613,0.0602,0.5705,-1.2034,-2.9386,-1.6647,-3.6396,-2.2198,-1.8812,-1.9651,-2.2765,-1.4471,-3.9406,-3.9895,-0.9905,-1.6647,-2.5459,-0.2736,-2.9694,-4.3407,-4.6381,-3.7123,-2.4006,-2.5766,0.7151,0.4805,-2.3848,-1.0805,-0.0277,3.768
0.6849,0.0611,0.5126,-1.3409,-3.1177,-1.9011,-3.8714,-2.4813,-2.3164,-2.1698,-2.4887,-1.5786,-4.1538,-4.2147,-1.0298,-1.67,-2.5062,-0.2057,-2.8647,-4.2437,-4.741,-3.7084,-2.494,-2.7642,0.651,0.3739,-2.5465,-1.195,-0.1374,4.0454
0.7209,-0.1034,0.3055,-1.5866,-3.3316,-2.1999,-4.0857,-2.7686,-2.5691,-2.3077,-2.6037,-1.6238,-4.2984,-4.4001,-1.1615,-1.7896,-2.556,-0.1574,-2.8237,-4.2146,-4.8926,-3.6454,-2.5898,-2.8808,0.6815,0.3859,-2.5861,-1.1911,-0.2852,4.2798
0.562,-0.4041,-0.0329,-1.9104,-3.5558,-2.5306,-4.2657,-3.0524,-2.6047,-2.3658,-2.612,-1.5847,-4.3679,-4.5362,-1.3671,-2.0056,-2.6971,-0.1326,-2.8547,-4.2517,-5.068,-3.5425,-2.6909,-2.9234,0.7933,0.5086,-2.5012,-1.0763,-0.4616,4.4453
0.2406,-0.7824,-0.4622,-2.261,-3.7533,-2.8492,-4.3871,-3.2932,-2.4098,-2.3339,-2.5124,-1.4727,-4.3547,-4.6092,-1.6119,-2.2732,-2.9045,-0.1314,-2.9434,-4.3312,-5.2248,-3.4173,-2.7951,-2.8966,0.9532,0.7099,-2.3078,-0.8774,-0.6466,4.5181
-0.1749,-1.1587,-0.9214,-2.5733,-3.8782,-3.1035,-4.4196,-3.4483,-1.9959,-2.204,-2.3107,-1.3035,-4.2483,-4.5997,-1.8506,-2.5285,-3.1317,-0.1521,-3.0562,-4.4098,-5.3094,-3.2813,-2.8946,-2.8093,1.1165,0.9435,-2.034,-0.6319,-0.8115,4.4794
-0.5922,-1.4446,-1.3367,-2.7773,-3.8814,-3.2404,-4.3303,-3.481,-1.397,-1.9703,-2.0162,-1.0909,-4.0348,-4.4823,-2.0338,-2.6989,-3.3176,-0.191,-3.1457,-4.4313,-5.2656,-3.1371,-2.9746,-2.6697,1.241,1.1624,-1.711,-0.3761,-0.9244,4.3188
-0.9105,-1.5579,-1.6321,-2.8088,-3.7187,-3.2151,-4.0902,-3.3698,-0.6645,-1.63,-1.6396,-0.8416,-3.6969,-4.2283,-2.1138,-2.7156,-3.3968,-0.2401,-3.1572,-4.3351,-5.0427,-2.9756,-3.0132,-2.4794,1.3002,1.3327,-1.3634,-0.1344,-0.958,4.0377
-1.0393,-1.4363,-1.7406,-2.6197,-3.3576,-2.9982,-3.6797,-3.1128,0.1422,-1.1847,-1.1914,-0.5532,-3.2172,-3.8095,-2.0486,-2.5239,-3.3098,-0.2829,-3.036,-4.0656,-4.6023,-2.7746,-2.9817,-2.2306,1.2926,1.4427,-1.0023,0.0877,-0.8978,3.6508
-0.913,-1.0454,-1.6143,-2.1838,-2.7824,-2.5795,-3.0935,-2.7287,0.9639,-0.6413,-0.6818,-0.2159,-2.581,-3.2029,-1.8053,-2.0903,-3.0108,-0.2906,-2.7339,-3.5809,-3.9227,-2.5006,-2.8468,-1.9046,1.2442,1.504,-0.6225,0.3039,-0.7468,3.1858
-0.5009,-0.3823,-1.2302,-1.4992,-1.9949,-1.967,-2.3412,-2.2521,1.7494,-0.0121,-0.1213,0.1836,-1.7801,-2.3954,-1.3628,-1.406,-2.4745,-0.2225,-2.2155,-2.8584,-3.0008,-2.1129,-2.5745,-1.4756,1.2016,1.5459,-0.2051,0.5417,-0.5254,2.68
0.1895,0.5284,-0.5911,-0.586,-1.013,-1.184,-1.4457,-1.7258,2.4594,0.6864,0.4783,0.6573,-0.8166,-1.3872,-0.7151,-0.4851,-1.6986,-0.0312,-1.463,-1.8986,-1.8518,-1.5704,-2.1362,-0.917,1.2198,1.6059,0.2754,0.8332,-0.2669,2.1752
1.1171,1.6409,0.2762,0.5174,0.132,-0.2639,-0.4397,-1.1925,3.0682,1.4348,1.1043,1.2114,0.2944,-0.1945,0.1261,0.6381,-0.7046,0.3276,-0.4797,-0.7249,-0.5083,-0.8411,-1.516,-0.2105,1.3454,1.7178,0.842,1.2047,-0.0086,1.7112
2.2161,2.8967,1.3257,1.7604,1.3979,0.7531,0.6381,-0.6878,3.5628,2.2127,1.7433,1.8435,1.5232,1.1498,1.1301,1.9146,0.4656,0.8839,0.7088,0.6189,0.9812,0.089,-0.7165,0.6456,1.6028,1.9024,1.5066,1.6692,0.2173,1.3197
3.4084,4.2328,2.4976,3.0855,2.7343,1.8231,1.7461,-0.2368,3.9415,2.9996,2.3819,2.5416,2.8258,2.5967,2.2493,3.2868,1.7551,1.6437,2.057,2.0742,2.5561,1.2095,0.2389,1.6314,1.9855,2.1627,2.2644,2.2212,0.3895,1.0201
4.6155,5.5879,3.7235,4.4329,4.0842,2.8995,2.8409,0.1463,4.2121,3.7748,3.0067,3.2834,4.1458,4.0838,3.4245,4.6943,3.1,2.5843,3.5054,3.5741,4.1474,2.4827,1.3075,2.7043,2.4564,2.483,3.0911,2.8369,0.4996,0.8168
5.7668,6.9047,4.9313,5.7429,5.385,3.9333,3.8776,0.4553,4.39,4.5162,3.6034,4.0362,5.4178,5.5389,4.5909,6.0771,4.4347,3.6554,4.9858,5.0497,5.6823,3.8454,2.4323,3.8024,2.9543,2.832,3.9447,3.4771,0.5496,0.7
6.8033,8.1307,6.0487,6.9567,6.5707,4.8736,4.8099,0.6868,4.4955,5.1984,4.1551,4.7585,6.5716,6.8843,5.6847,7.3776,5.6965,4.7845,6.427,6.4338,7.0887,5.215,3.5482,4.8513,3.406,3.1674,4.7688,4.0922,0.5467,0.648
7.6788,9.2159,7.0072,8.0171,7.5756,5.6692,5.5911,0.8377,4.5514,5.7921,4.6425,5.4035,7.5387,8.0424,6.6476,8.5419,6.8274,5.8861,7.7587,7.6646,8.2993,6.4977,4.5886,5.7725,3.7395,3.4426,5.4991,4.6297,0.4992,0.6329
8.3596,10.1136,7.749,8.8704,8.3409,6.2736,6.1794,0.9047,4.5805,6.2665,5.0459,5.9255,8.2592,8.9442,7.432,9.5215,7.7762,6.8739,8.9152,8.6895,9.2575,7.6012,5.4923,6.4946,3.8974,3.614,6.0729,5.0428,0.4132,0.6264
8.8267,10.7832,8.2342,9.4722,8.8234,6.6529,6.5446,0.887,4.6037,6.5949,5.3494,6.2885,8.6915,9.5377,8.005,10.2779,8.5022,7.6731,9.8409,9.4698,9.924,8.4467,6.2097,6.9636,3.8471,3.649,6.4391,5.2983,0.2936,0.6064
9.078,11.1961,8.4487,9.794,9.0043,6.7925,6.6744,0.7902,4.6383,6.7615,5.5449,6.4732,8.8196,9.797,8.3521,10.787,8.9789,8.2306,10.4949,9.9854,10.2834,8.9809,6.7085,7.1516,3.5863,3.5326,6.5678,5.3832,0.1458,0.5621
9.1292,11.3409,8.4069,9.8295,8.894,6.7016,6.5775,0.6281,4.6946,6.7654,5.634,6.481,8.6566,9.7272,8.4795,11.0429,9.1977,8.5214,10.8555,10.2367,10.3464,9.1826,6.9752,7.0601,3.1417,3.2701,6.4552,5.3052,-0.0212,0.4952
9.0112,11.2268,8.1482,9.597,8.5303,6.4118,6.2812,0.422,4.7727,6.6217,5.6259,6.3323,8.2421,9.363,8.4118,11.0583,9.1683,8.5496,10.9216,10.2431,10.1478,9.0637,7.0145,6.7189,2.5627,2.8856,6.1236,5.0899,-0.1945,0.4185
8.7622,10.8841,7.7286,9.139,7.9727,5.9711,5.8252,0.1954,4.8588,6.3562,5.532,6.0606,7.635,8.7637,8.1882,10.8623,8.9162,8.3444,10.712,10.0387,9.7401,8.6652,6.8462,6.1786,1.9094,2.4161,5.6162,4.773,-0.3578,0.3501
8.4213,10.3611,7.2096,8.517,7.293,5.4359,5.2539,-0.031,4.9246,5.9996,5.3607,5.7043,6.9036,8.0027,7.8562,10.4964,8.4793,7.9527,10.2623,9.6666,9.1847,8.0483,6.5004,5.5017,1.242,1.9051,4.9892,4.3924,-0.4952,0.3065
8.0238,9.7209,6.6498,7.8051,6.5662,4.8636,4.6107,-0.2438,4.9323,5.5817,5.1146,5.299,6.1159,7.1592,7.4655,10.0111,7.9035,7.4321,9.6223,9.1755,8.5457,7.286,6.0154,4.7536,0.6115,1.3957,4.3043,3.982,-0.5952,0.298
7.6023,9.037,6.0999,7.0832,5.864,4.3083,3.9365,-0.4376,4.8429,5.1286,4.7916,4.8733,5.3343,6.3106,7.0641,9.4626,7.2407,6.843,8.8527,8.618,7.885,6.4548,5.4352,3.997,0.0565,0.927,3.6216,3.5688,-0.6531,0.3256
7.1897,8.3877,5.6034,6.4301,5.2514,3.8194,3.2709,-0.6128,4.6292,4.6639,4.391,4.4477,4.6122,5.5281,6.6956,8.91,6.5464,6.2439,8.0226,8.0491,7.2604,5.6292,4.8087,3.288,-0.3965,0.5329,2.9964,3.1732,-0.6721,0.3823
6.8228,7.8501,5.1983,5.9167,4.7837,3.4411,2.6557,-0.77,4.2875,4.2128,3.9211,4.0384,3.9942,4.874,6.3978,8.412,5.8782,5.6872,7.2056,7.525,6.7247,4.8769,4.1881,2.6755,-0.7307,0.242,2.476,2.8124,-0.6606,0.4554
6.5415,7.491,4.9174,5.5986,4.5038,3.2108,2.1368,-0.905,3.8453,3.805,3.4059,3.6611,3.5172,4.3985,6.2014,8.0214,5.2911,5.2163,6.4734,7.0976,6.3221,4.2547,3.6246,2.1997,-0.9361,0.0776,2.0987,2.5036,-0.6284,0.5305
6.3825,7.3567,4.7859,5.5086,4.4369,3.1553,1.7613,-1.0061,3.36,3.4748,2.8869,3.3348,3.2087,4.1354,6.1269,7.7784,4.8315,4.8624,5.8883,6.8077,6.0833,3.8033,3.1628,1.8896,-1.009,0.056,1.8905,2.2657,-0.5823,0.595
6.3711,7.4639,4.817,5.6504,4.5861,3.2853,1.5719,-1.055,2.9096,3.2571,2.4186,3.0819,3.0852,4.0975,6.1823,7.7035,4.5306,4.6419,5.4938,6.6762,6.0194,3.5433,2.8341,1.7598,-0.9525,0.1839,1.8633,2.1192,-0.5237,0.6407
6.5127,7.7954,5.0076,5.998,4.9288,3.5912,1.598,-1.0304,2.5761,3.1801,2.0591,2.9246,3.1491,4.2735,6.3604,7.7933,4.3991,4.5567,5.3087,6.7,6.1183,3.4726,2.6523,1.8082,-0.7774,0.4562,2.0125,2.0833,-0.448,0.6651
6.7902,8.3028,5.3377,6.4998,5.4192,4.0424,1.8487,-0.9142,2.428,3.2589,1.8581,2.8803,3.3879,4.6294,6.6402,8.0213,4.4266,4.595,5.3253,6.853,6.3449,3.5686,2.6136,2.0158,-0.5024,0.8552,2.3178,2.1724,-0.3474,0.6716
7.1671,8.916,5.7729,7.089,5.9948,4.5911,2.3086,-0.6968,2.5056,3.4907,1.8461,2.9572,3.7752,5.1143,6.9898,8.3433,4.5848,4.735,5.5121,7.0928,6.6481,3.7936,2.6994,2.3511,-0.1517,1.3532,2.7476,2.3927,-0.2143,0.6676
7.5953,9.5566,6.2711,7.6955,6.5874,5.1792,2.9389,-0.3813,2.8136,3.8551,2.0287,3.1524,4.2749,5.669,7.3725,8.7063,4.8333,4.9484,5.8219,7.371,6.9704,4.1014,2.8824,2.7756,0.2484,1.9174,3.2646,2.7407,-0.0448,0.6628
8.0251,10.1519,6.7887,8.2572,7.1337,5.7471,3.6826,0.0154,3.3219,4.3178,2.3861,3.4535,4.8465,6.2356,7.7518,9.0577,5.1267,5.2033,6.1995,7.6435,7.2591,4.4457,3.132,3.2513,0.6742,2.5153,3.8331,3.2033,0.1591,0.6663
8.4136,10.6452,7.2861,8.7266,7.5837,6.2416,4.4731,0.4628,3.9736,4.8367,2.8778,3.8405,5.45,6.7654,8.0961,9.3526,5.4212,5.4675,6.59,7.8762,7.4747,4.7852,3.4188,3.7461,1.1079,3.1197,4.4244,3.76,0.3891,0.6853
8.7285,11.0008,7.729,9.0727,7.9059,6.6216,5.2438,0.9217,4.6973,5.3697,3.4513,4.2899,6.0497,7.223,8.3801,9.5576,5.6788,5.7103,6.9448,8.0476,7.5963,5.0874,3.7165,4.2377,1.5393,3.7114,5.0193,4.3851,0.6322,0.7237
8.9497,11.2044,8.0886,9.2806,8.0876,6.8618,5.938,1.3499,5.4211,5.8817,4.0519,4.7779,6.6171,7.5882,8.5859,9.6518,5.8712,5.9052,7.225,8.1467,7.6218,5.3306,4.0031,4.7133,1.9649,4.28,5.6078,5.0511,0.8725,0.7808
9.067,11.26,8.3416,9.3481,8.1339,6.9544,6.5152,1.7097,6.0847,6.3498,4.6314,5.2819,7.1315,7.8555,8.7032,9.6271,5.982,6.0312,7.4047,8.1707,7.565,5.5041,4.2609,5.1685,2.385,4.8226,6.1861,5.7302,1.0948,0.851
9.0792,11.1856,8.4721,9.2848,8.0644,6.9091,6.9559,1.9743,6.6473,6.7654,5.1543,5.7813,7.5811,8.032,8.7295,9.4876,6.0088,6.0753,7.4726,8.1236,7.451,5.6087,4.477,5.6038,2.8007,5.3404,6.7522,6.3959,1.2869,0.9234
8.9939,11.0092,8.4759,9.1102,7.9095,6.7523,7.2605,2.1326,7.0899,7.1323,5.5987,6.2562,7.9615,8.1355,8.6707,9.2495,5.9627,6.034,7.4331,8.0158,7.3114,5.6564,4.6439,6.0215,3.2108,5.8349,7.3013,7.0223,1.4422,0.9835
8.8278,10.7654,8.3651,8.8538,7.7068,6.5234,7.4456,2.1905,7.415,7.4627,5.9552,6.6865,8.2754,8.1912,8.542,8.9405,5.8675,5.9152,7.3065,7.8651,7.1795,5.6689,4.762,6.4226,3.6103,6.3049,7.8228,7.5837,1.56,1.0162
8.6075,10.4921,8.1699,8.5531,7.4974,6.2701,7.5386,2.1686,7.6418,7.7707,6.223,7.052,8.5301,8.2297,8.3673,8.5985,5.7559,5.74,7.127,7.6976,7.0883,5.6758,4.8413,6.8062,3.9915,6.7442,8.2998,8.054,1.6447,1.0097
8.3677,10.2273,7.9364,8.2515,7.3218,6.042,7.5706,2.098,7.8009,8.0669,6.4073,7.3336,8.7369,8.284,8.1784,8.2679,5.665,5.5414,6.9391,7.5465,7.0679,5.7125,4.9034,7.1702,4.3466,7.1429,8.7126,8.4087,1.7039,0.9585
8.1467,10.0056,7.719,7.9929,7.2163,5.8826,7.5714,2.0137,7.9276,8.3549,6.5164,7.5162,8.9091,8.387,8.0119,7.9946,5.6314,5.3626,6.7921,7.4491,7.1447,5.8172,4.9822,7.5139,4.6722,7.4903,9.0443,8.6274,1.7453,0.8657
7.981,9.854,7.5691,7.816,7.2083,5.8228,7.566,1.9467,8.055,8.6295,6.5606,7.5922,9.0615,8.568,7.9049,7.8202,5.6856,5.251,6.7335,7.4419,7.3392,6.0262,5.1206,7.8402,4.9726,7.779,9.2861,8.6993,1.7746,0.7414
7.8983,9.7891,7.5232,7.7478,7.3127,5.8754,7.5717,1.9185,8.2077,8.8775,6.5513,7.5631,9.2083,8.8488,7.8888,7.7754,5.8476,5.2494,6.8012,7.5542,7.6633,6.3678,5.3636,8.1564,5.2614,8.0087,9.4411,8.6264,1.793,0.5996
7.9118,9.8141,7.5942,7.7987,7.5295,6.0336,7.5977,1.9375,8.3979,9.0816,6.5,7.4402,9.3611,9.2393,7.9834,7.8744,6.1232,5.387,7.0166,7.803,8.1178,6.8558,5.7472,8.4726,5.5584,8.1876,9.5243,8.4259,1.797,0.4529
8.0181,9.9201,7.7686,7.9618,7.8444,6.2739,7.6461,1.9987,8.6237,9.2243,6.4185,7.2429,9.5279,9.7348,8.1926,8.1135,6.5023,5.6722,7.3808,8.1893,8.6907,7.4839,6.2886,8.7989,5.8848,8.3315,9.5584,8.1291,1.7797,0.3076
8.1977,10.0894,8.0112,8.2156,8.2325,6.5621,7.7146,2.0878,8.8721,9.2943,6.3187,6.9973,9.7136,10.3166,8.5033,8.4715,6.9604,6.0896,7.8738,8.6987,9.3588,8.225,6.9784,9.1425,6.2558,8.4605,9.5697,7.7778,1.7325,0.1616
8.4205,10.3013,8.2751,8.5311,8.6644,6.8621,7.8004,2.1856,9.1236,9.2913,6.2141,6.7334,9.9211,10.9552,8.8871,8.915,7.463,6.6027,8.459,9.3044,10.0919,9.0357,7.7803,9.5065,6.6752,8.5955,9.5832,7.4189,1.6476,0.0046
8.6517,10.537,8.5126,8.8786,9.1126,7.1435,7.9031,2.2735,9.3591,9.2285,6.1201,6.4843,10.1541,11.6167,9.3052,9.405,7.9718,7.1608,9.0904,9.9728,10.8576,9.8645,8.6372,9.889,7.1329,8.7542,9.6196,7.0987,1.5201,-0.1783
8.8599,10.7829,8.6852,9.2341,9.5558,7.3862,8.0265,2.3385,9.5659,9.1319,6.0554,6.2834,10.4174,12.2691,9.7138,9.9036,8.4514,7.7075,9.7217,10.6693,11.6271,10.6618,9.4821,10.2845,7.6051,8.9475,9.6939,6.8572,1.3494,-0.4023
9.0213,11.0305,8.7685,9.5808,9.9813,7.5813,8.1777,2.3764,9.7423,9.0369,6.0404,6.1617,10.7168,12.8879,10.0701,10.379,8.8743,8.1899,10.3145,11.3625,12.3782,11.3891,10.2506,10.6839,8.0587,9.1763,9.8134,6.7225,1.1408,-0.6798
9.1216,11.2739,8.7541,9.9094,10.3833,7.7293,8.3648,2.3932,9.8989,8.9816,6.0956,6.1435,11.0562,13.4582,10.3371,10.8077,9.223,8.565,10.8439,12.0274,13.0968,12.024,10.892,11.0752,8.4572,9.4307,9.9774,6.7075,0.9062,-1.0174
9.1556,11.5067,8.6467,10.2146,10.7599,7.8358,8.5936,2.404,10.0574,9.0003,6.2377,6.243,11.435,13.9744,10.4878,11.1754,9.4904,8.8049,11.3,12.6458,13.7756,12.5606,11.3755,11.4448,8.7684,9.6903,10.1773,6.8085,0.6639,-1.417
9.1237,11.7206,8.4617,10.4935,11.1107,7.9082,8.8645,2.4293,10.2448,9.1163,6.4764,6.4615,11.846,14.4371,10.5072,11.4754,9.6774,8.8986,11.6868,13.2059,14.411,13.0062,11.6914,11.7775,8.9707,9.9279,10.3973,7.0067,0.4362,-1.8754
9.0303,11.9061,8.2215,10.7437,11.4352,7.9542,9.1716,2.4904,10.4873,9.3385,6.811,6.7869,12.2753,14.85,10.3947,11.7076,9.7912,8.851,12.0166,13.701,15.0005,13.3751,11.8482,12.0591,9.0572,10.1148,10.6177,7.2728,0.2461,-2.3861
8.8821,12.0542,7.9536,10.9643,11.7338,7.9809,9.5032,2.6038,10.8029,9.6598,7.2299,7.1972,12.7046,15.2168,10.1638,11.8769,9.8433,8.6808,12.3052,14.1285,15.5398,13.6828,11.8672,12.279,9.0373,10.2271,10.8203,7.5742,0.1127,-2.9387
8.6888,12.1595,7.6882,11.1567,12.0088,7.9965,9.846,2.7774,11.1973,10.0605,7.7124,7.665,13.1159,15.5417,9.8418,11.9925,9.848,8.4166,12.566,14.4896,16.0229,13.9419,11.7779,12.4335,8.934,10.2521,10.9945,7.8817,0.0468,-3.5187
8.4637,12.2229,7.4558,11.3258,12.2665,8.0113,10.1884,3.0091,11.6628,10.5131,8.2327,8.1644,13.4972,15.8301,9.4668,12.0672,9.8218,8.0938,12.8072,14.7895,16.4439,14.1614,11.6139,12.5301,8.7807,10.1917,11.1424,8.177,0.0476,-4.1063
8.2249,12.2526,7.2832,11.4802,12.5173,8.037,10.5245,3.2871,12.1805,10.9887,8.7647,8.6756,13.8464,16.0909,9.0834,12.1171,9.782,7.7515,13.031,15.0377,16.7998,14.3482,11.4117,12.5889,8.6159,10.0648,11.281,8.4561,0.1027,-4.6758
7.994,12.2629,7.1898,11.6307,12.7749,8.0864,10.856,3.594,12.7252,11.463,9.2871,9.1878,14.1731,16.3387,8.7362,12.1593,9.7451,7.4301,13.2351,15.2489,17.0937,14.5104,11.2083,12.6416,8.4788,9.9046,11.4399,8.7281,0.1903,-5.1972
7.794,12.2715,7.1835,11.7881,13.0528,8.1709,11.191,3.9104,13.2724,11.92,9.7868,9.6974,14.4954,16.5924,8.4634,12.2105,9.7238,7.1673,13.4154,15.4415,17.3361,14.6594,11.0406,12.726,8.4032,9.7532,11.6541,9.0109,0.2843,-5.6399
7.6459,12.2953,7.2605,11.9607,13.3617,8.2988,11.5403,4.2194,13.8031,12.3525,10.2585,10.2033,14.8352,16.8734,8.2911,12.2842,9.7258,6.9951,13.5693,15.6356,17.5434,14.8107,10.9423,12.8789,8.4135,9.653,11.9538,9.3219,0.3589,-5.9781
7.5663,12.3474,7.4068,12.1533,13.7066,8.4745,11.9129,4.5091,14.3061,12.759,10.7015,10.6997,15.211,17.1999,8.231,12.3891,9.7536,6.9359,13.6991,15.85,17.7348,14.9825,10.9415,13.1268,8.5199,9.6359,12.3536,9.6695,0.3925,-6.196
7.5656,12.4355,7.6037,12.3674,14.0859,8.6986,12.3102,4.7735,14.7768,13.1393,11.115,11.1704,15.6305,17.5828,8.2807,12.5292,9.8063,6.9999,13.8146,16.0997,17.9289,15.1928,11.0568,13.478,8.7167,9.7141,12.8444,10.0438,0.3713,-6.292
7.648,12.5628,7.8328,12.6033,14.4926,8.9686,12.7237,5.0113,15.2133,13.4886,11.4922,11.5856,16.0873,18.0213,8.426,12.7041,9.8824,7.1844,13.933,16.3935,18.1401,15.4554,11.294,13.9191,8.9823,9.8726,13.3898,10.4137,0.2913,-6.2805
7.8119,12.7291,8.0812,12.8614,14.9157,9.2804,13.1352,5.2245,15.6126,13.7945,11.8175,11.9046,16.5593,18.5021,8.6446,12.9108,9.9823,7.4743,14.0777,16.7329,18.377,15.7765,11.6443,14.4146,9.2816,10.0685,13.9298,10.7285,0.1601,-6.1898
8.0487,12.931,8.3426,13.1427,15.3432,9.6283,13.5196,5.417,15.9685,14.0369,12.0676,12.0825,17.0132,19.0003,8.9095,13.1439,10.1082,7.8458,14.2733,17.1112,18.6413,16.1523,12.0842,14.9128,9.5709,10.2364,14.3905,10.9261,-0.0035,-6.0574
8.3419,13.1609,8.6155,13.447,15.7623,10.0045,13.85,5.5935,16.2721,14.1916,12.2157,12.081,17.4104,19.4845,9.1922,13.3952,10.2624,8.2702,14.5398,17.5138,18.9282,16.5692,12.5789,15.3553,9.8044,10.3006,14.698,10.9466,-0.1728,-5.9226
8.6661,13.4056,8.8991,13.7698,16.1603,10.398,14.1025,5.7584,16.5136,14.2366,12.2379,11.8793,17.7157,19.9222,9.4653,13.6528,10.4446,8.7174,14.8869,17.9179,19.2266,17.005,13.0873,15.6882,9.9416,10.1925,14.7939,10.7461,-0.3196,-5.8196
8.9866,13.6446,9.1878,14.1,16.524,10.793,14.2604,5.915,16.6851,14.159,12.1202,11.4815,17.9043,20.2848,9.7039,13.8998,10.6498,9.1594,15.3092,18.2938,19.52,17.4319,13.5681,15.8732,9.955,9.8683,14.6487,10.3102,-0.4217,-5.7716
9.2623,13.8515,9.4677,14.4184,16.84,11.1688,14.317,6.0645,16.7819,13.9609,11.8644,10.9195,17.9669,20.5526,9.8879,14.1155,10.8666,9.5717,15.7843,18.6074,19.7876,17.8206,13.9856,15.8947,9.835,9.3218,14.2696,9.6602,-0.4697,-5.7878
9.4514,13.9982,9.7171,14.7005,17.0966,11.5029,14.2778,6.2058,16.8044,13.6629,11.4908,10.25,17.9119,20.717,10.0026,14.2773,11.0784,9.9338,16.2754,18.8243,20.0065,18.1445,14.314,15.7632,9.5923,8.5904,13.702,8.8537,-0.4696,-5.8625
9.5199,14.0618,9.9108,14.9219,17.2874,11.7752,14.1616,6.3357,16.7586,13.3044,11.0386,9.5468,17.7651,20.783,10.0399,14.3653,11.2652,10.2312,16.7374,18.9164,20.1571,18.3849,14.5402,15.514,9.2562,7.7507,13.0236,7.9772,-0.4402,-5.9777
9.4506,14.0316,10.0274,15.065,17.4149,11.974,14,6.4509,16.6569,12.9408,10.5623,8.8907,17.5675,20.7702,9.9986,14.3682,11.4081,10.4563,17.1266,18.8693,20.228,18.536,14.6645,15.2012,8.8699,6.9057,12.3326,7.1335,-0.4074,-6.1074
9.2492,13.9145,10.0558,15.1256,17.4931,12.1001,13.8357,6.5492,16.5184,12.6361,10.126,8.3598,17.3708,20.7121,9.8846,14.2884,11.4939,10.6095,17.4116,18.6897,20.2223,18.6085,14.7005,14.8908,8.4847,6.1683,11.7339,6.427,-0.3969,-6.2238
8.9451,13.7357,9.9994,15.1154,17.5474,12.1675,13.7182,6.6313,16.3691,12.4557,9.7964,8.0214,17.2328,20.6537,9.7107,14.145,11.5198,10.6997,17.5819,18.4079,20.1605,18.6305,14.674,14.6513,8.1542,5.6429,11.3234,5.9506,-0.4279,-6.3042
8.5859,13.5341,9.8748,15.0606,17.6106,12.2007,13.6977,6.7021,16.2402,12.4568,9.6355,7.9261,17.21,20.6459,9.4959,13.9719,11.496,10.7431,17.6516,18.0754,20.0792,18.6451,14.6205,14.5453,7.9287,5.4104,11.1757,5.774,-0.5101,-6.3374
8.2258,13.3528,9.7063,14.9953,17.716,12.2282,13.8171,6.7708,16.166,12.6802,9.6925,8.1046,17.3497,20.7375,9.2639,13.8122,11.4445,10.7608,17.6565,17.7561,20.0249,18.7031,14.5802,14.6216,7.8503,5.5187,11.3351,5.9366,-0.6427,-6.3275
7.9117,13.2274,9.5177,14.9525,17.8899,12.2751,14.1044,6.8493,16.1788,13.1436,9.9983,8.5651,17.6821,20.9662,9.0393,13.7076,11.3942,10.774,17.6443,17.5128,20.0443,18.8524,14.5918,14.909,7.9472,5.9764,11.8102,6.4437,-0.8163,-6.2941
7.6718,13.1756,9.3243,14.9546,18.1442,12.3562,14.5663,6.9491,16.3035,13.8368,10.5591,9.2918,18.2123,21.3489,8.8438,13.6869,11.3726,10.7986,17.6615,17.3922,20.172,19.1262,14.6849,15.4107,8.2289,6.7535,12.5739,7.266,-1.0166,-6.2683
7.5084,13.1913,9.1283,15.007,18.472,12.4728,15.1844,7.0781,16.5508,14.7203,11.3526,10.2436,18.9166,21.8766,8.69,13.7559,11.3963,10.8397,17.7389,17.4126,20.4209,19.5325,14.8723,16.1025,8.6826,7.7837,13.567,8.3417,-1.2264,-6.2856
7.3985,13.2444,8.9196,15.0969,18.8476,12.613,15.9157,7.2371,16.9131,15.7279,12.3271,11.3548,19.742,22.5116,8.5772,13.8926,11.4627,10.8871,17.8818,17.5573,20.7759,20.0481,15.145,16.9325,9.2712,8.9708,14.7046,9.5811,-1.4277,-6.3765
7.3002,13.2879,8.6813,15.1951,19.2293,12.7552,16.6972,7.419,17.3627,16.7731,13.4047,12.5391,20.612,23.1911,8.4887,14.0483,11.5463,10.9158,18.0655,17.7756,21.1934,20.6194,15.4706,17.8251,9.9362,10.1972,15.8854,10.8744,-1.6007,-6.5584
7.1636,13.2674,8.3965,15.2621,19.5659,12.8731,17.4537,7.6083,17.8545,17.7587,14.4893,13.6966,21.4358,23.8353,8.3939,14.1558,11.601,10.8887,18.2402,17.9916,21.6078,21.169,15.7968,18.6884,10.6031,11.3361,17.0018,12.1029,-1.7242,-6.8302
6.9426,13.1329,8.056,15.2551,19.8044,12.9404,18.1075,7.7826,18.3308,18.5877,15.478,14.7249,22.1205,24.3586,8.2539,14.1421,11.5685,10.7642,18.3416,18.1186,21.9419,21.6096,16.0588,19.4248,11.1903,12.266,17.9509,13.1519,-1.776,-7.1708
6.6048,12.8488,7.6616,15.1342,19.8983,12.9341,18.5876,7.9149,18.7301,19.1747,16.2746,15.5313,22.5839,24.6828,8.0301,13.9437,11.392,10.506,18.3064,18.076,22.1217,21.8599,16.1912,19.9445,11.6213,12.8857,18.646,13.9249,-1.7367,-7.5425
6.1388,12.3998,7.2267,14.8694,19.8145,12.837,18.8393,7.9769,18.9948,19.4562,16.8021,16.0445,22.7667,24.7508,7.6946,13.5207,11.0297,10.0928,18.0872,17.8056,22.0903,21.8614,16.1415,20.1781,11.8349,13.1294,19.0257,14.3556,-1.5947,-7.8968
5.5568,11.7948,6.7727,14.4453,19.5403,12.6401,18.8304,7.9436,19.0787,19.398,17.0123,16.2236,22.6413,24.5366,7.2388,12.8678,10.4673,9.5273,17.6652,17.2844,21.8207,21.5911,15.8821,20.0885,11.7951,12.9754,19.0618,14.4161,-1.3516,-8.1836
4.8941,11.0659,6.3251,13.867,19.0876,12.3459,18.5567,7.799,18.9538,19.0002,16.892,16.063,22.2173,24.0528,6.6799,12.0186,9.7254,8.8407,17.0567,16.5324,21.3234,21.0679,15.4187,19.6785,11.4972,12.4506,18.7621,14.1198,-1.0257,-8.3598
4.2047,10.2657,5.9099,13.1622,18.4944,11.9714,18.0435,7.542,18.6146,18.2976,16.4637,15.5924,21.5417,23.3511,6.0612,11.0445,8.8601,8.0917,16.3136,15.6128,20.6476,20.3527,14.7928,18.9928,10.97,11.6259,18.1703,13.5179,-0.6506,-8.3991
3.5543,9.4607,5.5511,12.3814,17.8223,11.549,17.3425,7.1886,18.0796,17.3552,15.7813,14.8716,20.6931,22.5164,5.448,10.0452,7.9564,7.3583,15.5164,14.6238,19.8754,19.5399,14.077,18.1125,10.2735,10.6047,17.3594,12.6902,-0.2696,-8.2975
3.0106,8.7221,5.269,11.5921,17.1482,11.1241,16.5257,6.7713,17.3887,16.2591,14.9212,13.9805,19.77,21.6539,4.9161,9.133,7.1153,6.7235,14.7608,13.6834,19.1082,18.7427,13.3626,17.1433,9.4903,9.5075,16.4219,11.7317,0.0739,-8.0758
2.6317,8.1137,5.0777,10.8688,16.5526,10.7479,15.6742,6.3338,16.5977,15.1052,13.97,13.0078,18.8755,20.8714,4.5365,8.4129,6.4344,6.2587,14.1398,12.9077,18.4495,18.0738,12.7438,16.1983,8.7145,8.4528,15.4561,10.7382,0.3457,-7.7766
2.455,7.6799,4.9825,10.2789,16.106,10.4676,14.8671,5.922,15.77,13.9862,13.0127,12.0382,18.1013,20.2609,4.3598,7.9625,5.9895,6.0088,13.7253,12.3888,17.9855,17.6256,12.3005,15.3801,8.0369,7.5417,14.5538,9.7933,0.5274,-7.455
2.4885,7.4367,4.9762,9.8703,15.8559,10.3162,14.1705,5.575,14.9671,12.9811,12.1229,11.1447,17.5146,19.884,4.4042,7.8168,5.8181,5.984,13.5539,12.1766,17.7706,17.4546,12.0843,14.766,7.5316,6.8473,13.7893,8.9608,0.6171,-7.1668
2.7078,7.3682,5.0391,9.6612,15.8185,10.3044,13.6295,5.3162,14.2412,12.1472,11.357,10.3829,17.1499,19.7631,4.6503,7.9613,5.912,6.1593,13.6197,12.2696,17.8179,17.5728,12.1109,14.3991,7.2459,6.411,13.2146,8.2837,0.6267,-6.9562
3.0597,7.4303,5.1399,9.6386,15.9762,10.4183,13.2639,5.15,13.6288,11.5174,10.7524,9.7906,17.0074,19.8807,5.0456,8.3352,6.2193,6.4818,13.8769,12.6164,18.0989,17.9493,12.36,14.2859,7.1949,6.2435,12.8566,7.7861,0.5741,-6.8467
3.4725,7.5612,5.2414,9.7619,16.2812,10.6217,13.068,5.0612,13.1461,11.0995,10.3268,9.3873,17.0569,20.1859,5.5158,8.8442,6.6562,6.8822,14.251,13.1279,18.5505,18.5183,12.7809,14.4001,7.3613,6.3293,12.7185,7.4769,0.4766,-6.8391
3.8703,7.695,5.3071,9.9734,16.6655,10.8643,13.0139,5.0197,12.7886,10.8789,10.0791,9.1742,17.2452,20.6057,5.9813,9.3805,7.1255,7.2882,14.6567,13.6968,19.0882,19.1936,13.3039,14.6905,7.7003,6.6303,12.782,7.3515,0.3454,-6.9131
4.1876,7.7754,5.3088,10.2108,17.0533,11.0915,13.0589,4.9882,12.532,10.822,9.99,9.1336,17.5067,21.059,6.3729,9.8433,7.5369,7.6373,15.0158,14.2183,19.6216,19.8838,13.8529,15.0899,8.1465,7.0894,13.0096,7.3917,0.184,-7.0356
4.3797,7.765,5.2308,10.4182,17.3739,11.2546,13.1532,4.9299,12.3379,10.8828,10.0248,9.2305,17.774,21.4697,6.6433,10.1565,7.8227,7.8854,15.2725,14.6083,20.0701,20.5053,14.3566,15.5263,8.6244,7.6352,13.3491,7.5648,-0.0102,-7.1682
4.4278,7.6493,5.0724,10.5538,17.5732,11.3188,13.2495,4.8179,12.1626,11.0101,10.1373,9.4161,17.9887,21.7777,6.7711,10.2783,7.9476,8.0121,15.4001,14.8151,20.3745,20.993,14.7576,15.9319,9.0587,8.1888,13.74,7.8269,-0.2408,-7.2757
4.3378,7.4351,4.8459,10.5939,17.6212,11.2687,13.3121,4.6414,11.9677,11.1562,10.2786,9.6368,18.1102,21.9464,6.7583,10.2036,7.9089,8.0208,15.4008,14.823,20.5037,21.3062,15.0185,16.253,9.3859,8.6744,14.1221,8.1282,-0.5066,-7.3306
4.1357,7.1461,4.5728,10.5334,17.5154,11.1099,13.3225,4.4094,11.7303,11.2854,10.4067,9.844,18.1223,21.9661,6.6244,9.9584,7.7312,7.9349,15.2991,14.6499,20.4562,21.4315,15.1242,16.4565,9.5632,9.0318,14.4464,8.4221,-0.796,-7.3159
3.8609,6.816,4.2792,10.3845,17.2799,10.8678,13.2819,4.1496,11.4494,11.3784,10.4944,10.0039,18.035,21.8536,6.3982,9.5904,7.457,7.7907,15.1327,14.3395,20.2578,21.3814,15.0818,16.5342,9.5743,9.2269,14.6832,8.6742,-1.0851,-7.2259
3.5589,6.4825,3.9915,10.1725,16.9597,10.5834,13.2081,3.9023,11.146,11.4333,10.5342,10.1034,17.8814,21.6477,6.1118,9.1587,7.1373,7.6283,14.9421,13.9519,19.9548,21.1902,14.917,16.5015,9.4298,9.2568,14.826,8.8669,-1.3401,-7.0659
3.2738,6.1814,3.7332,9.9319,16.6113,10.3052,13.1288,3.711,10.8565,11.4608,10.5365,10.1495,17.7087,21.4011,5.7968,8.7231,6.822,7.4822,14.7637,13.5523,19.6056,20.9075,14.6691,16.3919,9.1626,9.1493,14.8895,8.9992,-1.5245,-6.8524
3.0421,5.9422,3.5239,9.7007,16.2926,10.0805,13.0741,3.6114,10.6217,11.4776,10.5235,10.1634,17.5677,21.1705,5.4832,8.3364,6.5537,7.3746,14.625,13.2017,19.2714,20.5895,14.3842,16.2493,8.8205,8.9549,14.9025,9.0826,-1.6085,-6.6115
2.8869,5.7849,3.3783,9.5143,16.052,9.9469,13.0678,3.6227,10.4737,11.4981,10.5207,10.1724,17.5011,21.0064,5.1992,8.0385,6.363,7.3122,14.5427,12.9486,19.0067,20.2913,14.109,16.1184,8.4579,8.7354,14.8981,9.1335,-1.5775,-6.3766
2.8164,5.7187,3.305,9.4,15.9209,9.9241,13.1228,3.7427,10.427,11.5292,10.5482,10.1999,17.5349,20.9448,4.9709,7.8544,6.2659,7.2876,14.5221,12.8242,18.8514,20.059,13.8846,16.0364,8.1278,8.5512,14.9045,9.1666,-1.4384,-6.1831
2.8239,5.7411,3.3047,9.3711,15.9087,10.0112,13.2381,3.9476,10.4742,11.5672,10.6152,10.2587,17.6729,21.0011,4.8205,7.7921,6.2631,7.2839,14.5581,12.8388,18.8253,19.9237,13.7422,16.0268,7.876,8.4502,14.9386,9.1907,-1.2187,-6.0626
2.8908,5.8375,3.367,9.424,16.002,10.1856,13.3987,4.1973,10.5879,11.5987,10.7176,10.3476,17.8967,21.1679,4.7631,7.8439,6.3411,7.2812,14.6361,12.9815,18.9245,19.8979,13.6995,16.0964,7.7365,8.4598,15.0032,9.2071,-0.9619,-6.0362
2.9914,5.9818,3.4692,9.5371,16.1673,10.4074,13.5783,4.4427,10.7274,11.6028,10.8383,10.4512,18.1679,21.4169,4.8031,7.9874,6.4744,7.2622,14.7343,13.2224,19.123,19.9741,13.7598,16.2349,7.7285,8.5846,15.0877,9.2107,-0.7164,-6.1095
3.0975,6.1374,3.5774,9.6729,16.3563,10.6261,13.7423,4.6344,10.8468,11.555,10.9509,10.5435,18.4348,21.7029,4.9314,8.1882,6.6297,7.2156,14.8271,13.5164,19.3766,20.127,13.9126,16.418,7.8538,8.8074,15.172,9.1923,-0.5252,-6.2716
3.1833,6.2613,3.6506,9.7844,16.5144,10.7895,13.8525,4.731,10.905,11.4305,11.0243,10.5929,18.6399,21.9712,5.1249,8.4041,6.7695,7.137,14.8888,13.8099,19.6302,20.3171,14.1356,16.6107,8.0965,9.0935,15.2309,9.1412,-0.417,-6.4956
3.2269,6.3094,3.6481,9.8224,16.5896,10.852,13.873,4.7057,10.8728,11.2087,11.0283,10.5689,18.7291,22.1659,5.3473,8.5896,6.8572,7.0285,14.8969,14.0486,19.8267,20.4974,14.3972,16.7733,8.4237,9.397,15.239,9.046,-0.4023,-6.7431
3.2112,6.2436,3.536,9.7442,16.5407,10.7818,13.7751,4.5501,10.7386,10.8764,10.9397,10.4482,18.66,22.2374,5.5529,8.702,6.8611,6.897,14.8345,14.1851,19.9162,20.6191,14.6594,16.866,8.7888,9.6678,15.1748,8.896,-0.4749,-6.9696
3.1236,6.0383,3.2941,9.5222,16.3445,10.5647,13.5436,4.2742,10.5093,10.4317,10.7462,10.2199,18.4091,22.1506,5.6927,8.7066,6.7588,6.7528,14.6915,14.1869,19.8631,20.6391,14.8813,16.8547,9.1372,9.8592,15.0239,8.6826,-0.6168,-7.1315
2.9569,5.6873,2.9194,9.1499,16.0001,10.2069,13.1813,3.9039,10.2078,9.8869,10.4502,9.889,17.9766,21.8905,5.7222,8.5822,6.5404,6.607,14.466,14.0407,19.6524,20.5255,15.0238,16.7163,9.4151,9.9359,14.7818,8.4021,-0.805,-7.193
2.7118,5.2068,2.4288,8.6452,15.5291,9.733,12.711,3.4763,9.8684,9.2702,10.0693,9.4777,17.3882,21.4659,5.6109,8.3254,6.2114,6.4682,14.1643,13.7559,19.2923,20.263,15.0551,16.4434,9.5779,9.8824,14.4564,8.0601,-1.0168,-7.133
2.3998,4.6361,1.8573,8.0494,14.9736,9.1836,12.1743,3.0343,9.5304,8.6256,9.6358,9.0237,16.6927,20.9108,5.3502,7.9537,5.7942,6.3408,13.8029,13.3631,18.8138,19.8558,14.9572,16.0474,9.5991,9.7074,14.07,7.6758,-1.2336,-6.9507
2.0454,4.0336,1.2543,7.4221,14.3893,8.6092,11.6258,2.6206,9.2324,8.0084,9.192,8.5749,15.956,20.28,4.9594,7.5046,5.3262,6.2243,13.4075,12.9101,18.2672,19.3283,14.7295,15.5587,9.4747,9.4442,13.658,7.2833,-1.4418,-6.6667
1.6842,3.4675,0.6762,6.8309,13.8365,8.062,11.124,2.2725,9.0071,7.4777,8.7851,8.1818,15.251,19.6417,4.4841,7.0313,4.8558,6.1147,13.0119,12.4552,17.7143,18.7213,14.3909,15.0229,9.2233,9.1454,13.2642,6.9282,-1.6313,-6.3208
1.3564,3.0039,0.1773,6.3388,13.3691,7.5877,10.7207,2.0168,8.8771,7.0852,8.4591,7.8879,14.6456,19.0664,3.9894,6.5942,4.4346,6.0058,12.6526,12.0567,17.219,18.0855,13.9764,14.4934,8.8805,8.8708,12.9339,6.6594,-1.7932,-5.9654
1.0992,2.6933,-0.1997,5.9921,13.025,7.2175,10.4504,1.866,8.8523,6.8656,8.2473,7.7211,14.1913,18.6139,3.5466,6.2491,4.1078,5.8911,12.3624,11.7638,16.8357,17.4733,13.5307,14.0212,8.4916,8.6747,12.7039,6.5183,-1.9182,-5.6564
0.9392,2.5606,-0.4301,5.8111,12.8198,6.9646,10.3245,1.8172,8.9273,6.8283,8.1656,7.6879,13.9144,18.3229,3.2186,6.0373,3.9063,5.7637,12.1631,11.6083,16.6002,16.9304,13.1001,13.6465,8.1024,8.5931,12.5955,6.5276,-1.9958,-5.4427
0.8877,2.6005,-0.5115,5.7871,12.7453,6.8232,10.3301,1.8532,9.0824,6.9545,8.2079,7.7717,13.8125,18.205,3.0472,5.9773,3.8405,5.6184,12.0615,11.5997,16.5237,16.4893,12.7238,13.3913,7.7513,8.6355,12.6094,6.6849,-2.0153,-5.3574
0.9409,2.7804,-0.4618,5.886,12.774,6.7733,10.4338,1.947,9.2864,7.2004,8.3468,7.9361,13.8576,18.2447,3.0468,6.0643,3.9003,5.453,12.0486,11.7261,16.5921,16.1663,12.4285,13.258,7.4642,8.7842,12.726,6.9612,-1.9685,-5.4116
1.0834,3.049,-0.3145,6.0581,12.8669,6.7878,10.5901,2.069,9.5032,7.5053,8.5384,8.1329,14.0029,18.4043,3.2042,6.2728,4.0591,5.2717,12.1032,11.958,16.7708,15.9619,12.2254,13.2315,7.2537,8.9984,12.9095,7.3065,-1.8531,-5.5929
1.2942,3.3494,-0.1117,6.2505,12.9838,6.8393,10.7508,2.1925,9.6985,7.8036,8.7307,8.3125,14.1943,18.6335,3.4854,6.5655,4.2814,5.0865,12.1992,12.2561,17.013,15.8638,12.1119,13.2851,7.1205,9.2248,13.1159,7.6604,-1.6754,-5.8693
1.5514,3.6311,0.1035,6.4188,13.0908,6.906,10.8737,2.2979,9.8463,8.0361,8.8744,8.4332,14.3805,18.879,3.8449,6.9013,4.5309,4.9173,12.3117,12.5793,17.2691,15.8517,12.0755,13.3868,7.0571,9.4091,13.3015,7.9648,-1.4505,-6.1971
1.8362,3.8586,0.2931,6.5351,13.1656,6.9739,10.9282,2.3732,9.9315,8.16,8.9311,8.4676,14.5218,19.0933,4.2357,7.2432,4.7778,4.7888,12.4234,12.8913,17.4956,15.9024,12.0986,13.5064,7.0522,9.5076,13.4313,8.1746,-1.2009,-6.5296
2.1336,4.015,0.4291,6.5904,13.1977,7.0356,10.8976,2.412,9.9488,8.1533,8.8789,8.4043,14.5945,19.2409,4.6161,7.5629,5.0018,4.7241,12.5252,13.1652,17.6608,15.994,12.163,13.6188,7.0944,9.4943,13.4838,8.2646,-0.9527,-6.8264
2.4315,4.0998,0.4956,6.5913,13.1859,7.0874,10.7796,2.41,9.9004,8.0167,8.7142,8.2464,14.5908,19.3005,4.9542,7.8413,5.1928,4.7378,12.615,13.3831,17.7465,16.1078,12.252,13.7072,7.1732,9.3649,13.4538,8.2312,-0.7315,-7.0591
2.719,4.1241,0.4883,6.5532,13.1342,7.1251,10.5837,2.3634,9.7932,7.7698,8.4507,8.0078,14.5157,19.2652,5.2275,8.0662,5.3479,4.8292,12.6929,13.535,17.7478,16.2294,12.3514,13.7629,7.2799,9.135,13.3508,8.0899,-0.5588,-7.2144
2.9847,4.105,0.4128,6.493,13.0485,7.1428,10.3292,2.2685,9.6372,7.4475,8.1165,7.7102,14.3827,19.1404,5.4216,8.2299,5.4677,4.9796,12.7567,13.6152,17.6696,16.3471,12.4492,13.7851,7.4066,8.8366,13.1967,7.87,-0.4499,-7.2941
3.2162,4.0604,0.281,6.4234,12.9346,7.1323,10.0427,2.1242,9.4466,7.094,7.7493,7.3794,14.2084,18.9402,5.5294,8.3271,5.5525,5.1544,12.7988,13.6208,17.523,16.4514,12.5341,13.7779,7.5455,8.5109,13.0193,7.6089,-0.4125,-7.3128
3.4017,4.0069,0.1086,6.3515,12.7973,7.0865,9.7543,1.9356,9.2397,6.7558,7.3904,7.0433,14.0084,18.6837,5.5507,8.3554,5.6009,5.3105,12.8058,13.5514,17.3221,16.5328,12.5947,13.7482,7.687,8.2004,12.8473,7.3447,-0.4465,-7.2926
3.5325,3.9584,-0.0871,6.2793,12.6418,7.0019,9.4936,1.7166,9.0391,6.4751,7.078,6.7279,13.7945,18.3907,5.4928,8.3158,5.6091,5.4063,12.7607,13.4101,17.0808,16.5809,12.6189,13.7017,7.8199,7.9406,12.703,7.1103,-0.5433,-7.2563
3.6054,3.9247,-0.2884,6.2062,12.4731,6.8813,9.2852,1.4903,8.8689,6.2828,6.8418,6.4547,13.572,18.0779,5.3706,8.2148,5.5723,5.4124,12.6467,13.2045,16.8103,16.5833,12.5933,13.6394,7.9312,7.7531,12.5978,6.9281,-0.686,-7.2213
3.6251,3.9114,-0.4778,6.1321,12.2972,6.7351,9.1439,1.2861,8.7511,6.1933,6.6981,6.2382,13.34,17.7564,5.2052,8.0643,5.4864,5.3187,12.4515,12.9469,16.5179,16.5265,12.5049,13.5563,8.0068,7.6411,12.5288,6.8065,-0.8506,-7.1936
3.604,3.919,-0.6378,6.0591,12.1205,6.5795,9.0721,1.1352,8.7001,6.2033,6.6493,6.0851,13.0927,17.4306,5.0215,7.8808,5.3502,5.1366,12.1711,12.6532,16.2075,16.3977,12.3433,13.441,8.0339,7.5898,12.4796,6.7395,-1.008,-7.1669
3.5605,3.943,-0.7514,5.9922,11.9492,6.4341,9.0588,1.0642,8.7193,6.2931,6.6843,5.9941,12.8216,17.0991,4.8444,7.6828,5.1673,4.895,11.812,12.3412,15.8799,16.1874,12.104,13.2784,8.0024,7.5699,12.4237,6.7085,-1.1284,-7.1248
3.5151,3.9752,-0.8034,5.9378,11.7885,6.3181,9.0826,1.09,8.798,6.4316,6.783,5.9572,12.5184,16.7571,4.6936,7.4885,4.9467,4.6325,11.3912,12.0283,15.5355,15.8915,11.7913,13.0535,7.9065,7.5447,12.3312,6.6876,-1.1856,-7.047
3.4867,4.0049,-0.7834,5.9012,11.6416,6.2454,9.1164,1.2163,8.9134,6.5838,6.921,5.9626,12.1792,16.3991,4.5807,7.3123,4.7021,4.3871,10.9348,11.7292,15.1757,15.5138,11.4196,12.7565,7.7456,7.4798,12.1762,6.6495,-1.1612,-6.9167
3.4878,4.0209,-0.689,5.8846,11.5089,6.2213,9.134,1.4318,9.0344,6.7179,7.0762,5.9981,11.8065,16.0229,4.5068,7.1635,4.4502,4.1873,10.4742,11.4559,14.8058,15.0672,11.0128,12.3881,7.5261,7.3519,11.945,6.5736,-1.0483,-6.7276
3.5221,4.0127,-0.5286,5.8846,11.3885,6.2406,9.1169,1.7119,9.1286,6.8121,7.2325,6.0544,11.4119,15.6323,4.4647,7.0459,4.2087,4.0481,10.0423,11.2177,14.4358,14.5747,10.6026,11.963,7.2616,7.1571,11.6414,6.4524,-0.8532,-6.4874
3.583,3.9729,-0.3215,5.8925,11.2766,6.288,9.0577,2.0229,9.1689,6.8587,7.3822,6.1275,11.0154,15.2393,4.4431,6.9596,3.9954,3.9716,9.6704,11.0232,14.0808,14.0678,10.2238,11.5105,6.9735,6.9129,11.2881,6.2942,-0.5946,-6.2185
3.6561,3.8975,-0.0955,5.8961,11.1691,6.3418,8.9607,2.3269,9.1389,6.8638,7.5244,6.2179,10.6438,14.8632,4.4323,6.9027,3.8271,3.9499,9.3839,10.8814,13.7587,13.583,9.909,11.0705,6.6879,6.6559,10.9237,6.122,-0.3012,-5.9527
3.7232,3.7872,0.1179,5.8822,11.0622,6.3786,8.8398,2.5886,9.0354,6.8441,7.6611,6.3279,10.3255,14.528,4.429,6.8748,3.7199,3.971,9.2004,10.8022,13.487,13.1564,9.6832,10.6869,6.4327,6.4329,10.5938,5.967,-0.0058,-5.7256
3.7677,3.6474,0.2893,5.8399,10.9535,6.3789,8.7129,2.7797,8.868,6.8217,7.792,6.4576,10.085,14.2575,4.4383,6.8781,3.6892,4.0226,9.1277,10.7953,13.2797,12.8182,9.5598,10.3979,6.2318,6.2901,10.3416,5.8604,0.259,-5.5677
3.7803,3.4876,0.3968,5.7631,10.842,6.331,8.5967,2.8823,8.6554,6.817,7.9107,6.6019,9.9382,14.0703,4.4733,6.9178,3.7478,4.0961,9.1621,10.8678,13.1432,12.5877,9.5388,10.2279,6.1011,6.2609,10.1973,5.8256,0.4662,-5.4975
3.7618,3.3201,0.4303,5.652,10.7285,6.2329,8.5024,2.8887,8.421,6.8432,8.0041,6.7488,9.8888,13.9752,4.5503,6.9997,3.9026,4.1881,9.2888,11.0205,13.0752,12.4712,9.608,10.1832,6.0456,6.3582,10.1726,5.8729,0.597,-5.5163
3.7241,3.1585,0.3924,5.5126,10.6153,6.0927,8.4328,2.8008,8.1881,6.903,8.0538,6.8818,9.9276,13.9689,4.6834,7.1269,4.151,4.3008,9.4825,11.2453,13.064,12.461,9.7455,10.2507,6.0586,6.5698,10.2578,5.9971,0.6432,-5.6059
3.6871,3.015,0.2976,5.3556,10.5056,5.9258,8.3824,2.6276,7.9772,6.9876,8.0415,6.9819,10.0341,14.0359,4.8791,7.2969,4.4777,4.4404,9.7108,11.5234,13.0906,12.5379,9.9238,10.4014,6.1232,6.8601,10.425,6.1795,0.6067,-5.7319
3.6731,2.8992,0.1686,5.1942,10.4028,5.7521,8.3398,2.3839,7.8033,7.0782,7.9543,7.0317,10.1797,14.1502,5.1329,7.5004,4.855,4.6148,9.9387,11.8274,13.1325,12.674,10.1139,10.5959,6.2153,7.1755,10.6325,6.3908,0.4981,-5.8519
3.7017,2.8172,0.032,5.0421,10.3099,5.5915,8.2907,2.0886,7.6753,7.15,7.789,7.018,10.3319,14.2798,5.4296,7.7223,5.2468,4.8289,10.1344,12.1245,13.1674,12.8375,10.2898,10.7917,6.3075,7.4537,10.832,6.5953,0.334,-5.9258
3.7843,2.7725,-0.0851,4.9129,10.229,5.4615,8.2213,1.7641,7.5947,7.176,7.554,6.9334,10.4582,14.3908,5.7477,7.9468,5.617,5.0822,10.2752,12.3831,13.1777,12.9982,10.4324,10.9491,6.3726,7.6345,10.9757,6.7562,0.134,-5.9272
3.9242,2.7686,-0.1584,4.8198,10.1617,5.3749,8.1227,1.4355,7.5566,7.1325,7.2685,6.7762,10.5308,14.4535,6.0663,8.1619,5.9377,5.3666,10.3523,12.5789,13.1535,13.1322,10.5318,11.0375,6.3878,7.6707,11.0235,6.8397,-0.0824,-5.8505
4.1177,2.8115,-0.1673,4.7771,10.1114,5.3406,7.9937,1.13,7.5521,7.0034,6.9596,6.5507,10.5306,14.4479,6.3723,8.3652,6.1969,5.6673,10.3719,12.701,13.0951,13.2261,10.5888,11.0398,6.3363,7.5352,10.9495,6.8198,-0.2974,-5.713
4.358,2.9118,-0.0969,4.8005,10.0839,5.3634,7.8422,0.8763,7.5713,6.7852,6.6583,6.2673,10.4517,14.3681,6.6644,8.5653,6.4006,5.9658,10.3542,12.7552,13.0132,13.2784,10.6134,10.9545,6.2094,7.2263,10.7468,6.6827,-0.4966,-5.5511
4.638,3.0837,0.0601,4.9061,10.0886,5.4458,7.6853,0.7012,7.6076,6.4897,6.3954,5.9424,10.3025,14.2241,6.9533,8.7796,6.5704,6.2427,10.3276,12.7629,12.927,13.2989,10.6219,10.7966,6.0074,6.7678,10.4298,6.4306,-0.668,-5.4121
4.9511,3.3409,0.302,5.1068,10.1367,5.5876,7.5462,0.626,7.6596,6.1441,6.1977,5.5997,10.1061,14.0415,7.2564,9.0294,6.7357,6.482,10.3219,12.7568,12.8607,13.3056,10.6326,10.5953,5.7403,6.2071,10.0341,6.0839,-0.8021,-5.343
5.2914,3.6915,0.6168,5.4083,10.2383,5.7856,7.4508,0.6617,7.7327,5.7891,6.085,5.2693,9.8971,13.8571,7.5903,9.3321,6.9254,6.6734,10.3613,12.7741,12.8387,13.3202,10.6624,10.3896,5.4286,5.6093,9.6129,5.6815,-0.8912,-5.3796
5.6517,4.1324,0.9829,5.805,10.3988,6.0328,7.4219,0.8064,7.8381,5.4731,6.0684,4.9869,9.7168,13.7121,7.963,9.6953,7.1594,6.8139,10.4597,12.8471,12.8802,13.3639,10.7235,10.2224,5.1034,5.0501,9.2302,5.2778,-0.9297,-5.5376
6.0222,4.6452,1.37,6.2765,10.6148,6.3172,7.4752,1.0446,7.9905,5.2442,6.1508,4.7896,9.6053,13.6433,8.3681,10.1119,7.442,6.9069,10.6176,12.9957,12.9948,13.452,10.8215,10.1325,4.805,4.6058,8.9511,4.9352,-0.9157,-5.8076
6.3885,5.1948,1.7414,6.7875,10.8708,6.6198,7.6139,1.348,8.2032,5.1406,6.3271,4.7113,9.5926,13.674,8.7818,10.5587,7.7595,6.9595,10.8216,13.2204,13.1779,13.5883,10.9534,10.1464,4.5784,4.3442,8.83,4.7154,-0.8517,-6.1568
6.7301,5.732,2.0567,7.2899,11.1384,6.9135,7.8264,1.6787,8.483,5.181,6.5849,4.7752,9.6898,13.8052,9.1653,10.9974,8.0794,6.9776,11.0456,13.5001,13.4084,13.7608,11.1052,10.2714,4.4656,4.3132,8.8992,4.6674,-0.7462,-6.5353
7.0203,6.1987,2.2761,7.7272,11.3774,7.1626,8.084,1.9928,8.8247,5.3578,6.9043,4.9863,9.8827,14.0119,9.4693,11.3785,8.355,6.9613,11.2526,13.793,13.6482,13.939,11.2506,10.4905,4.4962,4.5322,9.1591,4.8164,-0.6127,-6.8865
7.2277,6.5374,2.3646,8.0421,11.5407,7.3257,8.3433,2.2449,9.2084,5.6356,7.2571,5.3254,10.1299,14.2428,9.6422,11.6484,8.5317,6.9021,11.3982,14.0418,13.8453,14.0755,11.3516,10.762,4.6774,4.9855,9.5738,5.1552,-0.4683,-7.1584
7.3201,6.7012,2.2977,8.185,11.5822,7.3613,8.551,2.3938,9.6011,5.9548,7.6073,5.7477,10.3671,14.427,9.6395,11.7567,8.5568,6.7835,11.4352,14.1825,13.9403,14.1119,11.3624,11.0242,4.9888,5.6209,10.0734,5.6407,-0.3305,-7.3126
7.2708,6.6633,2.0665,8.1222,11.4656,7.2355,8.6522,2.4089,9.961,6.2417,7.9135,6.1865,10.5177,14.4866,9.433,11.6662,8.3902,6.5861,11.3216,14.1563,13.8764,13.9903,11.237,11.205,5.3823,6.356,10.5641,6.1985,-0.2155,-7.3301
7.0654,6.4225,1.6814,7.844,11.1737,6.9318,8.6014,2.2757,10.2454,6.4231,8.133,6.5636,10.5087,14.3525,9.0189,11.3611,8.0153,6.296,11.0293,13.9217,13.6114,13.6676,10.9401,11.2359,5.7899,7.0892,10.9452,6.7343,-0.1362,-7.2117
6.7086,6.0045,1.1724,7.3677,10.7146,6.4573,8.3726,1.9997,10.4183,6.4415,8.2285,6.8048,10.2872,13.9814,8.4228,10.8534,7.4454,5.9126,10.5536,13.4655,13.1293,13.1295,10.4583,11.0671,6.1366,7.7181,11.1295,7.1521,-0.1016,-6.9755
6.2266,5.4578,0.5877,6.7385,10.1232,5.8461,7.9671,1.6087,10.458,6.2679,8.175,6.8558,9.8353,13.3689,7.6994,10.1849,6.7259,5.4546,9.9194,12.809,12.4482,12.3998,9.808,10.6801,6.3568,8.1578,11.0627,7.374,-0.1166,-6.6516
5.6663,4.8466,-0.0127,6.0249,9.4582,5.157,7.4168,1.1516,10.3622,5.9094,7.9676,6.6975,9.1771,12.5551,6.927,9.4226,5.9285,4.9599,9.1813,12.0087,11.6213,11.541,9.0372,10.095,6.4088,8.3582,10.7371,7.359,-0.1811,-6.2769
5.0889,4.2415,-0.5642,5.3103,8.7944,4.4664,6.7807,0.6951,10.1505,5.4101,7.6254,6.353,8.3771,11.6207,6.1956,8.6498,5.1398,4.4815,8.4168,11.1487,10.7317,10.6464,8.2205,9.3694,6.2844,8.3129,10.1954,7.1139,-0.2899,-5.8893
4.5603,3.7103,-1.0064,4.6817,8.2112,3.857,6.1358,0.315,9.8613,4.8421,7.1916,5.8851,7.5287,10.6728,5.5927,7.953,4.447,4.0781,7.7139,10.3274,9.8784,9.8236,7.4473,8.5882,6.0102,8.059,9.5227,6.6926,-0.4325,-5.5235
4.1405,3.3092,-1.2914,4.2172,7.7802,3.4042,5.5631,0.0849,9.5442,4.2907,6.7251,5.3824,6.7353,9.8241,5.1889,7.4077,3.9229,3.8041,7.1552,9.6401,9.1594,9.1744,6.8061,7.847,5.6401,7.6665,8.8278,6.1832,-0.5951,-5.2074
3.8722,3.075,-1.3913,3.9728,7.5527,3.1618,5.131,0.0623,9.2493,3.8347,6.2882,4.9379,6.0874,9.169,5.0258,7.066,3.6142,3.6985,6.802,9.1612,8.6516,8.7745,6.3666,7.2311,5.2399,7.2188,8.2174,5.6854,-0.7631,-4.9584
3.7731,3.0192,-1.3032,3.9714,7.5489,3.1514,4.8804,0.2752,9.0154,3.5289,5.9306,4.6248,5.6427,8.7628,5.1092,6.9469,3.5332,3.7761,6.6816,8.9279,8.3949,8.6578,6.1642,6.7958,4.8703,6.7922,7.771,5.2843,-0.9245,-4.7819
3.8311,3.1249,-1.0508,4.1959,7.7526,3.3563,4.8146,0.7132,8.8617,3.3905,5.6769,4.4778,5.4127,8.6083,5.4079,7.0321,3.6563,4.0232,6.7805,8.9322,8.3816,8.8082,6.1913,6.5542,4.5705,6.4381,7.5218,5.0283,-1.072,-4.6704
4.0071,3.3487,-0.6817,4.5903,8.1122,3.7229,4.8982,1.3259,8.7837,3.3968,5.5204,4.4853,5.3606,8.6564,5.8598,7.2692,3.9274,4.3977,7.0462,9.1209,8.5579,9.1624,6.3968,6.4746,4.3508,6.1738,7.4508,4.9184,-1.2048,-4.6049
4.2432,3.6287,-0.2594,5.0705,8.5507,4.1716,5.0661,2.0313,8.7565,3.4922,5.4273,4.5953,5.4127,8.8184,6.3835,7.5817,4.27,4.8374,7.3987,9.4078,8.8355,9.6236,6.6973,6.4908,4.1938,5.9845,7.4953,4.9125,-1.327,-4.5594
