FP1,F3,F7,FC3,C3,C5,P3,P7,PO7,PO3,O1,Oz,Pz,CPz,FP2,Fz,F4,F8,FC4,FCz,Cz,C4,C6,P4,P8,PO8,PO4,O2,HEOG_left,HEOG_right
1.6424,-1.6185,-1.075,-1.5034,-1.2121,-1.1722,-1.4959,-1.9543,-1.1802,-2.2168,-0.3636,-0.0836,-1.5217,0.3973,-1.8591,-0.4772,-1.055,0.6876,-1.7653,-0.6979,-1.343,-1.2849,-1.2967,-1.3292,-0.1289,-0.3539,-1.1779,0.0097,-1.4543,-1.6178
1.8132,-0.8742,-0.4117,-0.7728,-0.6057,-0.5605,-1.2741,-1.6293,-1.09,-2.1216,-0.3784,-0.3207,-1.4441,0.8201,-0.715,0.2496,-0.4071,0.7685,-1.3212,0.0087,-0.8125,-0.8902,-0.8652,-1.4026,-0.56,-0.7077,-1.6835,-0.3473,-0.646,-0.8949
2.0293,-0.1395,0.2514,-0.0525,-0.0092,0.0392,-1.032,-1.3196,-0.989,-2.0014,-0.3793,-0.5059,-1.3285,1.2597,0.3639,0.9607,0.2482,0.905,-0.8591,0.7012,-0.2706,-0.4656,-0.4108,-1.3975,-0.9024,-0.9903,-2.0852,-0.6389,0.1091,-0.2078
2.316,0.58,0.9066,0.6506,0.5742,0.6212,-0.7427,-1.0294,-0.8652,-1.8233,-0.3498,-0.5936,-1.1327,1.7266,1.3315,1.6429,0.9104,1.1302,-0.3638,1.3688,0.2931,0.0127,0.0837,-1.2452,-1.0797,-1.1399,-2.2899,-0.8095,0.7686,0.4124
2.6781,1.2732,1.5358,1.3223,1.1392,1.1763,-0.3826,-0.7528,-0.7053,-1.5601,-0.2743,-0.5523,-0.8202,2.2228,2.1584,2.2822,1.5707,1.461,0.1735,2.0008,0.8828,0.5567,0.627,-0.9013,-1.0433,-1.1156,-2.2352,-0.8224,1.3055,0.9435
3.0978,1.9214,2.1108,1.9406,1.6767,1.6914,0.0643,-0.4738,-0.4959,-1.1936,-0.1404,-0.3705,-0.3664,2.7374,2.8307,2.8618,2.21,1.893,0.7512,2.5846,1.4926,1.1619,1.2144,-0.3542,-0.7804,-0.9036,-1.8983,-0.6659,1.7101,1.3725
3.5369,2.4985,2.5976,2.4774,2.174,2.1504,0.6019,-0.1715,-0.226,-0.7176,0.0588,-0.0584,0.2344,3.2444,3.3456,3.3621,2.8007,2.3978,1.3544,3.1034,2.104,1.8051,1.8246,0.371,-0.3157,-0.5198,-1.2998,-0.355,1.9888,1.6954
3.9424,2.9749,2.9631,2.9032,2.6156,2.5369,1.2184,0.1729,0.1093,-0.1396,0.3221,0.3538,0.964,3.7032,3.7064,3.7614,3.3106,2.9248,1.9544,3.5365,2.686,2.4454,2.4202,1.2159,0.2939,-0.0068,-0.4992,0.0717,2.1584,1.9146
4.2535,3.3231,3.1825,3.1936,2.9843,2.8359,1.8846,0.5686,0.5046,0.518,0.6391,0.8201,1.7782,4.0643,3.9175,4.0387,3.7072,3.407,2.5113,3.8603,3.1985,3.0294,2.9515,2.0975,0.9691,0.5733,0.4155,0.5583,2.2395,2.0356
4.4114,3.5227,3.2439,3.334,3.2626,3.0353,2.5547,1.0093,0.9414,1.2181,0.9893,1.2859,2.6094,4.2772,3.9818,4.176,3.963,3.7721,2.9783,4.0511,3.5972,3.4984,3.3634,2.9198,1.6218,1.1484,1.3417,1.0414,2.2489,2.0641
4.3702,3.5627,3.1496,3.3212,3.4324,3.1252,3.1698,1.4716,1.3875,1.9108,1.3434,1.6953,3.3742,4.2998,3.8992,4.1601,4.0577,3.9553,3.3087,4.0879,3.8398,3.7975,3.605,3.5886,2.1678,1.6476,2.1774,1.4593,2.194,2.0037
4.1081,3.4424,2.9145,3.1621,3.476,3.0965,3.6651,1.9164,1.8006,2.538,1.6669,1.9987,3.9852,4.1069,3.6691,3.984,3.9811,3.9116,3.4629,3.9556,3.8921,3.8848,3.6389,4.0236,2.5386,2.0111,2.8346,1.7611,2.0723,1.8563
3.6351,3.1691,2.5629,2.8706,3.3775,2.9405,3.9796,2.2964,2.1349,3.0401,1.9244,2.1599,4.3653,3.6958,3.2941,3.648,3.7336,3.6252,3.4155,3.6484,3.7339,3.7385,3.4495,4.1711,2.6904,2.1986,3.25,1.9131,1.8754,1.6245
2.9938,2.758,2.1246,2.4649,3.127,2.6512,4.0668,2.565,2.3504,3.3653,2.0862,2.1609,4.4627,3.0887,2.7859,3.1621,3.3289,3.1131,3.1618,3.173,3.3645,3.3629,3.0474,4.0118,2.6097,2.1943,3.3913,1.9027,1.5974,1.3163
2.2525,2.2321,1.6314,1.9659,2.7256,2.2294,3.9053,2.6864,2.4212,3.4785,2.1334,2.0056,4.2607,2.3308,2.1717,2.5484,2.7936,2.4223,2.7214,2.5526,2.8057,2.7891,2.4695,3.5648,2.3146,2.0087,3.2609,1.7396,1.2431,0.9489
1.4913,1.6233,1.115,1.398,2.1909,1.6887,3.5043,2.6433,2.3412,3.3694,2.0626,1.7194,3.7828,1.4853,1.4971,1.8418,2.1672,1.6233,2.137,1.8273,2.1023,2.0723,1.7741,2.8861,1.8519,1.6763,2.8933,1.4533,0.8338,0.551
0.7854,0.9729,0.6061,0.7901,1.5585,1.0591,2.9047,2.4415,2.1251,3.0553,1.887,1.3462,3.089,0.6262,0.8242,1.0895,1.4985,0.8,1.4702,1.0527,1.3182,1.2842,1.0321,2.0593,1.2892,1.2494,2.35,1.0881,0.4073,0.1601
0.1884,0.3303,0.1337,0.1777,0.8811,0.3882,2.1734,2.109,1.8055,2.5789,1.6338,0.9407,2.2645,-0.1719,0.223,0.3461,0.8407,0.0386,0.7923,0.2931,0.5282,0.5022,0.3164,1.1828,0.7039,0.7892,1.709,0.6962,0.0125,-0.1832
-0.276,-0.2502,-0.2747,-0.3983,0.2211,-0.2636,1.3918,1.6911,1.4256,2.0015,1.3394,0.5586,1.404,-0.8437,-0.242,-0.332,0.2447,-0.584,0.1732,-0.3869,-0.1935,-0.2023,-0.3086,0.3519,0.1692,0.3547,1.0526,0.3284,-0.3007,-0.4429
-0.6123,-0.7176,-0.5951,-0.8947,-0.3593,-0.8328,0.6415,1.2404,1.0315,1.3911,1.0414,0.2466,0.5936,-1.344,-0.5281,-0.8955,-0.2474,-1.0125,-0.329,-0.9335,-0.7854,-0.7743,-0.7955,-0.3566,-0.2577,-0.0073,0.4533,0.0258,-0.4914,-0.5951
-0.8415,-1.0333,-0.8104,-1.2732,-0.8097,-1.2648,-0.01,0.8063,0.6642,0.8108,0.7725,0.0337,-0.1036,-1.6537,-0.6267,-1.3101,-0.6088,-1.2218,-0.6773,-1.3131,-1.2086,-1.1822,-1.1194,-0.896,-0.5455,-0.2701,-0.0366,-0.1865,-0.5378,-0.6332
-0.9869,-1.1809,-0.915,-1.5082,-1.1008,-1.5249,-0.5197,0.4252,0.3532,0.3087,0.5546,-0.0725,-0.6559,-1.7823,-0.5667,-1.5616,-0.8317,-1.222,-0.8602,-1.5176,-1.4527,-1.4199,-1.279,-1.254,-0.6919,-0.4299,-0.3917,-0.3025,-0.4419,-0.5687
-1.0626,-1.1709,-0.9165,-1.5928,-1.2286,-1.6051,-0.8731,0.1154,0.1138,-0.0871,0.3971,-0.0847,-1.0619,-1.7618,-0.4069,-1.657,-0.9262,-1.0551,-0.8906,-1.5644,-1.5335,-1.5034,-1.2944,-1.4484,-0.7204,-0.5026,-0.6127,-0.3333,-0.2292,-0.428
-1.0704,-1.0383,-0.8349,-1.5397,-1.2125,-1.5242,-1.082,-0.1237,-0.0526,-0.3693,0.2967,-0.0308,-1.3423,-1.6365,-0.2184,-1.6191,-0.9162,-0.7851,-0.7995,-1.4886,-1.4852,-1.4626,-1.1988,-1.5158,-0.6714,-0.5166,-0.72,-0.3016,0.0563,-0.2459
-1.0032,-0.8321,-0.6973,-1.3773,-1.088,-1.3214,-1.1766,-0.3068,-0.1571,-0.5488,0.2408,0.0548,-1.5274,-1.4495,-0.0643,-1.4785,-0.8306,-0.4831,-0.6264,-1.3324,-1.3491,-1.3314,-1.0295,-1.4981,-0.5898,-0.503,-0.7433,-0.2342,0.3616,-0.0565
-0.8525,-0.6015,-0.5313,-1.1413,-0.8969,-1.0473,-1.1953,-0.4564,-0.2182,-0.648,0.2103,0.1388,-1.6443,-1.2325,0.0181,-1.2649,-0.6968,-0.2114,-0.409,-1.1338,-1.1621,-1.1393,-0.8183,-1.4296,-0.5127,-0.4863,-0.7118,-0.1561,0.6355,0.1135
-0.6178,-0.3843,-0.3587,-0.8669,-0.6784,-0.7523,-1.175,-0.595,-0.2585,-0.6953,0.1836,0.1953,-1.7083,-1.0017,0.0251,-1.0018,-0.5357,-0.0121,-0.1771,-0.9189,-0.9499,-0.907,-0.5873,-1.3305,-0.4612,-0.4789,-0.646,-0.0854,0.8373,0.2501
-0.3139,-0.1989,-0.1925,-0.5821,-0.4622,-0.478,-1.1435,-0.7389,-0.2999,-0.718,0.1396,0.2082,-1.722,-0.7601,-0.0167,-0.7058,-0.3611,0.098,0.0495,-0.7003,-0.7257,-0.6476,-0.3483,-1.2066,-0.4378,-0.4799,-0.5552,-0.0321,0.9426,0.3515
0.0265,-0.0455,-0.0375,-0.3056,-0.2654,-0.2507,-1.116,-0.8944,-0.3596,-0.7368,0.0611,0.1723,-1.6776,-0.5047,-0.0641,-0.3895,-0.1829,0.1249,0.2593,-0.4801,-0.4936,-0.3703,-0.1069,-1.0533,-0.429,-0.4777,-0.4382,0.001,0.9449,0.4264
0.3549,0.0885,0.107,-0.0474,-0.0933,-0.08,-1.0937,-1.0565,-0.4474,-0.7617,-0.0628,0.0915,-1.564,-0.2345,-0.0752,-0.0659,-0.01,0.0909,0.4458,-0.2563,-0.2543,-0.0847,0.1322,-0.8632,-0.4115,-0.4546,-0.2879,0.0169,0.8541,0.488
0.6157,0.2177,0.243,0.1879,0.0577,0.0394,-1.0668,-1.2108,-0.5637,-0.7898,-0.2342,-0.0232,-1.3733,0.0442,-0.0263,0.2474,0.1463,0.025,0.6041,-0.0294,-0.0106,0.1956,0.3611,-0.6317,-0.3607,-0.3925,-0.0967,0.0229,0.692,0.5479
0.7582,0.3491,0.3698,0.397,0.1949,0.122,-1.0191,-1.3358,-0.6995,-0.8075,-0.4457,-0.1568,-1.1056,0.3157,0.0781,0.5265,0.2709,-0.0453,0.7281,0.1918,0.2282,0.4526,0.5665,-0.3617,-0.2581,-0.2787,0.1374,0.0273,0.4864,0.6097
0.7478,0.4757,0.4816,0.5735,0.3229,0.1839,-0.9351,-1.4089,-0.8385,-0.7957,-0.6816,-0.2932,-0.773,0.557,0.2039,0.7415,0.3459,-0.1015,0.8097,0.3882,0.4451,0.6654,0.7305,-0.065,-0.0984,-0.1104,0.4065,0.0372,0.2646,0.6641
0.5741,0.5755,0.5654,0.7063,0.4383,0.2369,-0.8062,-1.4106,-0.9609,-0.7376,-0.9198,-0.4187,-0.3999,0.7409,0.2954,0.8597,0.352,-0.139,0.838,0.5313,0.6156,0.8121,0.8328,0.2381,0.1084,0.1033,0.6908,0.0555,0.0483,0.6885
0.2517,0.6157,0.6012,0.7788,0.5267,0.2824,-0.6369,-1.3303,-1.0476,-0.6266,-1.1367,-0.5238,-0.021,0.8399,0.2892,0.8505,0.2721,-0.1679,0.8007,0.5874,0.7114,0.873,0.8541,0.5204,0.3382,0.3417,0.9601,0.0796,-0.1509,0.6519
-0.1852,0.5607,0.5637,0.7702,0.5628,0.3101,-0.446,-1.1686,-1.0844,-0.4704,-1.3107,-0.6039,0.3224,0.8295,0.1322,0.6915,0.0944,-0.2095,0.6853,0.5244,0.7051,0.8332,0.78,0.7517,0.5579,0.5763,1.179,0.1018,-0.3321,0.5242
-0.6955,0.3806,0.4266,0.6593,0.5147,0.2995,-0.264,-0.9387,-1.065,-0.2914,-1.4262,-0.6594,0.5896,0.6916,-0.2016,0.3735,-0.1852,-0.2905,0.4824,0.3196,0.5763,0.6849,0.6036,0.9038,0.733,0.7763,1.314,0.112,-0.5037,0.2876
-1.2432,0.0593,0.17,0.429,0.352,0.2251,-0.1266,-0.6638,-0.9909,-0.1211,-1.4752,-0.6944,0.7463,0.4172,-0.7015,-0.0954,-0.561,-0.435,0.1888,-0.0336,0.3172,0.4291,0.328,0.9548,0.835,0.9143,1.34,0.1006,-0.6798,-0.0549
-1.8055,-0.4005,-0.2125,0.0735,0.0548,0.0643,-0.066,-0.3741,-0.8715,0.0075,-1.4582,-0.7152,0.7707,0.0099,-1.321,-0.6884,-1.0176,-0.6584,-0.19,-0.5213,-0.0642,0.0766,-0.0334,0.8923,0.8459,0.9705,1.2459,0.0614,-0.8755,-0.4773
-2.3705,-0.9733,-0.7074,-0.3962,-0.3773,-0.1943,-0.1032,-0.1021,-0.7219,0.0686,-1.3835,-0.7293,0.6558,-0.5117,-1.9892,-1.3624,-1.5285,-0.9636,-0.6376,-1.1086,-0.5425,-0.3521,-0.4578,0.716,0.761,0.9349,1.0356,-0.0069,-1.1021,-0.9343
-2.926,-1.6118,-1.2786,-0.9485,-0.9209,-0.5447,-0.2427,0.1216,-0.561,0.0497,-1.2654,-0.7437,0.4101,-1.1136,-2.6285,-2.0614,-2.0573,-1.3397,-1.1268,-1.743,-1.078,-0.8284,-0.9154,0.4363,0.5868,0.8068,0.726,-0.1014,-1.3636,-1.3721
-3.4463,-2.2503,-1.8696,-1.5313,-1.5289,-0.9607,-0.4717,0.2719,-0.4091,-0.0462,-1.1225,-0.7643,0.0553,-1.7491,-3.172,-2.7228,-2.5597,-1.7628,-1.6218,-2.3609,-1.6205,-1.318,-1.3736,0.0734,0.3384,0.5936,0.3421,-0.2165,-1.6525,-1.7392
-3.8842,-2.8132,-2.4109,-2.078,-2.1367,-1.3987,-0.7627,0.3319,-0.2863,-0.2026,-0.9747,-0.7939,-0.3768,-2.3643,-3.5747,-3.2842,-2.9883,-2.1979,-2.083,-2.8963,-2.1158,-1.7842,-1.8013,-0.3464,0.0343,0.3084,-0.0882,-0.3458,-1.9484,-1.9963
-4.1759,-3.2261,-2.8312,-2.5174,-2.6736,-1.8046,-1.0794,0.2948,-0.2098,-0.3943,-0.8407,-0.8327,-0.8489,-2.9073,-3.8153,-3.6903,-3.2996,-2.6032,-2.4721,-3.2906,-2.5135,-2.1921,-2.1723,-0.7933,-0.3066,-0.0318,-0.5383,-0.4835,-2.2175,-2.1215
-4.2577,-3.4293,-3.0709,-2.7877,-3.0753,-2.125,-1.3838,0.1646,-0.1927,-0.5946,-0.7358,-0.8775,-1.3226,-3.3366,-3.8924,-3.9005,-3.4607,-2.9356,-2.7579,-3.5007,-2.7741,-2.5121,-2.4682,-1.2371,-0.6665,-0.4074,-0.9855,-0.6255,-2.4172,-2.1113
-4.0874,-3.389,-3.0936,-2.8495,-3.2966,-2.3186,-1.6442,-0.0442,-0.2421,-0.7819,-0.6709,-0.9239,-1.7632,-3.6298,-3.8171,-3.8945,-3.4557,-3.1564,-2.9193,-3.5058,-2.8749,-2.7231,-2.6785,-1.6504,-1.0298,-0.7968,-1.4111,-0.7697,-2.5025,-1.9785
-3.6629,-3.1055,-2.8945,-2.6944,-3.3198,-2.3651,-1.8406,-0.3092,-0.359,-0.9449,-0.6522,-0.9684,-2.1434,-3.7865,-3.6079,-3.6767,-3.2878,-3.2394,-2.9484,-3.3114,-2.8146,-2.8149,-2.801,-2.0106,-1.3816,-1.1781,-1.8003,-0.9153,-2.4364,-1.7475
-3.0277,-2.6157,-2.5024,-2.3481,-3.1576,-2.2703,-1.9685,-0.6038,-0.5379,-1.0846,-0.6825,-1.0106,-2.447,-3.8275,-3.2882,-3.2771,-2.9795,-3.1766,-2.8506,-2.9493,-2.6142,-2.7901,-2.8404,-2.3029,-1.7084,-1.5299,-2.1413,-1.0627,-2.1996,-1.4495
-2.2651,-1.9884,-1.9765,-1.8666,-2.85,-2.0641,-2.0386,-0.902,-0.768,-1.2133,-0.762,-1.0538,-2.6691,-3.7894,-2.8849,-2.7492,-2.57,-2.9817,-2.645,-2.4746,-2.3145,-2.6645,-2.8078,-2.5214,-1.9973,-1.8333,-2.4253,-1.2115,-1.7984,-1.1185
-1.4818,-1.3146,-1.3967,-1.326,-2.4563,-1.7943,-2.0733,-1.1829,-1.0346,-1.3507,-0.8898,-1.1054,-2.8169,-3.7157,-2.4291,-2.1639,-2.1105,-2.6874,-2.3626,-1.9587,-1.9705,-2.4656,-2.7189,-2.6693,-2.2371,-2.0735,-2.6471,-1.3596,-1.2681,-0.7867
-0.7856,-0.6926,-0.8496,-0.8085,-2.0432,-1.5162,-2.1009,-1.434,-1.32,-1.5175,-1.0638,-1.1743,-2.9063,-3.6476,-1.9539,-1.5994,-1.6577,-2.3382,-2.0432,-1.4786,-1.6423,-2.2295,-2.5919,-2.7572,-2.4193,-2.241,-2.8058,-1.5032,-0.6694,-0.4823
-0.2621,-0.2111,-0.412,-0.3865,-1.6717,-1.2807,-2.1472,-1.6519,-1.606,-1.7288,-1.2803,-1.2685,-2.9574,-3.616,-1.4931,-1.1286,-1.2651,-1.9793,-1.7289,-1.1032,-1.3844,-1.9944,-2.4446,-2.8003,-2.5387,-2.3323,-2.9054,-1.6365,-0.0793,-0.2261
0.0445,0.0673,-0.1359,-0.1087,-1.3854,-1.1234,-2.2281,-1.8394,-1.8739,-1.9874,-1.5327,-1.3922,-2.9887,-3.6355,-1.0778,-0.805,-0.9725,-1.6461,-1.4567,-0.8803,-1.2345,-1.7931,-2.2906,-2.8131,-2.5943,-2.3499,-2.9537,-1.7532,0.4232,-0.0295
0.1404,0.1178,-0.0383,0.01,-1.2016,-1.0562,-2.3424,-2.0012,-2.1052,-2.2796,-1.8095,-1.543,-3.01,-3.7019,-0.7334,-0.6525,-0.7979,-1.3583,-1.2499,-0.8262,-1.2052,-1.6466,-2.1367,-2.8054,-2.5887,-2.3011,-2.9604,-1.8472,0.7729,0.1065
0.077,-0.0405,-0.0986,-0.0092,-1.1093,-1.0656,-2.47,-2.1377,-2.2814,-2.5745,-2.0929,-1.7105,-3.0179,-3.7935,-0.4762,-0.66,-0.7327,-1.1183,-1.1139,-0.922,-1.2813,-1.5591,-1.9824,-2.7789,-2.5276,-2.1956,-2.934,-1.913,0.9309,0.1911
-0.0673,-0.3491,-0.2651,-0.1154,-1.074,-1.1162,-2.5741,-2.2416,-2.3839,-2.8277,-2.3588,-1.8762,-2.9954,-3.8759,-0.3138,-0.7855,-0.7442,-0.9161,-1.036,-1.1185,-1.4229,-1.5181,-1.8208,-2.7262,-2.4183,-2.0443,-2.8788,-1.9462,0.8911,0.2404
-0.2129,-0.7243,-0.4697,-0.2426,-1.049,-1.1627,-2.6102,-2.2966,-2.3964,-2.9898,-2.5794,-2.0169,-2.9164,-3.9112,-0.246,-0.9683,-0.7857,-0.7378,-0.9915,-1.3495,-1.5772,-1.5,-1.6441,-2.6346,-2.2689,-1.8583,-2.7949,-1.9439,0.6787,0.2716
-0.3036,-1.0797,-0.6487,-0.3292,-0.9915,-1.1642,-2.5389,-2.282,-2.3085,-3.0182,-2.7278,-2.1091,-2.755,-3.8685,-0.2701,-1.1472,-0.8113,-0.5749,-0.9552,-1.5497,-1.6931,-1.4791,-1.4489,-2.4914,-2.0881,-1.6481,-2.6795,-1.9054,0.3399,0.2956
-0.321,-1.3497,-0.7623,-0.3379,-0.877,-1.0991,-2.3388,-2.1794,-2.1199,-2.8899,-2.785,-2.1356,-2.4971,-3.7344,-0.3832,-1.2794,-0.7915,-0.4329,-0.9127,-1.674,-1.7377,-1.4384,-1.2431,-2.2917,-1.8849,-1.4249,-2.5308,-1.8335,-0.0717,0.3106
-0.2872,-1.5084,-0.8066,-0.2676,-0.7096,-0.9735,-2.0161,-1.9809,-1.8439,-2.6099,-2.7457,-2.0913,-2.1503,-3.5205,-0.5843,-1.3531,-0.7245,-0.3343,-0.869,-1.7102,-1.7068,-1.378,-1.0488,-2.045,-1.6702,-1.2013,-2.3523,-1.7362,-0.5101,0.3008
-0.2564,-1.5761,-0.8152,-0.1559,-0.5239,-0.8218,-1.608,-1.6947,-1.5075,-2.2142,-2.6229,-1.9867,-1.7486,-3.2657,-0.8726,-1.3912,-0.6394,-0.3146,-0.8507,-1.6833,-1.6292,-1.3185,-0.9019,-1.7787,-1.4576,-0.9925,-2.1566,-1.6277,-0.9459,0.2407
-0.3001,-1.6134,-0.8486,-0.0695,-0.3779,-0.6993,-1.1778,-1.3469,-1.1494,-1.7656,-2.4469,-1.8476,-1.3506,-3.0328,-1.2451,-1.4444,-0.5892,-0.4117,-0.9005,-1.65,-1.5611,-1.2981,-0.8449,-1.5361,-1.2634,-0.8154,-1.9653,-1.5274,-1.3706,0.1042
-0.4894,-1.7029,-0.9762,-0.0871,-0.3404,-0.6681,-0.8037,-0.9778,-0.8144,-1.3413,-2.2611,-1.7111,-1.0299,-2.8985,-1.6956,-1.5765,-0.6383,-0.6534,-1.0658,-1.684,-1.5732,-1.3635,-0.9176,-1.3699,-1.1056,-0.6867,-1.8055,-1.457,-1.7931,-0.1261
-0.8789,-1.9272,-1.2565,-0.2801,-0.4756,-0.7826,-0.564,-0.6356,-0.5465,-1.0187,-2.1139,-1.6178,-0.8605,-2.9397,-2.2153,-1.8474,-0.8457,-1.0465,-1.386,-1.8594,-1.7348,-1.5583,-1.1461,-1.3312,-1.001,-0.6195,-1.7049,-1.4361,-2.2327,-0.4526
-1.4956,-2.3482,-1.7216,-0.6952,-0.8287,-1.0772,-0.5219,-0.3676,-0.382,-0.8596,-2.0493,-1.604,-0.9022,-3.2177,-2.7967,-2.2983,-1.2518,-1.573,-1.8804,-2.2328,-2.0982,-1.9122,-1.5361,-1.4587,-0.9632,-0.6196,-1.6849,-1.4775,-2.7099,-0.8616
-2.3328,-2.993,-2.3697,-1.3452,-1.4166,-1.5597,-0.7133,-0.2118,-0.3443,-0.899,-2.0982,-1.6938,-1.1871,-3.7649,-3.4377,-2.9433,-1.871,-2.1947,-2.5439,-2.8328,-2.6877,-2.4334,-2.0715,-1.7694,-1,-0.684,-1.7559,-1.5836,-3.2371,-1.3276
-3.3519,-3.8497,-3.1669,-2.2068,-2.2242,-2.2105,-1.1412,-0.1901,-0.4401,-1.14,-2.2729,-1.8943,-1.7136,-4.5764,-4.1453,-3.7688,-2.6912,-2.8632,-3.3472,-3.6547,-3.4953,-3.1076,-2.7181,-2.2545,-1.1125,-0.8005,-1.9157,-1.7455,-3.8142,-1.8186
-4.4907,-4.8723,-4.0561,-3.2274,-3.2072,-2.9878,-1.7752,-0.3051,-0.6583,-1.5542,-2.5641,-2.1936,-2.4469,-5.6094,-4.934,-4.7382,-3.6789,-3.5334,-4.2445,-4.6631,-4.4831,-3.9009,-3.4322,-2.8807,-1.2943,-0.9496,-2.1502,-1.9438,-4.4264,-2.3035
-5.6755,-5.9907,-4.9702,-4.3348,-4.2994,-3.835,-2.5572,-0.5393,-0.9715,-2.0881,-2.9423,-2.5626,-3.3265,-6.79,-5.8193,-5.7995,-4.7867,-4.1739,-5.1827,-5.7989,-5.5905,-4.7672,-4.1684,-3.5958,-1.5323,-1.1079,-2.4364,-2.1528,-5.0478,-2.7574
-6.8341,-7.1246,-5.8458,-5.4508,-5.4237,-4.69,-3.4107,-0.8582,-1.3387,-2.6729,-3.3625,-2.959,-4.2776,-8.0254,-6.8077,-6.8942,-5.9591,-4.7713,-6.1107,-6.9899,-6.7445,-5.6555,-4.8871,-4.338,-1.8079,-1.2507,-2.7465,-2.3439,-5.6472,-3.1659
-7.9082,-8.1957,-6.6329,-6.5019,-6.5024,-5.4938,-4.2529,-1.2158,-1.7106,-3.2359,-3.771,-3.3339,-5.2244,-9.2198,-7.885,-7.963,-7.1373,-5.3272,-6.9848,-8.1603,-7.8704,-6.5176,-5.5578,-5.0454,-2.0977,-1.3557,-3.0517,-2.4904,-6.1944,-3.5267
-8.8609,-9.1359,-7.3002,-7.4274,-7.4675,-6.1958,-5.0054,-1.5604,-2.0355,-3.7122,-4.1151,-3.6392,-6.0995,-10.2875,-9.0091,-8.95,-8.2602,-5.8508,-7.7702,-9.2389,-8.8994,-7.3115,-6.1586,-5.6639,-2.3753,-1.4047,-3.3251,-2.57,-6.6642,-3.8468
-9.6778,-9.8922,-7.8329,-8.1821,-8.2654,-6.7566,-5.6041,-1.8428,-2.2665,-4.0535,-4.3512,-3.835,-6.8506,-11.1619,-10.1104,-9.8032,-9.2658,-6.3494,-8.4385,-10.1633,-9.7731,-8.0021,-6.6727,-6.1513,-2.612,-1.3852,-3.5426,-2.5678,-7.0384,-4.1366
-10.359,-10.4269,-8.2275,-8.7357,-8.8588,-7.1482,-6.0045,-2.0228,-2.3693,-4.2341,-4.4523,-3.8956,-7.4407,-11.7981,-11.1002,-10.4756,-10.092,-6.8213,-8.9635,-10.8819,-10.4446,-8.5587,-7.0831,-6.4786,-2.7769,-1.29,-3.6829,-2.4768,-7.3049,-4.4021
-10.9052,-10.7172,-8.4851,-9.0696,-9.2251,-7.3528,-6.1846,-2.0747,-2.3281,-4.2521,-4.4117,-3.8132,-7.8451,-12.1699,-11.8841,-10.9248,-10.6804,-7.2506,-9.3171,-11.3535,-10.8768,-8.9516,-7.3684,-6.6276,-2.8385,-1.1169,-3.7273,-2.2985,-7.4548,-4.6381
-11.3042,-10.7539,-8.6047,-9.1739,-9.3525,-7.3612,-6.143,-1.9903,-2.148,-4.1259,-4.2429,-3.5975,-8.0469,-12.2647,-12.3775,-11.1159,-10.9824,-7.6072,-9.4689,-11.5476,-11.0418,-9.1501,-7.502,-6.588,-2.7677,-0.8679,-3.6588,-2.0421,-7.4806,-4.8257
-11.525,-10.5406,-8.5804,-9.0454,-9.2373,-7.1719,-5.895,-1.7789,-1.8527,-3.8867,-3.9746,-3.2738,-8.0332,-12.0783,-12.5193,-11.0245,-10.9662,-7.8489,-9.3897,-11.4452,-10.9208,-9.1251,-7.4556,-6.3555,-2.5427,-0.5498,-3.464,-1.7233,-7.3754,-4.9332
-11.5203,-10.0924,-8.4005,-8.6884,-8.8821,-6.7912,-5.4666,-1.4637,-1.4783,-3.5695,-3.6436,-2.8765,-7.7946,-11.6134,-12.2814,-10.6417,-10.6238,-7.9279,-9.0586,-11.0427,-10.5072,-8.8539,-7.2056,-5.9317,-2.1556,-0.1754,-3.1348,-1.3622,-7.1335,-4.9214
-11.2388,-9.4354,-8.0509,-8.1162,-8.2964,-6.2335,-4.8894,-1.0764,-1.0644,-3.2034,-3.2853,-2.4426,-7.3276,-10.8822,-11.6745,-9.9791,-9.9755,-7.7991,-8.4726,-10.3553,-9.8111,-8.3284,-6.741,-5.3259,-1.6188,0.2357,-2.6717,-0.9804,-6.7535,-4.7513
-10.6391,-8.6058,-7.5203,-7.3536,-7.4995,-5.5216,-4.1952,-0.6511,-0.6459,-2.8064,-2.9259,-2.0037,-6.6385,-9.9106,-10.7468,-9.0721,-9.0712,-7.4306,-7.6544,-9.4204,-8.8637,-7.5619,-6.0705,-4.5579,-0.9681,0.6562,-2.0866,-0.5986,-6.2411,-4.3929
-9.706,-7.649,-6.8085,-6.4386,-6.5227,-4.6865,-3.4133,-0.2184,-0.2469,-2.3825,-2.5783,-1.5799,-5.7486,-8.7431,-9.5776,-7.9797,-7.9847,-6.8128,-6.6552,-8.2982,-7.7189,-6.5926,-5.2245,-3.6598,-0.2623,1.0536,-1.4041,-0.2339,-5.6126,-3.8343
-8.4619,-6.6165,-5.9322,-5.4214,-5.4106,-3.7663,-2.57,0.1974,0.1217,-1.9244,-2.2412,-1.1776,-4.6952,-7.4432,-8.2643,-6.7803,-6.8045,-5.9647,-5.5507,-7.0678,-6.4504,-5.4818,-4.254,-2.6756,0.4246,1.3933,-0.6615,0.1013,-4.8955,-3.088
-6.9723,-5.5624,-4.9286,-4.361,-4.2193,-2.8034,-1.689,0.5798,0.4606,-1.4187,-1.9031,-0.7901,-3.5307,-6.0904,-6.9084,-5.5621,-5.6197,-4.9345,-4.4299,-5.8183,-5.1439,-4.3062,-3.2239,-1.6583,1.0147,1.6442,0.0959,0.3995,-4.1273,-2.1927
-5.3396,-4.5387,-3.8544,-3.3199,-3.0128,-1.842,-0.7933,0.9191,0.7785,-0.8528,-1.5484,-0.4033,-2.3176,-4.7699,-5.6011,-4.4113,-4.5069,-3.7944,-3.3799,-4.6367,-3.886,-3.1467,-2.2043,-0.6636,1.4407,1.7844,0.8198,0.6574,-3.3509,-1.2093
-3.6886,-3.5908,-2.7789,-2.3567,-1.8561,-0.924,0.0934,1.2099,1.0858,-0.2226,-1.1643,-0.0018,-1.1202,-3.5601,-4.4127,-3.3997,-3.5204,-2.6291,-2.4712,-3.596,-2.7523,-2.0764,-1.2603,0.2567,1.6589,1.8055,1.4667,0.8749,-2.6076,-0.2108
-2.1462,-2.753,-1.7746,-1.5202,-0.8084,-0.0868,0.9458,1.4487,1.3902,0.4634,-0.7462,0.4237,0.0036,-2.5191,-3.3859,-2.575,-2.6864,-1.5209,-1.7462,-2.7449,-1.797,-1.1488,-0.4425,1.0625,1.6575,1.716,2.0051,1.0554,-1.9298,0.7303
-0.82,-2.0464,-0.905,-0.8432,0.0843,0.6402,1.7383,1.6326,1.6927,1.1824,-0.2998,0.8722,1.0102,-1.675,-2.5333,-1.9555,-2.0043,-0.5369,-1.2146,-2.1017,-1.0463,-0.3917,0.2196,1.7297,1.4591,1.5407,2.4203,1.2053,-1.3364,1.5547
0.2185,-1.4776,-0.2146,-0.34,0.7938,1.2376,2.4471,1.7582,1.9868,1.9005,0.1591,1.3314,1.8749,-1.0225,-1.8403,-1.5299,-1.4516,0.2802,-0.8557,-1.6555,-0.4968,0.195,0.7197,2.2537,1.1158,1.3174,2.7168,1.3333,-0.8321,2.2252
0.9428,-1.0399,0.2777,-0.0059,1.3118,1.6966,3.0523,1.8228,2.2603,2.5779,0.6069,1.7791,2.5929,-0.5279,-1.2741,-1.263,-0.9938,0.9113,-0.6268,-1.3716,-0.1211,0.6341,1.0724,2.6474,0.6994,1.0912,2.916,1.4497,-0.411,2.7302
1.3719,-0.7168,0.5789,0.1794,1.6482,2.0185,3.5401,1.8251,2.4975,3.1753,1.0164,2.1878,3.1755,-0.1408,-0.7948,-1.1059,-0.5963,1.3564,-0.4756,-1.2022,0.124,0.9625,1.3062,2.9365,0.2881,0.9067,3.0504,1.5643,-0.0626,3.08
1.5618,-0.4885,0.7159,0.2458,1.826,2.2129,3.9024,1.7673,2.6823,3.6585,1.3601,2.5292,3.6432,0.191,-0.3687,-1.0079,-0.2345,1.6262,-0.3534,-1.0983,0.2852,1.2197,1.4555,3.1532,-0.0467,0.8011,3.1564,1.684,0.2225,3.3005
1.5903,-0.3382,0.7262,0.2246,1.8747,2.2932,4.1358,1.6553,2.801,4.0005,1.6133,2.7774,4.0165,0.5065,0.0225,-0.9292,0.0983,1.7365,-0.2256,-1.0214,0.4016,1.4371,1.5514,3.3273,-0.252,0.7979,3.2656,1.8103,0.4486,3.4236
1.5401,-0.2588,0.6468,0.1408,1.8232,2.2732,4.2386,1.4997,2.8431,4.1816,1.756,2.9112,4.3072,0.8207,0.3745,-0.8501,0.3897,1.7052,-0.0776,-0.9513,0.4963,1.6308,1.6144,3.4796,-0.3015,0.9033,3.3983,1.9372,0.6136,3.4789
1.4812,-0.2557,0.5058,0.0076,1.6939,2.1645,4.2093,1.315,2.8025,4.1885,1.7737,2.9143,4.5123,1.1213,0.6596,-0.7735,0.6124,1.5526,0.084,-0.8889,0.5731,1.7982,1.6516,3.6168,-0.1979,1.1051,3.5583,2.0499,0.7112,3.4877
1.4587,-0.343,0.3189,-0.1733,1.5018,1.9764,4.0463,1.1187,2.678,4.0145,1.6589,2.775,4.6133,1.3722,0.8347,-0.7213,0.7337,1.3038,0.2375,-0.8524,0.6189,1.9217,1.658,3.7305,0.0292,1.3747,3.732,2.1261,0.7353,3.4623
1.4861,-0.5362,0.0911,-0.407,1.2564,1.7196,3.7512,0.9304,2.4754,3.662,1.4128,2.4878,4.5818,1.5255,0.8555,-0.7243,0.7269,0.991,0.3541,-0.8677,0.6113,1.9767,1.6223,3.8014,0.3307,1.6729,3.8915,2.1407,0.6859,3.409
1.5455,-0.8407,-0.1757,-0.6972,0.9676,1.4098,3.3334,0.7704,2.2082,3.1466,1.0478,2.0561,4.3895,1.5362,0.6949,-0.8093,0.5825,0.6546,0.4095,-0.957,0.5294,1.942,1.5355,3.8056,0.6491,1.957,4.0013,2.0711,0.5749,3.3331
1.595,-1.243,-0.4749,-1.0383,0.6496,1.071,2.8145,0.6581,1.8993,2.5009,0.5888,1.4945,4.0201,1.378,0.3575,-0.9887,0.3141,0.3403,0.3917,-1.1279,0.3627,1.8089,1.3968,3.7232,0.9297,2.189,4.027,1.9035,0.4289,3.2437
1.5821,-1.708,-0.7905,-1.4121,0.3238,0.7347,2.2303,0.6095,1.5799,1.7747,0.073,0.8312,3.4796,1.053,-0.1144,-1.2546,-0.042,0.0948,0.3059,-1.3693,0.1168,1.5869,1.2172,3.5451,1.1309,2.3419,3.9446,1.6371,0.2878,3.1566
1.461,-2.1835,-1.0953,-1.7891,0.0172,0.4365,1.6297,0.6359,1.2865,1.0321,-0.4524,0.1073,2.8015,0.595,-0.647,-1.58,-0.4338,-0.0418,0.1737,-1.6522,-0.1853,1.3023,1.0179,3.278,1.232,2.4039,3.7474,1.2861,0.1977,3.0928
1.2096,-2.6099,-1.3555,-2.1345,-0.2418,0.2097,1.0694,0.7419,1.0565,0.3448,-0.9353,-0.6257,2.0461,0.0657,-1.151,-1.9253,-0.8044,-0.0428,0.0288,-1.9369,-0.508,0.994,0.8259,2.9453,1.235,2.3799,3.45,0.8788,0.2011,3.0765
0.8403,-2.9335,-1.5369,-2.4147,-0.4276,0.0807,0.6072,0.9254,0.9232,-0.2172,-1.3244,-1.3106,1.2932,-0.4566,-1.5427,-2.2475,-1.1031,0.1,-0.0902,-2.1822,-0.8091,0.7054,0.6693,2.5849,1.164,2.2897,3.0885,0.4548,0.3271,3.1299
0.4024,-3.1169,-1.6113,-2.6037,-0.521,0.0642,0.2945,1.1789,0.912,-0.5935,-1.5755,-1.8901,0.6313,-0.8897,-1.763,-2.509,-1.2941,0.374,-0.1474,-2.3548,-1.0481,0.4769,0.573,2.2443,1.0584,2.1644,2.7153,0.0613,0.5842,3.2688
-0.0269,-3.1463,-1.5613,-2.6867,-0.512,0.162,0.1695,1.4921,1.0374,-0.7414,-1.6572,-2.3135,0.1437,-1.1624,-1.7883,-2.685,-1.3613,0.7483,-0.1172,-2.4362,-1.1934,0.3394,0.5552,1.9733,0.9653,2.04,2.3914,-0.2538,0.9581,3.498
-0.36,-3.0333,-1.3841,-2.6629,-0.4013,0.3627,0.2525,1.8537,1.3023,-0.6403,-1.5546,-2.5423,-0.1046,-1.2269,-1.6322,-2.7677,-1.3102,1.1785,0.0091,-2.4262,-1.228,0.3092,0.6248,1.8158,0.9294,1.9516,2.176,-0.4479,1.4143,3.8081
-0.5229,-2.8134,-1.0942,-2.5459,-0.2012,0.6431,0.5421,2.2531,1.6972,-0.294,-1.2726,-2.5561,-0.0778,-1.068,-1.3399,-2.7676,-1.1675,1.6127,0.2186,-2.3443,-1.1542,0.3851,0.7777,1.8014,0.9837,1.927,2.1159,-0.4912,1.9039,4.1734
-0.4786,-2.5401,-0.7258,-2.3643,0.0626,0.9694,1.0134,2.6788,2.1998,0.2683,-0.8358,-2.3555,0.2237,-0.7071,-0.9774,-2.7139,-0.9794,1.9974,0.4739,-2.2275,-0.9953,0.5463,0.9954,1.939,1.1427,1.9828,2.2366,-0.3714,2.3705,4.553
-0.2416,-2.278,-0.3329,-2.1605,0.3508,1.2987,1.6186,3.1162,2.7748,0.9945,-0.2869,-1.9635,0.7618,-0.1982,-0.6203,-2.6512,-0.8072,2.2814,0.7162,-2.127,-0.7946,0.7543,1.2444,2.2143,1.3997,2.1225,2.5373,-0.0967,2.7586,4.8945
0.1207,-2.0947,0.0138,-1.988,0.6128,1.5817,2.2908,3.5446,3.3759,1.8145,0.3183,-1.4233,1.466,0.3809,-0.3436,-2.6345,-0.7212,2.4202,0.873,-2.1019,-0.6094,0.9575,1.4803,2.5914,1.729,2.3384,2.9918,0.3053,3.0198,5.142
0.5036,-2.052,0.2352,-1.9056,0.7923,1.7664,2.9522,3.9348,3.9483,2.6474,0.9169,-0.7931,2.2445,0.9442,-0.2119,-2.7219,-0.7894,2.3793,0.8716,-2.2099,-0.5018,1.0998,1.654,3.0192,2.092,2.6141,3.5535,0.7911,3.1187,5.2461
0.792,-2.1971,0.2581,-1.9685,0.8359,1.8054,3.5246,4.2504,4.4347,3.412,1.4473,-0.1391,2.9997,1.4135,-0.2716,-2.9638,-1.0656,2.1403,0.6553,-2.4971,-0.5263,1.1322,1.7224,3.4414,2.4474,2.929,4.1652,1.3082,3.0354,5.173
0.8906,-2.5544,0.0305,-2.2159,0.7052,1.6652,3.9426,4.4523,4.7825,4.0376,1.8579,0.4734,3.6462,1.7327,-0.5447,-3.3921,-1.5756,1.7052,0.199,-2.9858,-0.7162,1.0249,1.6586,3.808,2.7609,3.2624,4.7695,1.8027,2.7662,4.9119
0.7466,-3.1179,-0.4631,-2.6594,0.3879,1.3364,4.1652,4.5061,4.9534,4.4741,2.1145,0.9891,4.1265,1.878,-1.0246,-4.0089,-2.3061,1.1002,-0.4802,-3.665,-1.0733,0.776,1.4603,4.0858,3.0137,3.5971,5.3199,2.228,2.323,4.4776
0.3611,-3.8481,-1.193,-3.2737,-0.0936,0.8405,4.1843,4.3916,4.931,4.7005,2.2058,1.3703,4.4219,1.8615,-1.677,-4.78,-3.2001,0.3758,-1.3192,-4.4847,-1.5624,0.4169,1.154,4.2657,3.2063,3.9216,5.788,2.5527,1.7318,3.9071
-0.2137,-4.672,-2.0847,-3.9948,-0.6812,0.2317,4.027,4.1106,4.7264,4.7276,2.1448,1.6014,4.5558,1.7291,-2.4438,-5.6343,-4.161,-0.3971,-2.2155,-5.3581,-2.1133,0.0091,0.7929,4.3648,3.3577,4.2313,6.1663,2.7645,1.0314,3.2531
-0.8889,-5.4916,-3.0304,-4.7276,-1.2876,-0.4097,3.751,3.6906,4.3781,4.5953,1.9648,1.6887,4.5875,1.5521,-3.2503,-6.4721,-5.065,-1.1363,-3.042,-6.1718,-2.6307,-0.3651,0.4485,4.4228,3.4989,4.5271,6.4666,2.8705,0.2715,2.5746
-1.5601,-6.198,-3.9089,-5.3618,-1.8117,-0.9914,3.4332,3.183,3.946,4.3645,1.7111,1.6561,4.5978,1.4146,-4.0154,-7.1811,-5.7828,-1.76,-3.6686,-6.8048,-3.0106,-0.6171,0.1974,4.4929,3.6652,4.8136,6.7135,2.8928,-0.4916,1.9282
-2.1294,-6.6914,-4.6097,-5.7931,-2.1573,-1.4273,3.154,2.6547,3.5001,4.1043,1.4312,1.5386,4.6709,1.3983,-4.6617,-7.6569,-6.2034,-2.2002,-3.9857,-7.1499,-3.1602,-0.6693,0.1074,4.6306,3.8863,5.0966,6.9369,2.8621,-1.2005,1.3613
-2.5242,-6.9011,-5.0542,-5.9449,-2.2529,-1.6541,2.9827,2.1766,3.1084,3.8801,1.1657,1.3758,4.8755,1.5678,-5.1265,-7.8241,-6.2561,-2.4136,-3.9233,-7.1345,-3.0149,-0.4696,0.2257,4.8825,4.1805,5.381,7.1634,2.8112,-1.8057,0.9081
-2.7089,-6.7997,-5.2092,-5.7834,-2.0648,-1.6426,2.965,1.8114,2.8253,3.7432,0.9433,1.2062,5.2511,1.9587,-5.3691,-7.65,-5.924,-2.387,-3.4636,-6.7341,-2.5506,-0.0008,0.571,5.2762,4.5505,5.6692,7.4114,2.7693,-2.2728,0.5879
-2.6873,-6.4073,-5.0903,-5.3225,-1.6028,-1.4005,3.1181,1.6034,2.6851,3.7252,0.7796,1.0635,5.8011,2.5719,-5.3752,-7.1507,-5.2465,-2.1375,-2.6429,-5.9764,-1.7882,0.7163,1.1315,5.8157,4.9835,5.9609,7.6879,2.7587,-2.5876,0.4053
-2.4954,-5.7852,-4.7541,-4.6195,-0.9157,-0.9669,3.4308,1.5724,2.6996,3.8372,0.6801,0.9734,6.4944,3.3726,-5.1579,-6.3865,-4.3092,-1.7064,-1.5442,-4.9351,-0.7893,1.6268,1.8665,6.4798,5.4534,6.252,7.989,2.7933,-2.7582,0.3512
-2.1885,-5.0205,-4.2835,-3.7604,-0.0796,-0.4009,3.8705,1.7138,2.8609,4.0731,0.6442,0.9535,7.2741,4.2963,-4.7562,-5.4479,-3.2261,-1.1506,-0.2818,-3.7148,0.3556,2.6519,2.7137,7.2263,5.9259,6.5355,8.3027,2.8781,-2.8109,0.4046
-1.8243,-4.2074,-3.7673,-2.8418,0.8188,0.2316,4.3929,2.0028,3.1474,4.4152,0.6702,1.0126,8.0715,5.2589,-4.2305,-4.4378,-2.1166,-0.5327,1.0181,-2.4306,1.5439,3.7018,3.5975,7.9984,6.3641,6.8019,8.6123,3.01,-2.7845,0.5346
-1.4481,-3.4292,-3.2821,-1.9517,1.6989,0.8704,4.9527,2.402,3.5299,4.841,0.7575,1.1509,8.8207,6.1707,-3.6538,-3.4518,-1.0848,0.0885,2.2378,-1.188,2.6789,4.6903,4.4408,8.7353,6.7341,7.0409,8.9006,3.1793,-2.7219,0.7043
-1.0823,-2.7452,-2.8777,-1.154,2.5004,1.4704,5.5126,2.8707,3.9783,5.3281,0.9074,1.361,9.4711,6.9518,-3.1007,-2.5623,-0.2048,0.6646,3.2854,-0.0651,3.6864,5.5485,5.1755,9.3812,7.0086,7.2415,9.1523,3.3701,-2.6618,0.8754
-0.7225,-2.1834,-2.5695,-0.4799,3.1915,2.0062,6.0481,3.3712,4.465,5.8567,1.1195,1.6269,9.9952,7.5461,-2.6324,-1.8075,0.4875,1.1624,4.1062,0.8982,4.5263,6.2339,5.7517,9.8927,7.1697,7.3917,9.3546,3.5614,-2.6318,1.0145
-0.3431,-1.7381,-2.3382,0.0748,3.7709,2.474,6.5481,3.8731,4.966,6.4079,1.388,1.9247,10.3895,7.9315,-2.2829,-1.1874,0.996,1.5655,4.6877,1.7038,5.1957,6.7353,6.1446,10.2439,7.2087,7.4773,9.4959,3.7277,-2.6427,1.0997
0.0918,-1.3724,-2.1369,0.5444,4.2633,2.8886,7.0108,4.3539,5.4595,6.9619,1.6977,2.2242,10.6719,8.1238,-2.0489,-0.6661,1.36,1.8736,5.0577,2.3906,5.7263,7.0726,6.3565,10.4275,7.1257,7.4818,9.5654,3.8425,-2.6869,1.1247
0.6128,-1.0266,-1.9039,0.9831,4.7102,3.2777,7.4389,4.7974,5.9242,7.4954,2.0235,2.493,10.8743,8.1726,-1.8882,-0.1809,1.6463,2.1008,5.2752,3.0232,6.1741,7.29,6.4156,10.4543,6.9292,7.3879,9.5536,3.8819,-2.7402,1.1016
1.2331,-0.63,-1.5782,1.45,5.1577,3.6728,7.8342,5.1926,6.3391,7.9816,2.3346,2.7032,11.0352,8.1513,-1.7284,0.3441,1.9354,2.2714,5.4178,3.6758,6.6056,7.4461,6.3696,10.3504,6.6341,7.1819,9.4557,3.8315,-2.7676,1.0572
1.9422,-0.1173,-1.115,1.995,5.645,4.1006,8.1955,5.5328,6.6845,8.394,2.6001,2.8379,11.1929,8.1419,-1.4851,0.9815,2.3065,2.415,5.5655,4.4154,7.0836,7.6014,6.2771,10.1545,6.2616,6.8604,9.2762,3.6909,-2.7307,1.027
2.7089,0.5559,-0.4965,2.6473,6.1964,4.5755,8.5193,5.8164,6.9457,8.7112,2.7976,2.8962,11.3801,8.2201,-1.0836,1.7854,2.8212,2.5612,5.7867,5.2884,7.6559,7.8075,6.1968,9.9129,5.8382,6.435,9.0324,3.4766,-2.5966,1.0456
3.4909,1.4015,0.2644,3.4104,6.8193,5.0984,8.8023,6.0472,7.1171,8.9223,2.9179,2.8943,11.6211,8.4431,-0.4782,2.7804,3.5115,2.7346,6.128,6.3141,8.3496,8.0995,6.1774,9.6756,5.3945,5.9362,8.756,3.2199,-2.344,1.1369
4.2484,2.3963,1.1276,4.2645,7.5063,5.658,9.045,6.2343,7.2039,9.0298,2.9669,2.861,11.9308,8.8424,0.337,3.9583,4.3756,2.9524,6.6106,7.4855,9.1711,8.4933,6.2512,9.4901,4.9627,5.4104,8.4894,2.9618,-1.9672,1.3075
4.9561,3.4881,2.0359,5.1738,8.2418,6.2374,9.2544,6.3908,7.2222,9.0502,2.9633,2.8308,12.315,9.4225,1.3304,5.2819,5.3821,3.2243,7.232,8.7762,10.1105,8.9884,6.4334,9.3966,4.5734,4.9129,8.2794,2.7434,-1.4767,1.5456
5.6118,4.6101,2.9295,6.0981,9.0082,6.8202,9.4438,6.5304,7.195,9.0112,2.9323,2.8355,12.7716,10.166,2.4448,6.6965,6.482,3.5548,7.9739,10.1517,11.1499,9.5737,6.724,9.4239,4.2512,4.4974,8.168,2.5972,-0.8947,1.8253
6.2391,5.6975,3.7597,7.0034,9.7919,7.3964,9.6318,6.6643,7.1467,8.9471,2.8994,2.8967,13.2931,11.0414,3.616,8.144,7.6226,3.9468,8.8106,11.5791,12.2698,10.2354,7.1142,9.5872,4.0125,4.2053,8.1848,2.5405,-0.2499,2.1167
6.8823,6.7031,4.499,7.87,10.586,7.9651,9.8385,6.7974,7.0974,8.8929,2.8837,3.0217,13.8685,12.0131,4.7905,9.5757,8.7609,4.4039,9.718,13.0352,13.4543,10.9627,7.5927,9.8887,3.8649,4.0585,8.3421,2.5723,0.4292,2.3967
7.5952,7.6055,5.1447,8.6951,11.3893,8.5336,10.0805,6.9268,7.0578,8.8777,2.8943,3.2026,14.4855,13.0479,5.938,10.9598,9.87,4.9315,10.6776,14.5065,14.6914,11.7509,8.1495,10.3194,3.8088,4.0564,8.6333,2.6757,1.1184,2.6576
8.4257,8.4087,5.7151,9.4895,12.203,9.1137,10.3668,7.0417,7.0277,8.9195,2.9284,3.418,15.1304,14.1171,7.0527,12.2817,10.9388,5.5348,11.6764,15.9858,15.9701,12.5992,8.7776,10.8608,3.84,4.1782,9.0356,2.8226,1.7997,2.9104
9.3999,9.1355,6.2404,10.2704,13.0254,9.7147,10.6955,7.1267,6.9977,9.0216,2.9732,3.6369,15.7881,15.1951,8.1464,13.5381,11.9672,6.2148,12.7033,17.4636,17.2753,13.5063,9.472,11.4876,3.952,4.3885,9.5135,2.9807,2.4605,3.1805
10.5103,9.8173,6.7516,11.0531,13.848,10.3386,11.0534,7.1668,6.9537,9.1723,3.0094,3.8248,16.4417,16.2555,9.2349,14.7293,12.9595,6.9634,13.7453,18.9221,18.5836,14.4649,10.2258,12.1695,4.1369,4.6455,10.0257,3.1193,3.0919,3.4985
11.7131,10.4844,7.2724,11.8452,14.6548,10.9773,11.4196,7.1541,6.8836,9.3484,3.0167,3.9498,17.0723,17.2687,10.325,15.8534,13.9199,7.7609,14.786,20.332,19.8628,15.4588,11.0286,12.8737,4.3854,4.9083,10.5311,3.2137,3.6879,3.8887
12.9349,11.1617,7.8156,12.6443,15.4245,11.6147,11.7707,7.0928,6.7834,9.5226,2.9806,3.9892,17.6609,18.2025,11.4064,16.9039,14.8514,8.5767,15.8068,21.6552,21.0754,16.4629,11.8641,13.5673,4.686,5.1438,10.9955,3.2477,4.2467,4.3603
14.0883,11.8653,8.3842,13.4398,16.1356,12.2315,12.0875,7.0021,6.6604,9.6707,2.8969,3.9338,18.1901,19.0256,12.4515,17.8707,15.7559,9.3741,16.79,22.8508,22.1838,17.4462,12.711,14.2208,5.0244,5.3299,11.396,3.2148,4.7715,4.9053
15.0889,12.6018,8.9743,14.2154,16.7707,12.8118,12.3599,6.9135,6.5335,9.7789,2.7742,3.7901,18.6466,19.7112,13.4209,18.7426,16.6336,10.1179,17.7206,23.881,23.1564,18.3753,13.5439,14.8098,5.3837,5.4571,11.7225,3.1181,5.2708,5.5005
15.8711,13.3652,9.5765,14.9506,17.3187,13.3455,12.5887,6.8645,6.4299,9.8466,2.6331,3.5785,19.0215,20.2408,14.2728,19.5078,17.4789,10.7812,18.5842,24.7155,23.9698,19.2172,14.3336,15.3163,5.744,5.5269,11.9766,2.9691,5.755,6.1144
16.3968,14.1333,10.1751,15.6206,17.7733,13.8289,12.7837,6.8905,6.3795,9.8846,2.5028,3.3299,19.3105,20.6043,14.97,20.1527,18.2753,11.3496,19.3632,25.3316,24.6094,19.9404,15.0476,15.7276,6.0837,5.5479,12.1669,2.786,6.2321,6.7137
16.6578,14.8658,10.7475,16.1959,18.13,14.2607,12.96,7.0168,6.4094,9.9114,2.4149,3.0799,19.512,20.7995,15.4847,20.6592,18.9903,11.8208,20.0311,25.7134,25.0662,20.5148,15.6503,16.0352,6.3794,5.5313,12.3028,2.5911,6.7028,7.2688
16.6729,15.5071,11.2634,16.6433,18.3831,14.6383,13.1324,7.2529,6.5386,9.9474,2.3976,2.8642,19.6261,20.8304,15.7999,21.0046,19.5763,12.2005,20.5512,25.8509,25.3344,20.9121,16.1058,16.2325,6.6077,5.487,12.3891,2.4069,7.1582,7.7565
16.4816,15.9951,11.6892,16.9303,18.5257,14.9557,13.3117,7.5911,6.7749,10.0096,2.4711,2.714,19.6549,20.7068,15.9091,21.1632,19.9777,12.4977,20.8802,25.7404,25.4097,21.1089,16.3826,16.3154,6.7481,5.4216,12.4235,2.2537,7.5822,8.1623
16.1362,16.2761,11.9948,17.032,18.5517,15.2044,13.5021,8.0071,7.1133,10.1095,2.6443,2.653,19.6029,20.445,15.815,21.1125,20.1446,12.7205,20.9776,25.3876,25.2911,21.0914,16.4614,16.2831,6.7864,5.338,12.3974,2.1464,7.9568,8.4821
15.693,16.32,12.1618,16.9393,18.4599,15.3761,13.7018,8.4653,7.5361,10.2519,2.9149,2.696,19.479,20.0691,15.5308,20.8414,20.049,12.8741,20.8185,24.8115,24.9842,20.8613,16.3417,16.1412,6.7189,5.2377,12.3,2.094,8.2695,8.7244
15.2051,16.131,12.1898,16.6635,18.2577,15.4665,13.9045,8.9246,8.0153,10.4363,3.2704,2.8483,19.2979,19.6108,15.0826,20.357,19.6965,12.9621,20.4043,24.0465,24.5053,20.4401,16.0451,15.9038,6.5552,5.1235,12.1253,2.1002,8.5176,8.9096
14.7189,15.7503,12.0979,16.2377,17.9626,15.4772,14.1022,9.3449,8.5163,10.658,3.6914,3.1067,19.0795,19.1075,14.514,19.6898,19.1306,12.9891,19.7679,23.1428,23.8844,19.8698,15.6138,15.5943,6.3184,5.0019,11.8771,2.1654,8.7091,9.0675
14.2744,15.2491,11.9216,15.7133,17.6011,15.4163,14.2871,9.6927,9.0027,10.9097,4.1544,3.4598,18.8477,18.5984,13.8896,18.8931,18.4278,12.9623,18.9728,22.1631,23.1656,19.2092,15.1051,15.2439,6.0433,4.8843,11.5727,2.2883,8.8582,9.2305
13.9091,14.7157,11.7057,15.1528,17.2069,15.2973,14.4538,9.9456,9.4419,11.1825,4.6348,3.8907,18.6273,18.1205,13.295,18.0391,17.6844,12.8926,18.1042,21.178,22.4045,18.5266,14.582,14.8889,5.7711,4.7862,11.2417,2.4678,8.9797,9.4263
13.6607,14.2391,11.496,14.6211,16.8162,15.1366,14.5992,10.0936,9.8095,11.4668,5.1091,4.3783,18.4411,17.7041,12.8277,17.2096,16.9984,12.7935,17.256,20.2588,21.6623,17.8896,14.104,14.5657,5.5431,4.7257,10.9229,2.7025,9.0824,9.672
13.5652,13.8937,11.3302,14.1754,16.4629,14.9511,14.7219,10.1386,10.0917,11.7522,5.5558,4.9003,18.3057,17.3695,12.5789,16.4836,16.451,12.6796,16.514,19.4678,20.9972,17.3547,13.7177,14.3063,5.3942,4.7198,10.6574,2.9905,9.1655,9.9715
13.6482,13.7256,11.2298,13.8551,16.1724,14.7528,14.8199,10.0902,10.2838,12.0263,5.9552,5.4342,18.2284,17.1243,12.6099,15.9235,16.0899,12.5655,15.9403,18.8488,20.4538,16.9567,13.4501,14.1327,5.3471,4.781,10.481,3.3269,9.217,10.3166
13.9124,13.7441,11.1946,13.6739,15.9549,14.5452,14.8874,9.9607,10.3873,12.2732,6.2888,5.9576,18.2055,16.9619,12.9304,15.5615,15.9202,12.4644,15.5609,18.4179,20.0538,16.7028,13.3031,14.0532,5.4079,4.9142,10.4176,3.7021,9.2153,10.6908
14.3266,13.9195,11.2003,13.615,15.8017,14.3205,14.9133,9.7607,10.4065,12.4732,6.5388,6.4484,18.222,16.8622,13.487,15.393,15.9049,12.3854,15.362,18.1587,19.7899,16.5708,13.2549,14.0602,5.5655,5.114,10.4742,4.1008,9.1328,11.0719
14.8231,14.1877,11.2021,13.6333,15.6854,14.0603,14.8823,9.4967,10.3452,12.6032,6.6894,6.8852,18.2547,16.7939,14.1687,15.376,15.9748,12.3306,15.2941,18.0242,19.6269,16.5148,13.2655,14.1321,5.7936,5.3657,10.6398,4.502,8.9409,11.4343
15.3052,14.4626,11.1428,13.6634,15.5648,13.7404,14.7776,9.1708,10.2066,12.6397,6.728,7.248,18.2763,16.7193,14.8285,15.4398,16.0465,12.2916,15.2856,17.9456,19.5089,16.4769,13.2871,14.2371,6.0555,5.6463,10.8875,4.8819,8.6145,11.7506
15.6644,14.653,10.965,13.6334,15.3937,13.3384,14.5854,8.7831,9.9934,12.5625,6.6482,7.5197,18.2595,16.5986,15.3161,15.5001,16.0426,12.2486,15.26,17.8455,19.3713,16.4005,13.2758,14.3387,6.3104,5.9285,11.1796,5.2162,8.1371,11.994
15.8023,14.6809,10.6236,13.4801,15.1307,12.8423,14.2984,8.3344,9.7099,12.359,6.4514,7.6873,18.1806,16.3954,15.5114,15.476,15.9081,12.1728,15.1521,17.6532,19.1544,16.2418,13.1998,14.4012,6.5196,6.1825,11.4722,5.4827,7.5038,12.1413
15.6516,14.4948,10.095,13.1617,14.748,12.2547,13.9184,7.8297,9.3635,12.0264,6.1489,7.7434,18.0209,16.081,15.3498,15.3043,15.6174,12.0322,14.9192,17.3166,18.8147,15.9762,13.0427,14.393,6.6507,6.3791,11.7206,5.6629,6.7224,12.1766
15.1895,14.0765,9.381,12.6646,14.2353,11.5939,13.4557,7.2801,8.9658,11.574,5.7621,7.6871,17.7664,15.6376,14.8313,14.948,15.1725,11.7991,14.544,16.8095,18.3309,15.5983,12.8009,14.2896,6.6801,6.491,11.8837,5.7435,5.8115,12.0935
14.4418,13.4384,8.5056,12.0031,13.6003,10.8883,12.9272,6.7037,8.5327,11.0229,5.3213,7.5252,17.4079,15.0607,14.012,14.3986,14.5929,11.4568,14.0309,16.1324,17.7048,15.1172,12.4785,14.075,6.5935,6.4954,11.9276,5.7169,4.7978,11.8954
13.4777,12.6159,7.5093,11.2129,12.8651,10.1695,12.3544,6.1236,8.0834,10.4044,4.8634,7.2719,16.9409,14.3596,12.9838,13.6718,13.9052,11.0043,13.3989,15.3086,16.9573,14.5499,12.0828,13.7429,6.3859,6.3758,11.8287,5.5818,3.7125,11.595
12.3966,11.6554,6.4415,10.3427,12.0615,9.4653,11.7606,5.5662,7.6395,9.7572,4.4272,6.9483,16.3669,13.5567,11.8495,12.8011,13.1352,10.4587,12.6751,14.3775,16.1228,13.9161,11.6213,13.2973,6.0609,6.1244,11.5765,5.3435,2.5891,11.2122
11.3102,10.6063,5.3553,9.4443,11.2269,8.7972,11.1696,5.0572,7.2234,9.1232,4.0493,6.5807,15.6968,12.6858,10.7018,11.8313,12.3048,9.8535,11.8895,13.3878,15.2427,13.2357,11.1028,12.7532,5.6306,5.7444,11.1748,5.0146,1.4624,10.7729
10.3224,9.5164,4.3044,8.5665,10.4004,8.1801,10.6057,4.6191,6.8565,8.5437,3.7594,6.1986,14.9539,11.7902,9.6111,10.8127,11.4355,9.2339,11.0744,12.3915,14.3613,12.5288,10.54,12.1359,5.1156,5.2502,10.6424,4.6146,0.3688,10.3065
9.5116,8.4316,3.3413,7.7515,9.6213,7.6252,10.0925,4.268,6.5567,8.0549,3.5767,5.8314,14.1751,10.9202,8.6216,9.798,10.5525,8.6501,10.2644,11.4395,13.522,11.8183,9.9524,11.4794,4.5443,4.6673,10.0116,4.1692,-0.6551,9.8435
8.9182,7.3982,2.5155,7.0335,8.9265,7.1422,9.6521,4.011,6.3357,7.683,3.5072,5.5059,13.41,10.1297,7.755,8.839,9.6897,8.1487,9.4968,10.5778,12.7654,11.132,9.3675,10.8229,3.9518,4.0302,9.3251,3.7087,-1.5733,9.4113
8.5394,6.4645,1.8699,6.4377,8.3476,6.7388,9.3015,3.8439,6.1954,7.4413,3.5421,5.242,12.7144,9.4703,7.0173,7.983,8.8896,7.7672,8.8091,9.8445,12.1255,10.5018,8.8189,10.2059,3.377,3.379,8.6305,3.2647,-2.3526,9.0313
8.335,5.6781,1.4347,5.9799,7.9067,6.4194,9.049,3.7507,6.1255,7.3269,3.6577,5.0502,12.1422,8.985,6.407,7.268,8.1985,7.5284,8.2346,9.2649,11.6269,9.9616,8.3416,9.6637,2.8581,2.7557,7.9742,2.8666,-2.9665,8.7166
8.2419,5.079,1.2205,5.664,7.6116,6.1822,8.8915,3.7057,6.1033,7.3207,3.818,4.9297,11.7352,8.7002,5.92,6.7168,7.6577,7.4398,7.7959,8.8479,11.28,9.5415,7.9665,9.2232,2.4289,2.1999,7.3955,2.5379,-3.399,8.4712
8.1933,4.6891,1.2136,5.4806,7.4531,6.0173,8.8128,3.6772,6.0969,7.3895,3.9803,4.8686,11.5148,8.6201,5.55,6.3327,7.2932,7.4938,7.5001,8.5836,11.0793,9.2626,7.7142,8.9005,2.1139,1.7459,6.9227,2.2936,-3.6501,8.2912
8.1348,4.5044,1.3753,5.4075,7.4061,5.908,8.7872,3.6352,6.0722,7.4927,4.1035,4.8473,11.4792,8.7246,5.2867,6.0986,7.1098,7.6701,7.337,8.4451,11.0033,9.1332,7.5923,8.7016,1.9277,1.4204,6.5716,2.1397,-3.737,8.1662
8.0352,4.4934,1.6485,5.413,7.4352,5.8342,8.7851,3.5589,6.0022,7.5915,4.1573,4.8437,11.6043,8.9725,5.1142,5.9808,7.0892,7.9385,7.2825,8.3951,11.0201,9.1475,7.5949,8.6235,1.8743,1.2408,6.3472,2.0742,-3.692,8.0807
7.8872,4.6035,1.9694,5.4633,7.5034,5.7781,8.7817,3.4425,5.8752,7.6582,4.1293,4.8384,11.8511,9.3109,5.0128,5.9388,7.1967,8.2629,7.3061,8.3952,11.0947,9.289,7.706,8.6583,1.9502,1.2145,6.2466,2.0895,-3.5563,8.0154
7.704,4.7747,2.2806,5.5301,7.5816,5.729,8.7635,3.2978,5.7,7.683,4.0284,4.8193,12.175,9.6856,4.9641,5.9362,7.3899,8.6064,7.3811,8.4167,11.1987,9.5353,7.9053,8.7954,2.1457,1.3387,6.2622,2.1747,-3.3711,7.9493
7.5133,4.9549,2.5426,5.5974,7.6558,5.6869,8.7318,3.1501,5.5048,7.6763,3.8816,4.7829,12.5351,10.0529,4.9584,5.9501,7.6293,8.9366,7.4924,8.448,11.3164,9.8637,8.1731,9.0237,2.4465,1.5997,6.3835,2.3173,-3.1694,7.8613
7.3513,5.1122,2.7405,5.6645,7.7295,5.6625,8.7013,3.0318,5.3291,7.6636,3.7259,4.733,12.8994,10.3861,4.9991,5.9765,7.8859,9.2315,7.6401,8.4969,11.4483,10.2554,8.4946,9.332,2.8334,1.9735,6.5971,2.5025,-2.97,7.7337
7.2589,5.2413,2.8852,5.7451,7.8209,5.6744,8.6931,2.9716,5.2119,7.6763,3.5975,4.6764,13.2477,10.6773,5.1034,6.0284,8.144,9.4815,7.8372,8.5867,11.6086,10.6969,8.8605,9.7077,3.2818,2.4262,6.8854,2.7129,-2.7748,7.5564
7.2769,5.3626,3.0078,5.8627,7.9548,5.7438,8.7263,2.9861,5.1772,7.7391,3.5199,4.6179,13.569,10.9336,5.2976,6.1305,8.4002,9.6892,8.103,8.7474,11.8183,11.1787,9.2646,10.1347,3.7615,2.9163,7.2251,2.9264,-2.5703,7.3296
7.4424,5.5137,3.1505,6.0424,8.1539,5.8881,8.8086,3.073,5.2244,7.8591,3.4957,4.5555,13.8572,11.1698,5.6086,6.3092,8.6609,9.8657,8.453,9.0056,12.0968,11.6916,9.7016,10.5924,4.2386,3.3977,7.5861,3.1165,-2.3335,7.0661
7.7842,5.7387,3.3551,6.3038,8.4288,6.1146,8.9302,3.2087,5.3244,8.0195,3.5031,4.4779,14.1063,11.3999,6.0562,6.5846,8.9384,10.0257,8.8917,9.3749,12.4534,12.2242,10.164,11.0556,4.679,3.8243,7.9329,3.2533,-2.0392,6.7906
8.3174,6.0747,3.6517,6.6544,8.7736,6.4175,9.0629,3.3524,5.4243,8.1791,3.4995,4.3647,14.3064,11.6308,6.6466,6.9634,9.2486,10.184,9.4078,9.8503,12.8824,12.7606,10.6408,11.4955,5.0531,4.155,8.227,3.3068,-1.6676,6.5368
9.0378,6.5413,4.0511,7.086,9.1644,6.7774,9.165,3.4536,5.4588,8.2805,3.4303,4.1893,14.4424,11.8588,7.3689,7.4363,9.6075,10.3537,9.9737,10.4073,13.3614,13.28,11.1179,11.8825,5.3388,4.3578,8.4305,3.2508,-1.2095,6.341
9.9178,7.1335,4.5425,7.5758,9.5645,7.1644,9.1899,3.4638,5.3665,8.262,3.2416,3.9243,14.4954,12.0709,8.1935,7.9782,10.0269,10.5452,10.5499,11.0063,13.8547,13.7581,11.5773,12.1878,5.5232,4.4134,8.5109,3.067,-0.6683,6.2341
10.9051,7.8207,5.0974,8.09,9.9328,7.5444,9.098,3.3489,5.1045,8.0724,2.8934,3.5483,14.4459,12.2482,9.0741,8.5525,10.5095,10.7656,11.0907,11.599,14.3194,14.1687,11.9977,12.3861,5.6004,4.3148,8.4447,2.7479,-0.058,6.2334
11.9281,8.5509,5.6768,8.5905,10.2327,7.8862,8.8662,3.0983,4.66,7.6847,2.3707,3.0521,14.2788,12.3711,9.9537,9.1164,11.0436,11.0153,11.5518,12.1372,14.713,14.4866,12.3539,12.4566,5.568,4.0665,8.2206,2.2986,0.5995,6.3357
12.9062,9.2599,6.2404,9.0417,10.4399,8.1666,8.4948,2.7285,4.0538,7.1039,1.6893,2.4434,13.9882,12.4239,10.7736,9.6273,11.6016,11.2859,11.8976,12.5802,15.0013,14.6907,12.6189,12.3855,5.4238,3.681,7.8417,1.7364,1.2779,6.5155
13.7645,9.8836,6.7543,9.4165,10.5464,8.3745,8.0086,2.2808,3.3367,6.3682,0.8947,1.7481,13.582,12.3988,11.4829,10.0491,12.1427,11.5585,12.1073,12.9013,15.1642,14.7677,12.7679,12.1681,5.1655,3.1763,7.325,1.0891,1.9499,6.7293
14.4482,10.3707,7.1956,9.6995,10.5605,8.5112,7.4526,1.8124,2.5784,5.5433,0.0552,1.0084,13.0832,12.2971,12.0481,10.3578,12.6202,11.8055,12.1794,13.0903,15.1992,14.7163,12.7843,11.8118,4.7925,2.5743,6.7015,0.3924,2.5892,6.9254
14.9322,10.6923,7.5537,9.888,10.5024,8.5872,6.8835,1.3833,1.8526,4.7103,-0.7512,0.277,12.5287,12.1287,12.4589,10.5444,12.9915,11.9955,12.1325,13.1549,15.1212,14.5493,12.6648,11.3375,4.3109,1.9013,6.0127,-0.3132,3.1729,7.0562
15.2243,10.8474,7.8288,9.9901,10.3983,8.6175,6.3586,1.0427,1.222,3.9507,-1.4505,-0.3907,11.9649,11.9099,12.7298,10.6156,13.2278,12.1008,12.0022,13.1168,14.9598,14.2939,12.4231,10.7795,3.738,1.1879,5.3068,-0.9858,3.6826,7.0889
15.3619,10.8619,8.0289,10.0224,10.274,8.6167,5.9249,0.8181,0.7268,3.3317,-1.9873,-0.9461,11.4403,11.6602,12.8967,10.5925,13.3207,12.1063,11.8351,13.0085,14.7539,13.9899,12.0896,10.1821,3.104,0.4682,4.6333,-1.5876,4.1053,7.0129
15.4032,10.7838,8.1686,10.0077,10.1509,8.5967,5.6117,0.7096,0.3786,2.895,-2.3328,-1.3544,10.9979,11.3991,13.0094,10.5077,13.2863,12.0176,11.6808,12.8677,14.5465,13.6841,11.7082,9.5945,2.4512,-0.2228,4.0366,-2.089,4.4344,6.8423
15.4165,10.675,8.2686,9.9735,10.045,8.5658,5.4268,0.6922,0.1615,2.6519,-2.4892,-1.6009,10.6688,11.144,13.1219,10.4024,13.1639,11.8646,11.5841,12.7342,14.3795,13.4248,11.331,9.0642,1.8282,-0.8534,3.551,-2.4731,4.6708,6.6123
15.4705,10.601,8.3559,9.9502,9.9687,8.5317,5.3582,0.7229,0.039,2.5845,-2.4854,-1.6911,10.4685,10.9078,13.2803,10.322,13.0111,11.6974,11.5786,12.6466,14.2897,13.2547,11.0105,8.6305,1.2817,-1.3994,3.1961,-2.7378,4.8239,6.3721
15.6255,10.6195,8.4624,9.969,9.933,8.503,5.3786,0.7525,-0.0366,2.6523,-2.3689,-1.649,10.3953,10.6992,13.5132,10.3099,12.8937,11.5739,11.6827,12.6389,14.3049,13.2044,10.7912,8.3187,0.8478,-1.8474,2.9743,-2.8954,4.9121,6.1724
15.9267,10.7702,8.6199,10.0573,9.9485,8.4905,5.4523,0.7376,-0.1128,2.8016,-2.1955,-1.5112,10.4323,10.5225,13.824,10.4006,12.8729,11.5429,11.8975,12.7376,14.441,13.287,10.7021,8.1376,0.5451,-2.1954,2.8717,-2.9687,4.9603,6.0543
16.3992,11.0677,8.853,10.2349,10.026,8.5071,5.5437,0.65,-0.228,2.977,-2.0179,-1.3197,10.5515,10.3802,14.1911,10.6131,12.9923,11.6279,12.208,12.9578,14.6997,13.4959,10.751,8.0786,0.3719,-2.4505,2.8619,-2.9851,4.9967,6.0395
17.043,11.5001,9.1725,10.51,10.1744,8.566,5.623,0.4823,-0.4051,3.1294,-1.8782,-1.115,10.7195,10.2753,14.5744,10.9473,13.2688,11.8201,12.5862,13.3004,15.0687,13.8066,10.924,8.1193,0.3091,-2.6254,2.9114,-2.9699,5.0473,6.1269
17.8323,12.0327,9.5717,10.8778,10.399,8.6787,5.6716,0.2481,-0.6487,3.2228,-1.8034,-0.9312,10.9045,10.2132,14.9284,11.3841,13.6883,12.0813,12.9959,13.7519,15.523,14.1818,11.1892,8.2287,0.3271,-2.7341,2.9866,-2.9412,5.1307,6.2947
18.7176,12.6155,10.0269,11.3203,10.6987,8.8523,5.6825,-0.023,-0.9478,3.2364,-1.8052,-0.7926,11.0814,10.201,15.2161,11.8884,14.2085,12.3569,13.3979,14.2843,16.0285,14.5783,11.5037,8.3726,0.3941,-2.7888,3.0589,-2.9086,5.2543,6.5068
19.6316,13.1936,10.5026,11.8083,11.0633,9.0876,5.6584,-0.2934,-1.2801,3.164,-1.8823,-0.7145,11.235,10.2454,15.4192,12.4152,14.7665,12.5931,13.7544,14.8585,16.5457,14.9541,11.8213,8.5195,0.4823,-2.8001,3.1074,-2.8747,5.4107,6.7212
20.4969,13.7159,10.9572,12.3035,11.4719,9.3768,5.6085,-0.5276,-1.6187,3.012,-2.0248,-0.7041,11.3597,10.3471,15.543,12.9147,15.2912,12.7514,14.0326,15.4268,17.0333,15.2732,12.0998,8.6432,0.5714,-2.778,3.1191,-2.84,5.5789,6.8985
21.2324,14.1419,11.3492,12.7621,11.8926,9.7018,5.5432,-0.7,-1.938,2.7958,-2.2174,-0.762,11.4573,10.4971,15.6114,13.3384,15.7147,12.8165,14.2074,15.9377,17.451,15.5072,12.305,8.7237,0.6466,-2.7352,3.0868,-2.8077,5.7264,7.0074
21.7602,14.4455,11.6422,13.1386,12.285,10.0337,5.4709,-0.7998,-2.2178,2.5375,-2.4416,-0.8825,11.5322,10.6739,15.6566,13.6443,15.9839,12.7948,14.2629,16.3414,17.7625,15.636,12.4133,8.7473,0.6958,-2.6878,3.0064,-2.7864,5.8162,7.0285
22.0128,14.6146,11.8084,13.3903,12.6043,10.3345,5.3954,-0.8318,-2.4454,2.2616,-2.6766,-1.0535,11.5871,10.8451,15.7057,13.8003,16.0661,12.7071,14.1934,16.5953,17.9388,15.6473,12.4118,8.7057,0.7063,-2.6547,2.8761,-2.7898,5.8142,6.9545
21.9441,14.6474,11.8305,13.4823,12.8069,10.5599,5.3155,-0.8137,-2.6158,1.9926,-2.9007,-1.2562,11.6202,10.9714,15.7693,13.7873,15.9513,12.5777,14.0038,16.6698,17.9612,15.5357,12.2983,8.5957,0.6643,-2.6547,2.6965,-2.8333,5.6983,6.7883
21.5409,14.5483,11.7036,13.3919,12.8578,10.666,5.2255,-0.7716,-2.7307,1.7508,-3.0926,-1.4657,11.6235,11.0145,15.834,13.5996,15.6509,12.4248,13.7087,16.5524,17.8241,15.3034,12.0792,8.4189,0.5566,-2.7027,2.4724,-2.9286,5.4637,6.5394
20.8317,14.3235,11.4351,13.112,12.7357,10.6163,5.1173,-0.734,-2.7978,1.5494,-3.2345,-1.6547,11.5839,10.9439,15.8607,13.2447,15.1929,12.2557,13.3298,16.2494,17.5362,14.9596,11.7682,8.1811,0.3744,-2.8057,2.2136,-3.0791,5.1257,6.2192
19.8882,13.9785,11.0433,12.6528,12.4378,10.3894,4.9821,-0.7268,-2.8287,1.3927,-3.3152,-1.7971,11.4859,10.7435,15.7886,12.7409,14.6177,12.0653,12.8924,15.7843,17.119,14.521,11.3831,7.8919,0.1168,-2.9606,1.9355,-3.2766,4.716,5.836
18.817,13.5197,10.5536,12.0411,11.9804,9.9845,4.8142,-0.7687,-2.8376,1.276,-3.3328,-1.8723,11.3157,10.4147,15.5465,12.1146,13.9722,11.8383,12.421,15.1935,16.6031,14.0094,10.9428,7.5633,-0.2066,-3.1546,1.6579,-3.501,4.2753,5.3928
17.7399,12.958,9.9951,11.3182,11.3976,9.4237,4.6131,-0.8676,-2.8386,1.1899,-3.294,-1.869,11.0657,9.9758,15.0702,11.3982,13.3046,11.5536,11.9356,14.5203,16.0233,13.4498,10.4648,7.208,-0.5762,-3.3671,1.4017,-3.7239,3.8426,4.888
16.768,12.3122,9.396,10.5352,10.7363,8.7492,4.3856,-1.0185,-2.8425,1.1244,-3.2114,-1.7856,10.7374,9.4576,14.3219,10.6277,12.6594,11.1885,11.4496,13.8091,15.4137,12.8668,9.9631,6.8388,-0.9661,-3.574,1.1858,-3.9132,3.4457,4.3188
15.9752,11.6097,8.7801,9.746,10.0484,8.0169,4.1463,-1.2049,-2.8549,1.0745,-3.0996,-1.63,10.3427,8.8968,13.3065,9.8393,12.0708,10.7242,10.9687,13.0987,14.8027,12.2811,9.4485,6.4667,-1.3481,-3.7529,1.0235,-4.0399,3.0944,3.6865
15.3832,10.8834,8.1646,8.9995,9.3832,7.2866,3.9157,-1.4019,-2.8741,1.0428,-2.9694,-1.4162,9.9026,8.3285,12.0774,9.0653,11.5574,10.15,10.4923,12.4184,14.2102,11.7071,8.9289,6.1012,-1.6981,-3.8877,0.9203,-4.0829,2.78,2.9999
14.9606,10.1664,7.5608,8.3325,8.78,6.6123,3.7176,-1.5817,-2.8918,1.0389,-2.8247,-1.1609,9.444,7.7801,10.7304,8.3309,11.1177,9.4676,10.0147,11.7853,13.6463,11.1507,8.4108,5.7487,-1.9998,-3.972,0.8724,-4.0334,2.4804,2.278
14.6371,9.4863,6.9765,7.766,8.2641,6.0355,3.5745,-1.7188,-2.8949,1.0759,-2.6612,-0.8792,8.9962,7.2678,9.385,7.6508,10.7293,8.6937,9.5281,11.2049,13.1126,10.6109,7.8996,5.4133,-2.2476,-4.0105,0.8683,-3.8952,2.1696,1.5494
14.3266,8.8629,6.4204,7.3057,7.8468,5.5809,3.5035,-1.7959,-2.8688,1.1647,-2.4684,-0.5828,8.5865,6.7969,8.1601,7.0299,10.354,7.8602,9.0256,10.6741,12.6048,10.0816,7.3993,5.0963,-2.4463,-4.0173,0.8905,-3.6841,1.8286,0.8485
13.9508,8.3083,5.9055,6.9454,7.5268,5.2571,3.5127,-1.8059,-2.8008,1.3089,-2.2343,-0.2797,8.2362,6.3644,7.1505,6.4654,9.9472,7.0107,8.5044,10.1864,12.1164,9.5558,6.9122,4.7971,-2.6096,-4.0135,0.919,-3.4247,1.4534,0.2099
13.4603,7.8285,5.4505,6.6723,7.2944,5.0581,3.5981,-1.7535,-2.6841,1.5006,-1.9521,0.0249,7.958,5.9648,6.4113,5.951,9.4702,6.1936,7.9681,9.7358,11.643,9.0301,6.4397,4.5145,-2.7568,-4.0223,0.9347,-3.147,1.0598,-0.3392
12.8466,7.4259,5.077,6.4719,7.1351,4.9681,3.7436,-1.6529,-2.5195,1.7206,-1.6251,0.3258,7.7548,5.5949,5.9512,5.4807,8.9011,5.4542,7.4283,9.3206,11.1853,8.5078,5.984,4.2479,-2.9078,-4.0648,0.9234,-2.8811,0.6809,-0.784
12.1451,7.1007,4.8037,6.3307,7.0329,4.9647,3.9233,-1.5245,-2.3165,1.9419,-1.27,0.6165,7.6205,5.2577,5.7369,5.0525,8.2427,4.8277,6.904,8.9439,10.7508,8.0012,5.5501,3.9995,-3.0782,-4.1545,0.8783,-2.6526,0.3592,-1.1233
11.4269,6.8507,4.64,6.2367,6.9716,5.0226,4.1059,-1.3907,-2.0931,2.1348,-0.9148,0.8885,7.542,4.9629,5.7046,4.6692,7.5235,4.3363,6.4202,8.6127,10.3525,7.5304,5.148,3.7744,-3.2747,-4.2938,0.8012,-2.4786,0.1348,-1.3665
10.7812,6.6719,4.5809,6.1788,6.9362,5.1158,4.2603,-1.272,-1.8727,2.2736,-0.5946,1.1314,7.5029,4.7249,5.7766,4.3387,6.7937,3.9896,6.0043,8.3352,10.0073,7.1211,4.7925,3.5811,-3.4914,-4.4726,0.7022,-2.3653,0.0344,-1.5266
10.2901,6.5578,4.6055,6.1465,6.9128,5.2201,4.3613,-1.1834,-1.6802,2.3423,-0.3425,1.3352,7.4871,4.5585,5.8785,4.0715,6.1151,3.7875,5.6815,8.1179,9.7312,6.7986,4.5018,3.4306,-3.7098,-4.6694,0.5966,-2.3074,0.0635,-1.6143
10.0039,6.4992,4.6801,6.1284,6.8893,5.3137,4.3943,-1.1331,-1.5366,2.3387,-0.1823,1.4925,7.4818,4.4751,5.9532,3.8779,5.5481,3.7224,5.4699,7.9627,9.5355,6.5833,4.2937,3.3341,-3.9007,-4.8547,0.5024,-2.2903,0.2047,-1.6357
9.9244,6.4835,4.7632,6.1127,6.8549,5.3786,4.3569,-1.1219,-1.454,2.2745,-0.1211,1.6011,7.4795,4.4782,5.9672,3.7633,5.1394,3.7784,5.3748,7.8644,9.4227,6.4843,4.1805,3.3009,-4.0313,-4.9977,0.4368,-2.2933,0.4212,-1.5949
10.0027,6.4935,4.8128,6.0863,6.801,5.4011,4.2592,-1.1444,-1.4319,2.1739,-0.1481,1.6655,7.478,4.5621,5.9079,3.7245,4.9103,3.9275,5.3847,7.8101,9.3838,6.4959,4.1627,3.335,-4.0733,-5.0721,0.4131,-2.2939,0.6636,-1.5001
10.1546,6.5068,4.7933,6.0361,6.7208,5.3719,4.121,-1.1909,-1.4572,2.0686,-0.2357,1.6971,7.4782,4.7112,5.7733,3.7464,4.8518,4.1269,5.4702,7.7794,9.3984,6.5961,4.225,3.4325,-4.012,-5.0628,0.4383,-2.272,0.8793,-1.3705
10.2849,6.4976,4.681,5.9499,6.61,5.2862,3.9675,-1.2502,-1.5068,1.9917,-0.3469,1.7117,7.4822,4.9021,5.5617,3.802,4.9251,4.3202,5.5865,7.747,9.4371,6.7483,4.3361,3.5804,-3.8523,-4.9694,0.5126,-2.2136,1.0202,-1.239
10.3139,6.4397,4.4681,5.8183,6.4671,5.1431,3.8254,-1.3121,-1.5522,1.9724,-0.4426,1.7275,7.4914,5.1064,5.2666,3.856,5.0681,4.445,5.6801,7.6863,9.4667,6.9068,4.4521,3.758,-3.6201,-4.8067,0.6293,-2.1128,1.0503,-1.1481
10.1941,6.3112,4.1625,5.6355,6.2931,4.944,3.7184,-1.3686,-1.5659,2.0314,-0.4894,1.7621,7.506,5.2951,4.879,3.8702,5.2066,4.4449,5.6974,7.5736,9.4559,7.0236,4.5254,3.9394,-3.358,-4.6015,0.7779,-1.9721,0.9494,-1.1412
9.9154,6.0983,3.7862,5.3999,6.0914,4.6918,3.6653,-1.4154,-1.5265,2.1796,-0.4651,1.8298,7.5267,5.4419,4.3944,3.8105,5.2665,4.2815,5.5936,7.3918,9.3812,7.0567,4.5134,4.0997,-3.1158,-4.3866,0.9475,-1.8008,0.7152,-1.2509
9.4989,5.7985,3.3704,5.1153,5.8678,4.392,3.6787,-1.4502,-1.4215,2.4182,-0.3606,1.9407,7.5568,5.5266,3.8194,3.6533,5.1866,3.944,5.3407,7.1331,9.2313,6.9771,4.388,4.2198,-2.9391,-4.1927,1.1311,-1.6118,0.3625,-1.4895
8.9861,5.4215,2.9504,4.7916,5.6309,4.0545,3.7654,-1.4721,-1.2483,2.7403,-0.1791,2.0999,7.604,5.5383,3.1746,3.3903,4.9297,3.4538,4.9335,6.8008,9.0085,6.775,4.1422,4.2914,-2.8583,-4.042,1.3275,-1.4179,-0.0773,-1.845
8.4272,4.9895,2.5592,4.4454,5.3915,3.6951,3.9254,-1.4803,-1.0148,3.1318,0.0662,2.3064,7.6791,5.4763,2.4942,3.0313,4.4905,2.861,4.3917,6.4098,8.7288,6.4623,3.7934,4.3195,-2.8815,-3.9425,1.5415,-1.229,-0.5606,-2.2828
7.8715,4.5349,2.2224,4.099,5.1615,3.3359,4.1508,-1.4755,-0.7385,3.5714,0.3537,2.5524,7.7927,5.3501,1.8201,2.6033,3.8983,2.2346,3.7585,5.9851,8.4182,6.071,3.3808,4.3197,-2.993,-3.8882,1.7801,-1.0511,-1.0379,-2.7533
7.36,4.0958,1.9543,3.7765,4.9514,3.002,4.4229,-1.4612,-0.447,4.0288,0.6556,2.8222,7.9489,5.1777,1.1954,2.1469,3.2129,1.6481,3.0942,5.5583,8.1069,5.6474,2.9572,4.3129,-3.1589,-3.8628,2.0466,-0.8877,-1.4628,-3.2026
6.9213,3.7081,1.7565,3.4988,4.7663,2.7173,4.71,-1.4471,-0.1774,4.4638,0.9375,3.0914,8.1386,4.981,0.6568,1.7086,2.5133,1.164,2.4667,5.1613,7.8229,5.2425,2.5788,4.3174,-3.3368,-3.846,2.3346,-0.7434,-1.8023,-3.5835
6.5716,3.3968,1.6179,3.2779,4.6036,2.499,4.9678,-1.4507,0.0261,4.8273,1.1604,3.3286,8.3354,4.7815,0.2275,1.3321,1.883,0.8222,1.9406,4.8197,7.5843,4.9011,2.2932,4.3413,-3.4873,-3.821,2.6244,-0.6259,-2.0439,-3.8635
6.3172,3.1699,1.5174,3.1135,4.4522,2.3539,5.1428,-1.4969,0.1159,5.0657,1.2831,3.4984,8.4962,4.595,-0.0874,1.0507,1.394,0.6352,1.5674,4.5477,7.3958,4.6536,2.1316,4.3783,-3.5838,-3.7799,2.8833,-0.5474,-2.1987,-4.0286
6.1598,3.0168,1.4284,2.9927,4.294,2.2777,5.1813,-1.6145,0.0488,5.1288,1.2678,3.5673,8.5688,4.4288,-0.3025,0.881,1.0948,0.5905,1.3785,4.3453,7.2476,4.5109,2.1047,4.4088,-3.6168,-3.7253,3.0716,-0.5226,-2.2975,-4.0825
6.0983,2.9125,1.3248,2.8945,4.1089,2.2568,5.0405,-1.83,-0.2057,4.981,1.0874,3.5103,8.5039,4.2811,-0.4493,0.8226,1.0035,0.6574,1.3817,4.2003,7.1188,4.4654,2.2035,4.4055,-3.5938,-3.6684,3.1519,-0.5649,-2.3815,-4.0423
6.1283,2.8266,1.1871,2.7958,3.8803,2.2725,4.7004,-2.1594,-0.6567,4.6111,0.7334,3.3179,8.2697,4.1433,-0.568,0.8597,1.1074,0.7973,1.5613,4.0928,6.9856,4.4957,2.4042,4.3437,-3.5331,-3.6231,3.1007,-0.6814,-2.4907,-3.9329
6.2375,2.7322,1.0059,2.6786,3.6007,2.3056,4.1714,-2.6014,-1.2858,4.0392,0.2214,3.0007,7.8639,4.0053,-0.6961,0.9663,1.3682,0.9718,1.8816,4.0013,6.8285,4.574,2.6752,4.2109,-3.4557,-3.5995,2.9173,-0.8686,-2.6524,-3.7818
6.4018,2.6136,0.7831,2.5347,3.2741,2.3405,3.4964,-3.1343,-2.0482,3.3166,-0.4086,2.5896,7.3181,3.86,-0.8569,1.112,1.731,1.1494,2.2926,3.9082,6.6391,4.6727,2.9826,4.0131,-3.3781,-3.5996,2.6275,-1.1104,-2.8744,-3.6148
6.5862,2.4689,0.5305,2.3669,2.9163,2.3672,2.7439,-3.7182,-2.8777,2.5191,-1.0973,2.1307,6.6929,3.7062,-1.054,1.2678,2.1343,1.3088,2.7372,3.8034,6.4222,4.7704,3.2963,3.7741,-3.3081,-3.6158,2.279,-1.3804,-3.1444,-3.4535
