FP1,F3,F7,FC3,C3,C5,P3,P7,PO7,PO3,O1,Oz,Pz,CPz,FP2,Fz,F4,F8,FC4,FCz,Cz,C4,C6,P4,P8,PO8,PO4,O2,HEOG_left,HEOG_right
-1.1942,-1.4398,-0.1697,-1.6786,-0.5883,-0.826,0.4546,0.4908,0.825,0.7391,1.2013,0.9742,0.0084,0.8086,-0.1727,-0.1012,0.8709,-0.2208,0.2896,0.1178,0.1527,0.465,0.5772,0.7767,0.8965,1.1764,0.8655,1.5228,0.0829,-0.6234
-1.5842,-1.4157,-0.2422,-1.6427,-0.6799,-0.7981,0.1807,0.4058,0.7157,0.349,0.8212,0.6927,-0.3999,0.3326,-0.2782,-0.3594,0.4937,-0.5925,-0.094,-0.0897,-0.054,0.0333,0.1764,0.2095,0.3502,0.6597,0.6165,1.0283,-0.2979,-0.9049
-1.9165,-1.3812,-0.3344,-1.5884,-0.7262,-0.7473,-0.013,0.3342,0.6445,0.0462,0.5201,0.4687,-0.724,-0.0605,-0.3725,-0.5751,0.1481,-0.9265,-0.432,-0.2648,-0.2177,-0.3581,-0.1846,-0.2889,-0.1424,0.2008,0.4067,0.596,-0.6525,-1.1672
-2.1402,-1.3336,-0.4587,-1.5067,-0.6999,-0.6684,-0.0674,0.2893,0.6392,-0.0991,0.3596,0.3505,-0.898,-0.3081,-0.4476,-0.7176,-0.1384,-1.1947,-0.6886,-0.384,-0.3071,-0.6735,-0.474,-0.6606,-0.5335,-0.1512,0.2727,0.2822,-0.9524,-1.393
-2.2182,-1.2753,-0.6157,-1.3949,-0.5906,-0.5637,0.0429,0.2761,0.7097,-0.0527,0.3701,0.3623,-0.8895,-0.3809,-0.4991,-0.7739,-0.3477,-1.3766,-0.8439,-0.4392,-0.3107,-0.8922,-0.6722,-0.8725,-0.7915,-0.3671,0.2354,0.1174,-1.1752,-1.5658
-2.1344,-1.211,-0.791,-1.2563,-0.4066,-0.4427,0.3051,0.2919,0.846,0.1788,0.546,0.5011,-0.7041,-0.2865,-0.5255,-0.7505,-0.4723,-1.4607,-0.8961,-0.4373,-0.238,-1.009,-0.7737,-0.9194,-0.9039,-0.4403,0.297,0.1037,-1.3047,-1.6697
-1.9,-1.1441,-0.9551,-1.0982,-0.1718,-0.3196,0.6734,0.3282,1.0203,0.5523,0.8496,0.7409,-0.3797,-0.0647,-0.5275,-0.6682,-0.5143,-1.4439,-0.8595,-0.3964,-0.1145,-1.0321,-0.7853,-0.8208,-0.8768,-0.3843,0.4437,0.2188,-1.331,-1.6908
-1.555,-1.073,-1.0713,-0.9301,0.0798,-0.2105,1.0812,0.3735,1.194,0.9998,1.2211,1.0406,0.0238,0.2247,-0.5072,-0.5552,-0.4849,-1.3318,-0.7601,-0.3391,0.0256,-0.9788,-0.7234,-0.6136,-0.7313,-0.2273,0.6496,0.4241,-1.2511,-1.6207
-1.1619,-0.9906,-1.1076,-0.7627,0.3095,-0.1322,1.455,0.4157,1.3252,1.4431,1.5902,1.3519,0.4386,0.5156,-0.4697,-0.4402,-0.4021,-1.1391,-0.629,-0.2859,0.1484,-0.8708,-0.6103,-0.343,-0.4987,-0.0064,0.8814,0.6736,-1.0725,-1.4619
-0.7914,-0.8876,-1.049,-0.6073,0.4804,-0.1001,1.7284,0.4434,1.3778,1.8077,1.8883,1.6274,0.8015,0.7481,-0.4241,-0.3474,-0.2894,-0.8904,-0.4964,-0.2517,0.2262,-0.7303,-0.4711,-0.0547,-0.2154,0.2376,1.1022,0.9212,-0.8169,-1.2311
-0.5025,-0.7569,-0.9051,-0.4756,0.5621,-0.1271,1.8527,0.4465,1.3276,2.0338,2.059,1.8255,1.0631,0.879,-0.383,-0.2931,-0.1722,-0.6183,-0.3849,-0.2437,0.2416,-0.5773,-0.3301,0.2108,0.0815,0.4638,1.2755,1.1256,-0.5209,-0.9598
-0.3262,-0.598,-0.7077,-0.3779,0.5368,-0.2194,1.8034,0.4177,1.1673,2.0842,2.0657,1.9147,1.194,0.8871,-0.3608,-0.2842,-0.0726,-0.358,-0.3063,-0.2614,0.1897,-0.4276,-0.2069,0.4228,0.3576,0.636,1.3694,1.2542,-0.2307,-0.6885
-0.2577,-0.42,-0.5006,-0.3216,0.4028,-0.374,1.5838,0.3538,0.9081,1.948,1.897,1.8778,1.187,0.7749,-0.3673,-0.3179,-0.0059,-0.1401,-0.26,-0.2976,0.0775,-0.2911,-0.1138,0.5625,0.585,0.726,1.3605,1.2852,0.0073,-0.4576
-0.2616,-0.2403,-0.3257,-0.3092,0.1775,-0.576,1.2231,0.2576,0.5777,1.6412,1.5684,1.7138,1.0561,0.5663,-0.4032,-0.382,0.0225,0.0168,-0.2346,-0.3404,-0.077,-0.1718,-0.0534,0.6239,0.7438,0.7187,1.2385,1.2101,0.1579,-0.2967
-0.2852,-0.0819,-0.2102,-0.3364,-0.1044,-0.7982,0.7728,0.1384,0.2166,1.2046,1.1204,1.44,0.834,0.3019,-0.4567,-0.4576,0.0174,0.1102,-0.2119,-0.3749,-0.2474,-0.0684,-0.0188,0.614,0.8243,0.6144,1.0097,1.0353,0.2071,-0.2172
-0.2756,0.033,-0.1606,-0.3917,-0.394,-1.0032,0.2995,0.0115,-0.1279,0.6987,0.6128,1.0899,0.5661,0.0313,-0.5056,-0.5224,-0.008,0.1536,-0.1721,-0.3855,-0.4025,0.024,0.0037,0.5513,0.8277,0.4303,0.6979,0.782,0.1651,-0.209
-0.1956,0.0885,-0.1632,-0.4568,-0.6362,-1.148,-0.1252,-0.1043,-0.4091,0.1956,0.1154,0.7095,0.3043,-0.1946,-0.5226,-0.5549,-0.0366,0.1715,-0.1003,-0.3588,-0.5108,0.1112,0.0307,0.4622,0.7648,0.1982,0.3435,0.4844,0.0629,-0.2451
-0.0344,0.081,-0.1905,-0.5091,-0.7801,-1.1915,-0.4363,-0.1911,-0.5887,-0.2315,-0.3039,0.3492,0.0971,-0.3331,-0.4838,-0.54,-0.0532,0.1923,0.009,-0.2872,-0.5471,0.1974,0.0758,0.3765,0.6543,-0.0407,-0.0032,0.184,-0.0576,-0.2903
0.1894,0.0212,-0.2108,-0.5267,-0.7897,-1.104,-0.5872,-0.2363,-0.6438,-0.5212,-0.5917,0.0545,-0.0186,-0.3579,-0.3767,-0.4741,-0.0499,0.2391,0.1482,-0.1722,-0.499,0.2818,0.145,0.32,0.5181,-0.2438,-0.2915,-0.0774,-0.1562,-0.3117
0.434,-0.0677,-0.1974,-0.4946,-0.6546,-0.8768,-0.5597,-0.2371,-0.5733,-0.6362,-0.7195,-0.1435,-0.0266,-0.2659,-0.2064,-0.3674,-0.0303,0.323,0.2974,-0.0268,-0.3715,0.358,0.2331,0.3082,0.3777,-0.3768,-0.4826,-0.2668,-0.2055,-0.2889
0.6471,-0.1564,-0.137,-0.4099,-0.3947,-0.5287,-0.3687,-0.2019,-0.3995,-0.5711,-0.689,-0.235,0.0654,-0.0784,0.0022,-0.2433,-0.0087,0.4396,0.4275,0.1249,-0.1879,0.4144,0.3238,0.3417,0.2494,-0.4214,-0.5588,-0.367,-0.1986,-0.2192
0.7812,-0.2166,-0.0331,-0.285,-0.0584,-0.1068,-0.0601,-0.1494,-0.1646,-0.354,-0.5312,-0.2329,0.2266,0.1621,0.2083,-0.1336,-0.007,0.5691,0.5077,0.2517,0.0136,0.4379,0.3944,0.4052,0.1428,-0.3798,-0.5286,-0.3806,-0.1492,-0.1164
0.8061,-0.2282,0.0949,-0.1454,0.2874,0.3216,0.2984,-0.1036,0.0779,-0.041,-0.299,-0.1686,0.4107,0.4009,0.3637,-0.0696,-0.047,0.6818,0.5133,0.3221,0.1887,0.4181,0.4217,0.4721,0.0608,-0.2743,-0.4232,-0.3283,-0.0857,-0.0054
0.715,-0.1851,0.2178,-0.024,0.5721,0.683,0.6317,-0.0876,0.2748,0.2968,-0.0538,-0.0831,0.5671,0.584,0.426,-0.074,-0.1433,0.7451,0.4329,0.3121,0.2972,0.3517,0.3903,0.512,0.0019,-0.1401,-0.2872,-0.2423,-0.0411,0.0875
0.525,-0.0972,0.3049,0.0474,0.738,0.9137,0.8729,-0.1174,0.3847,0.5892,0.1477,-0.0158,0.6527,0.67,0.3704,-0.1539,-0.2975,0.733,0.2724,0.2121,0.3124,0.2449,0.2979,0.5003,-0.0373,-0.0163,-0.1658,-0.1572,-0.0414,0.143
0.2716,0.0118,0.3335,0.0468,0.7529,0.9743,0.976,-0.1969,0.3864,0.7804,0.2664,0.0051,0.6419,0.6391,0.1984,-0.2984,-0.4966,0.633,0.0543,0.0302,0.2277,0.113,0.1575,0.4249,-0.0598,0.0649,-0.0933,-0.1004,-0.0975,0.1537
0.0003,0.1107,0.2965,-0.0323,0.6156,0.857,0.9232,-0.3169,0.2813,0.8393,0.2861,-0.0311,0.5307,0.4958,-0.0599,-0.4809,-0.7154,0.4503,-0.1871,-0.209,0.0571,-0.0228,-0.0058,0.2886,-0.0671,0.0848,-0.0861,-0.0858,-0.2008,0.1259
-0.2441,0.1704,0.2043,-0.1782,0.3539,0.5861,0.7252,-0.4571,0.0914,0.7619,0.2143,-0.1176,0.3357,0.2662,-0.3508,-0.6647,-0.9229,0.2084,-0.4133,-0.4688,-0.1682,-0.1401,-0.1611,0.1082,-0.0604,0.0407,-0.1417,-0.113,-0.3252,0.0764
-0.4261,0.1753,0.0826,-0.3627,0.0163,0.2118,0.4159,-0.5914,-0.1473,0.5678,0.0766,-0.2333,0.0883,-0.01,-0.6092,-0.8112,-1.0881,-0.0546,-0.5896,-0.7079,-0.4079,-0.2202,-0.2794,-0.0915,-0.0421,-0.0552,-0.2429,-0.1691,-0.4331,0.0276
-0.524,0.1303,-0.0347,-0.5465,-0.3398,-0.2006,0.0434,-0.6933,-0.3926,0.2929,-0.0923,-0.35,-0.1735,-0.2891,-0.7739,-0.8879,-1.1868,-0.293,-0.6918,-0.8881,-0.6211,-0.2523,-0.3412,-0.2831,-0.0168,-0.1812,-0.3639,-0.2343,-0.4857,0.0015
-0.5287,0.0611,-0.1136,-0.6862,-0.6592,-0.5831,-0.3403,-0.741,-0.6046,-0.0199,-0.257,-0.4399,-0.413,-0.5322,-0.8039,-0.8739,-1.2045,-0.4623,-0.7107,-0.9814,-0.774,-0.2347,-0.3402,-0.4428,0.008,-0.3112,-0.4784,-0.2871,-0.4523,0.0158
-0.4391,0.0074,-0.1276,-0.744,-0.8982,-0.8767,-0.688,-0.7212,-0.752,-0.3292,-0.3891,-0.4826,-0.6013,-0.7116,-0.6887,-0.7634,-1.1386,-0.528,-0.6524,-0.9741,-0.8457,-0.1746,-0.2833,-0.5538,0.024,-0.4212,-0.5649,-0.3106,-0.3182,0.0808
-0.2563,0.0101,-0.0619,-0.6938,-1.0295,-1.0389,-0.9639,-0.6306,-0.8161,-0.6011,-0.472,-0.4696,-0.7202,-0.8136,-0.4495,-0.5647,-0.9964,-0.4726,-0.5348,-0.8675,-0.8293,-0.0852,-0.1871,-0.6079,0.0246,-0.4942,-0.6101,-0.2971,-0.088,0.2
0.0172,0.0982,0.0835,-0.5271,-1.0433,-1.0484,-1.1474,-0.4761,-0.7931,-0.8134,-0.5028,-0.4063,-0.7637,-0.838,-0.1321,-0.2971,-0.7914,-0.2998,-0.3816,-0.6754,-0.7303,0.0185,-0.0717,-0.6047,0.0066,-0.5226,-0.6107,-0.251,0.2157,0.3697
0.3738,0.279,0.2948,-0.2533,-0.9455,-0.9062,-1.2333,-0.275,-0.6936,-0.9573,-0.4912,-0.311,-0.7366,-0.7946,0.2064,0.015,-0.5389,-0.0336,-0.216,-0.4191,-0.5633,0.1225,0.0438,-0.5503,-0.0281,-0.5084,-0.5717,-0.187,0.5571,0.5802
0.7941,0.5347,0.5466,0.1014,-0.7543,-0.6339,-1.231,-0.052,-0.5403,-1.0361,-0.457,-0.2109,-0.6519,-0.6995,0.512,0.3466,-0.253,0.2856,-0.0556,-0.1232,-0.3472,0.2165,0.1451,-0.4545,-0.0731,-0.4605,-0.5038,-0.1265,0.8937,0.8158
1.2432,0.8274,0.8066,0.5,-0.4957,-0.2695,-1.1605,0.1631,-0.3637,-1.0628,-0.4244,-0.1355,-0.5276,-0.5701,0.7445,0.6757,0.0536,0.609,0.0899,0.1889,-0.1015,0.2943,0.2243,-0.3295,-0.1182,-0.3907,-0.4202,-0.0901,1.1846,1.0561
1.6715,1.1088,1.0421,0.9015,-0.1987,0.1397,-1.0475,0.3415,-0.1963,-1.0548,-0.4159,-0.11,-0.383,-0.422,0.8833,0.9844,0.3678,0.8889,0.2181,0.4962,0.1558,0.3539,0.2795,-0.1873,-0.1515,-0.3095,-0.3326,-0.0911,1.3964,1.2781
2.0224,1.332,1.2252,1.2679,0.1087,0.545,-0.9169,0.4605,-0.0659,-1.0291,-0.4467,-0.149,-0.235,-0.2669,0.9287,1.2574,0.6743,1.0873,0.3319,0.7813,0.4099,0.3968,0.3136,-0.0387,-0.1618,-0.2225,-0.2492,-0.1315,1.5084,1.459
2.2427,1.463,1.3377,1.57,0.4027,0.9043,-0.7881,0.5087,0.0082,-0.9968,-0.5203,-0.2531,-0.096,-0.1119,0.8979,1.4816,0.9548,1.1824,0.4374,1.0291,0.6484,0.4278,0.3333,0.1077,-0.1407,-0.1299,-0.1733,-0.2014,1.5153,1.58
2.2949,1.4881,1.372,1.7901,0.6643,1.1872,-0.6718,0.4871,0.0184,-0.9614,-0.6279,-0.4097,0.0271,0.0386,0.8189,1.6455,1.1902,1.1715,0.5411,1.2267,0.8603,0.4537,0.3469,0.2453,-0.0857,-0.028,-0.1055,-0.2832,1.4261,1.6276
2.1679,1.4146,1.3298,1.9217,0.8786,1.3777,-0.5706,0.4088,-0.0325,-0.9195,-0.752,-0.5971,0.1316,0.1802,0.7225,1.7391,1.3634,1.0689,0.6474,1.3627,1.034,0.4816,0.3624,0.3681,-0.0021,0.0871,-0.046,-0.3582,1.2614,1.5961
1.8809,1.2661,1.218,1.9667,1.0335,1.4729,-0.4824,0.2941,-0.1338,-0.8651,-0.8711,-0.7908,0.2159,0.3057,0.6359,1.7558,1.4621,0.9012,0.7567,1.4273,1.1566,0.5157,0.3846,0.4682,0.096,0.2143,0.0019,-0.414,1.0487,1.4878
1.4807,1.0738,1.0453,1.9324,1.1183,1.4802,-0.4051,0.1654,-0.27,-0.7944,-0.9666,-0.9708,0.2765,0.4026,0.5775,1.693,1.4804,0.7008,0.8635,1.4129,1.2133,0.5541,0.4128,0.5347,0.1869,0.3439,0.0289,-0.4495,0.8177,1.3136
1.0311,0.8671,0.8206,1.8287,1.1241,1.4127,-0.3402,0.0424,-0.4231,-0.7103,-1.0274,-1.1257,0.3053,0.4538,0.5549,1.5535,1.4183,0.499,0.9563,1.3158,1.1896,0.5874,0.4397,0.5525,0.2454,0.4576,0.0206,-0.4758,0.5952,1.0926
0.5993,0.6668,0.5542,1.6669,1.045,1.2853,-0.2949,-0.0619,-0.5755,-0.6247,-1.0524,-1.2549,0.2893,0.44,0.564,1.3464,1.2818,0.3208,1.0192,1.1377,1.0746,0.5994,0.4532,0.5047,0.2477,0.5312,-0.0403,-0.5122,0.4024,0.8504
0.2433,0.4825,0.2603,1.4596,0.8805,1.1116,-0.2814,-0.1425,-0.7113,-0.5573,-1.0501,-1.366,0.2132,0.3445,0.5909,1.0865,1.0806,0.1804,1.0348,0.8877,0.8646,0.5704,0.4383,0.3759,0.1773,0.5403,-0.1685,-0.5793,0.2522,0.6153
0.0031,0.3139,-0.0406,1.2209,0.6377,0.9032,-0.3133,-0.2017,-0.8177,-0.531,-1.0356,-1.4707,0.0633,0.1579,0.6151,0.7929,0.8278,0.0803,0.9878,0.5818,0.5659,0.4828,0.3811,0.1568,0.0292,0.4673,-0.3714,-0.6921,0.1483,0.4144
-0.1027,0.1551,-0.3211,0.9668,0.3329,0.6706,-0.4012,-0.2456,-0.8864,-0.5659,-1.0251,-1.5792,-0.1667,-0.1173,0.6156,0.4873,0.5375,0.0121,0.8681,0.2421,0.1959,0.3257,0.2715,-0.1515,-0.1891,0.3064,-0.6444,-0.8537,0.0868,0.2694
-0.0787,0.0017,-0.5497,0.7156,-0.0086,0.4263,-0.5474,-0.2802,-0.9129,-0.6723,-1.0312,-1.6949,-0.4715,-0.4651,0.5764,0.1908,0.2243,-0.0396,0.673,-0.1061,-0.2183,0.0992,0.106,-0.5354,-0.4593,0.0668,-0.9704,-1.0536,0.0584,0.194
0.0494,-0.1445,-0.6956,0.4869,-0.3543,0.187,-0.7439,-0.3071,-0.8967,-0.8476,-1.0586,-1.8125,-0.832,-0.8573,0.4919,-0.0781,-0.0974,-0.0913,0.4087,-0.4376,-0.6428,-0.1851,-0.1122,-0.9692,-0.7564,-0.2282,-1.3221,-1.2698,0.0528,0.1925
0.2408,-0.273,-0.7359,0.2988,-0.6703,-0.0265,-0.9729,-0.323,-0.8407,-1.0756,-1.1046,-1.9198,-1.2176,-1.2579,0.3687,-0.3063,-0.413,-0.155,0.09,-0.7311,-1.043,-0.5056,-0.3733,-1.4192,-1.0547,-0.5456,-1.6676,-1.4754,0.0608,0.2609
0.447,-0.3678,-0.6618,0.1633,-0.9275,-0.1926,-1.2112,-0.3199,-0.7512,-1.3313,-1.1609,-2.0022,-1.5914,-1.6298,0.2233,-0.4869,-0.7072,-0.2336,-0.261,-0.9724,-1.3884,-0.8356,-0.6622,-1.849,-1.3317,-0.8502,-1.9772,-1.6465,0.0769,0.3872
0.6228,-0.4147,-0.4824,0.0828,-1.1075,-0.2938,-1.4354,-0.29,-0.6392,-1.5871,-1.2193,-2.0494,-1.9171,-1.9407,0.0796,-0.62,-0.964,-0.3199,-0.6162,-1.155,-1.6576,-1.1471,-0.9599,-2.2252,-1.5714,-1.1126,-2.2293,-1.7702,0.0979,0.5537
0.7353,-0.4081,-0.2244,0.049,-1.2059,-0.321,-1.6273,-0.2293,-0.5208,-1.8197,-1.2756,-2.0607,-2.1657,-2.1682,-0.0361,-0.7104,-1.1674,-0.3981,-0.9441,-1.2795,-1.8394,-1.4154,-1.2445,-2.5208,-1.764,-1.3141,-2.4126,-1.8472,0.1229,0.7385
0.7701,-0.3557,0.071,0.0452,-1.2308,-0.276,-1.777,-0.1421,-0.4174,-2.0142,-1.3322,-2.0461,-2.3195,-2.3012,-0.098,-0.7653,-1.3033,-0.4486,-1.2126,-1.35,-1.9325,-1.621,-1.4922,-2.7178,-1.9049,-1.4489,-2.5257,-1.89,0.1521,0.9181
0.7338,-0.2787,0.3555,0.0507,-1.1993,-0.1716,-1.8835,-0.0423,-0.3532,-2.1661,-1.3976,-2.024,-2.374,-2.3394,-0.085,-0.7916,-1.3629,-0.4542,-1.3935,-1.3726,-1.9433,-1.7512,-1.68,-2.8073,-1.9927,-1.5214,-2.5734,-1.9173,0.1855,1.0712
0.6519,-0.2071,0.5821,0.0462,-1.1324,-0.0293,-1.9537,0.0473,-0.3509,-2.2803,-1.483,-2.0163,-2.3371,-2.2919,0.0159,-0.7951,-1.3459,-0.4048,-1.4684,-1.3534,-1.8843,-1.8006,-1.7888,-2.7894,-2.027,-1.5418,-2.5628,-1.9466,0.2225,1.1811
0.5621,-0.1738,0.7147,0.0163,-1.0516,0.1239,-2.0006,0.0985,-0.4276,-2.3682,-1.5994,-2.0432,-2.2267,-2.1756,0.2054,-0.7823,-1.2634,-0.3011,-1.433,-1.3002,-1.773,-1.7725,-1.8074,-2.6726,-2.0087,-1.5224,-2.5003,-1.9898,0.2606,1.2389
0.5038,-0.2064,0.7354,-0.0488,-0.976,0.2584,-2.041,0.083,-0.5903,-2.4451,-1.755,-2.1204,-2.0675,-2.0131,0.4699,-0.7618,-1.1382,-0.1552,-1.3016,-1.2244,-1.6314,-1.6791,-1.7356,-2.4738,-1.9403,-1.4749,-2.3918,-2.0522,0.294,1.2438
0.5067,-0.3213,0.6477,-0.154,-0.9208,0.3471,-2.0917,-0.0206,-0.8343,-2.5259,-1.9533,-2.2571,-1.8878,-1.8307,0.7809,-0.7467,-1.0015,0.0119,-1.105,-1.1414,-1.4846,-1.5412,-1.5861,-2.2173,-1.8273,-1.4091,-2.2435,-2.1334,0.3141,1.2027
0.5801,-0.5178,0.4754,-0.2984,-0.8953,0.3696,-2.1652,-0.2193,-1.1421,-2.6212,-2.1914,-2.4554,-1.7148,-1.6548,1.0985,-0.752,-0.8862,0.1743,-0.886,-1.0694,-1.3568,-1.3856,-1.3824,-1.9323,-1.6792,-1.3327,-2.0639,-2.2297,0.3111,1.1281
0.7098,-0.7767,0.2563,-0.4741,-0.9006,0.3179,-2.2651,-0.5007,-1.4842,-2.7328,-2.4588,-2.7088,-1.57,-1.5068,1.3781,-0.791,-0.8185,0.3061,-0.689,-1.0254,-1.2673,-1.2397,-1.1559,-1.6492,-1.5091,-1.2498,-1.8636,-2.334,0.2766,1.0354
0.8612,-1.0637,0.0335,-0.6666,-0.9287,0.1988,-2.3827,-0.8313,-1.8214,-2.8515,-2.7369,-3.0013,-1.4657,-1.3996,1.5781,-0.8704,-0.8113,0.3855,-0.5507,-1.0203,-1.2254,-1.1263,-0.9405,-1.395,-1.332,-1.1609,-1.6533,-2.4356,0.2062,0.939
0.991,-1.3379,-0.1555,-0.8564,-0.964,0.0336,-2.4973,-1.1611,-2.1088,-2.957,-3,-3.3082,-1.4038,-1.3349,1.6671,-0.9869,-0.8621,0.3971,-0.4917,-1.0557,-1.2285,-1.0582,-0.7677,-1.1884,-1.1625,-1.0618,-1.4417,-2.5202,0.1003,0.8493
1.0613,-1.5628,-0.2876,-1.023,-0.9882,-0.1477,-2.5804,-1.4327,-2.3016,-3.0215,-3.2181,-3.599,-1.3769,-1.3046,1.6285,-1.1283,-0.9556,0.3321,-0.5143,-1.1239,-1.2637,-1.0371,-0.6628,-1.0379,-1.0129,-0.9448,-1.2326,-2.5704,-0.0374,0.7691
1.0498,-1.715,-0.3606,-1.1511,-0.9861,-0.3138,-2.6025,-1.5932,-2.3619,-3.0158,-3.3615,-3.8411,-1.3724,-1.2953,1.4605,-1.2777,-1.071,0.1868,-0.6061,-1.2118,-1.3129,-1.0561,-0.6434,-0.9414,-0.892,-0.7999,-1.0245,-2.5674,-0.202,0.692
0.9535,-1.7899,-0.3939,-1.2358,-0.9517,-0.4411,-2.541,-1.6052,-2.2645,-2.9156,-3.4052,-4.0055,-1.378,-1.2938,1.1751,-1.4203,-1.1912,-0.0393,-0.7473,-1.3064,-1.3596,-1.105,-0.7188,-0.8895,-0.8047,-0.6181,-0.8119,-2.4948,-0.3911,0.6032
0.7839,-1.8013,-0.4247,-1.2855,-0.8911,-0.5195,-2.387,-1.4541,-2.0021,-2.7086,-3.3336,-4.0714,-1.3856,-1.2938,0.7939,-1.5509,-1.3097,-0.3438,-0.9205,-1.4019,-1.3966,-1.1772,-0.8912,-0.8701,-0.7529,-0.3953,-0.5897,-2.3428,-0.6056,0.4812
0.5582,-1.7786,-0.4997,-1.3226,-0.8231,-0.5539,-2.1482,-1.1509,-1.5867,-2.3971,-3.1428,-4.0285,-1.3946,-1.2987,0.3456,-1.6778,-1.4344,-0.7214,-1.117,-1.5036,-1.4296,-1.2745,-1.1561,-0.8729,-0.7363,-0.1364,-0.3571,-2.1123,-0.8506,0.3029
0.2908,-1.7598,-0.6631,-1.3782,-0.7742,-0.5626,-1.8479,-0.7304,-1.0497,-1.9981,-2.8405,-3.8782,-1.4108,-1.3211,-0.1387,-1.8218,-1.585,-1.1618,-1.3394,-1.628,-1.4774,-1.4076,-1.5031,-0.8921,-0.7514,0.1441,-0.1213,-1.8165,-1.1325,0.0489
-0.0105,-1.783,-0.9446,-1.4857,-0.7726,-0.5713,-1.5189,-0.246,-0.4379,-1.5394,-2.4437,-3.631,-1.4415,-1.3782,-0.6277,-2.0101,-1.785,-1.6476,-1.5981,-1.7978,-1.5659,-1.5914,-1.9146,-0.925,-0.7907,0.4241,0.1047,-1.4782,-1.4554,-0.2897
-0.3432,-1.8771,-1.3487,-1.6695,-0.8389,-0.6049,-1.1946,0.238,0.1904,-1.0526,-1.9753,-3.3028,-1.4887,-1.4828,-1.0924,-2.2651,-2.0512,-2.1523,-1.903,-2.0326,-1.7172,-1.8364,-2.3642,-0.9673,-0.8407,0.6808,0.3066,-1.1245,-1.8148,-0.7053
-0.7023,-2.0527,-1.8476,-1.936,-0.9771,-0.6781,-0.9001,0.6557,0.7712,-0.5662,-1.4593,-2.9109,-1.5422,-1.6341,-1.505,-2.5921,-2.3823,-2.6402,-2.2532,-2.3373,-1.938,-2.1378,-2.8156,-1.0077,-0.8811,0.8971,0.4775,-0.7787,-2.1927,-1.1704
-1.0726,-2.296,-2.3824,-2.2646,-1.1674,-0.7869,-0.6442,0.9485,1.2419,-0.0995,-0.918,-2.4695,-1.5754,-1.8106,-1.8373,-2.9697,-2.7532,-3.0673,-2.6286,-2.6931,-2.2099,-2.4684,-3.2226,-1.0237,-0.887,1.0681,0.6236,-0.4541,-2.5549,-1.638
-1.4213,-2.5672,-2.8704,-2.6062,-1.3645,-0.9042,-0.4165,1.0732,1.5488,0.3402,-0.3695,-1.9874,-1.5466,-1.9678,-2.0589,-3.3463,-3.1136,-3.3858,-2.9853,-3.0519,-2.4846,-2.7756,-3.5314,-0.9822,-0.8327,1.2022,0.7661,-0.1506,-2.8516,-2.0467
-1.6969,-2.8047,-3.2188,-2.8873,-1.5015,-0.9818,-0.1904,1.0082,1.6544,0.7566,0.1731,-1.4676,-1.4046,-2.0426,-2.1382,-3.6442,-3.3942,-3.5493,-3.2593,-3.3389,-2.6885,-2.9871,-3.6865,-0.8449,-0.6973,1.3183,0.9377,0.1439,-3.0247,-2.3305
-1.8348,-2.9336,-3.3404,-3.0202,-1.5011,-0.958,0.07,0.7558,1.5427,1.159,0.6999,-0.9103,-1.099,-1.9643,-2.0465,-3.771,-3.5176,-3.5179,-3.3761,-3.4631,-2.7341,-3.0228,-3.6381,-0.5772,-0.4707,1.4389,1.1729,0.4476,-3.0166,-2.4289
-1.7687,-2.8766,-3.1689,-2.9183,-1.2896,-0.7701,0.398,0.3417,1.2196,1.5551,1.2018,-0.3175,-0.5925,-1.6684,-1.7643,-3.636,-3.4117,-3.2638,-3.2637,-3.3324,-2.5366,-2.8107,-3.3506,-0.1581,-0.1582,1.5812,1.496,0.7762,-2.7816,-2.2969
-1.4451,-2.566,-2.6698,-2.5121,-0.8117,-0.3677,0.8135,-0.1906,0.7104,1.9436,1.6658,0.301,0.128,-1.1119,-1.2865,-3.1676,-3.0231,-2.7738,-2.8672,-2.8724,-2.0319,-2.3028,-2.81,0.4112,0.2178,1.7492,1.9102,1.1335,-2.2944,-1.9113
-0.8362,-1.9553,-1.8451,-1.7641,-0.0434,0.2757,1.3149,-0.7881,0.054,2.3096,2.0734,0.9237,1.0439,-0.2848,-0.6248,-2.3289,-2.3268,-2.0523,-2.1602,-2.0429,-1.1916,-1.4865,-2.0281,1.1038,0.6188,1.9297,2.3916,1.5068,-1.5556,-1.2734
0.0512,-1.0294,-0.7322,-0.6789,1.0007,1.1551,1.8752,-1.3967,-0.7032,2.6244,2.4004,1.5166,2.1039,0.7836,0.1928,-1.1283,-1.3329,-1.1224,-1.1525,-0.8492,-0.032,-0.3911,-1.0437,1.8679,0.9945,2.092,2.8896,1.8655,-0.5927,-0.409
1.1729,0.1864,0.6016,0.692,2.2658,2.2318,2.4452,-1.9699,-1.5137,2.8501,2.6195,2.0363,3.2276,2.0254,1.1269,0.3764,-0.0888,-0.0265,0.1078,0.6532,1.3847,0.9142,0.0799,2.6332,1.2895,2.1933,3.3351,2.1658,0.5435,0.634
2.4505,1.6234,2.0657,2.2532,3.6613,3.4353,2.9606,-2.474,-2.334,2.9452,2.7042,2.4357,4.3152,3.3414,2.1309,2.0831,1.3246,1.1749,1.5366,2.3635,2.9571,2.3279,1.2615,3.3213,1.4513,2.1868,3.6527,2.3584,1.7833,1.7899
3.7801,3.1731,3.5548,3.876,5.0711,4.6717,3.3522,-2.8906,-3.1283,2.8731,2.6328,2.6699,5.2611,4.6143,3.1553,3.8575,2.8012,2.4065,3.0234,4.148,4.5576,3.7297,2.4106,3.8574,1.439,2.0325,3.7753,2.3974,3.0456,2.981
5.047,4.6994,4.9579,5.4155,6.3687,5.8341,3.5575,-3.2161,-3.8702,2.6081,2.392,2.7036,5.9681,5.7243,4.1499,5.5518,4.2223,3.5843,4.4437,5.8576,6.0492,4.997,3.4375,4.1822,1.2311,1.7074,3.6565,2.2502,4.2452,4.1248
6.1425,6.0593,6.1697,6.7307,7.4332,6.8167,3.5318,-3.4579,-4.5416,2.1413,1.9797,2.5159,6.3609,6.5661,5.0643,7.0252,5.4708,4.6246,5.675,7.3488,7.3045,6.0212,4.2642,4.261,0.8312,1.2132,3.2804,1.9047,5.3002,5.1418
6.9812,7.1264,7.1028,7.7061,8.1667,7.5277,3.2565,-3.6303,-5.1306,1.4839,1.4074,2.1049,6.3974,7.0637,5.8493,8.1617,6.4452,5.4553,6.6125,8.5016,8.2211,6.7228,4.8332,4.0895,0.2702,0.5799,2.6652,1.3741,6.1408,5.9641
7.514,7.812,7.6979,8.2673,8.5069,7.9017,2.7424,-3.7482,-5.6284,0.6685,0.7017,1.4894,6.0741,7.18,6.4603,8.8839,7.0709,6.0254,7.1827,9.234,8.7336,7.0597,5.1138,3.6939,-0.3963,-0.1359,1.8618,0.6969,6.7161,6.5422
7.7343,8.0769,7.9302,8.3887,8.4344,7.9077,2.0298,-3.823,-6.0248,-0.2529,-0.0967,0.7083,5.4257,6.9203,6.8616,9.1583,7.3081,6.3115,7.3523,9.5092,8.8189,7.0313,5.1047,3.1254,-1.0946,-0.8591,0.946,-0.0682,7.0003,6.8501
7.6751,7.9316,7.8078,8.0923,7.9733,7.5528,1.1818,-3.8591,-6.3068,-1.2135,-0.935,-0.1836,4.5196,6.3281,7.032,8.9949,7.1564,6.32,7.1318,9.3356,8.4947,6.6748,4.8321,2.4518,-1.7437,-1.5073,0.0076,-0.8509,6.9953,6.887
7.3977,7.4262,7.367,7.4384,7.1849,6.8806,0.2759,-3.854,-6.4568,-2.1392,-1.7537,-1.1214,3.4444,5.4762,6.9682,8.4412,6.6539,6.0842,6.5723,8.7609,7.8127,6.0576,4.3456,1.7458,-2.2683,-2.005,-0.8634,-1.5805,6.7293,6.676
6.9762,6.6341,6.6645,6.5125,6.157,5.9647,-0.6073,-3.8011,-6.4554,-2.9573,-2.4934,-2.0378,2.2968,4.4539,6.686,7.5733,5.8717,5.658,5.7571,7.8627,6.849,5.2652,3.7102,1.0747,-2.6103,-2.2963,-1.5895,-2.1962,6.2527,6.2605
6.4808,5.6375,5.7704,5.4104,4.9903,4.8976,-1.3949,-3.6935,-6.2856,-3.606,-3.1027,-2.8716,1.168,3.3528,6.2166,6.4845,4.9034,5.1075,4.7874,6.7352,5.6922,4.3876,2.9964,0.4919,-2.7383,-2.3545,-2.1159,-2.6561,5.6292,5.6981
5.9648,4.5152,4.7626,4.2247,3.7833,3.7776,-2.0305,-3.529,-5.9395,-4.0413,-3.545,-3.5752,0.1325,2.2555,5.6026,5.2728,3.85,4.5,3.7661,5.4768,4.4323,3.5058,2.2706,0.0316,-2.6516,-2.1869,-2.4168,-2.9419,4.9266,5.0522
5.4585,3.3364,3.7209,3.0337,2.6196,2.6945,-2.4802,-3.3128,-5.4254,-4.2425,-3.8043,-4.1195,-0.7592,1.2264,4.8926,4.0288,2.8044,3.8945,2.7808,4.1776,3.1505,2.6812,1.5859,-0.2929,-2.3784,-1.8332,-2.4956,-3.0591,4.2082,4.3839
4.9712,2.159,2.721,1.895,1.5585,1.7187,-2.7345,-3.0577,-4.7729,-4.2128,-3.8856,-4.4955,-1.4828,0.3078,4.1379,2.8253,1.8376,3.334,1.892,2.9098,1.9122,1.9498,0.9764,-0.4874,-1.9694,-1.3576,-2.3814,-3.0334,3.5266,3.744
4.4985,1.0302,1.8272,0.8431,0.6321,0.8934,-2.8052,-2.7821,-4.0335,-3.9768,-3.8125,-4.7112,-2.0373,-0.4796,3.3905,1.7122,0.9905,2.8424,1.1271,1.7236,0.7638,1.3215,0.4566,-0.572,-1.4863,-0.8347,-2.1198,-2.9027,2.9206,3.1674
4.0323,-0.0109,1.0858,-0.1069,-0.1523,0.2343,-2.7202,-2.5066,-3.2748,-3.5746,-3.6207,-4.7856,-2.4385,-1.1326,2.7001,0.7156,0.2729,2.4255,0.4827,0.6467,-0.2676,0.7865,0.0244,-0.5743,-0.9911,-0.3338,-1.7624,-2.7074,2.4156,2.6718
3.5698,-0.9308,0.5214,-0.9524,-0.8045,-0.2664,-2.5156,-2.2506,-2.5689,-3.0541,-3.3501,-4.7415,-2.7103,-1.6591,2.1115,-0.1561,-0.3291,2.0769,-0.0657,-0.3109,-1.1695,0.3242,-0.3315,-0.5227,-0.5347,0.0954,-1.3566,-2.4814,2.026,2.2601
3.118,-1.6995,0.1374,-1.6952,-1.342,-0.6313,-2.228,-2.03,-1.979,-2.4637,-3.0365,-4.5989,-2.8761,-2.0713,1.6596,-0.9047,-0.8413,1.7856,-0.5492,-1.1495,-1.9393,-0.0855,-0.6239,-0.4394,-0.1509,0.4321,-0.9375,-2.2458,1.7584,1.9266
2.6953,-2.2913,-0.0801,-2.3341,-1.7809,-0.8884,-1.8892,-1.8561,-1.5468,-1.8462,-2.7065,-4.3719,-2.9519,-2.3797,1.3655,-1.5332,-1.2865,1.5437,-0.9909,-1.8727,-2.5776,-0.4542,-0.8591,-0.3369,0.1467,0.6843,-0.5242,-2.0072,1.6144,1.6642
2.3286,-2.6867,-0.1559,-2.8614,-2.1305,-1.0616,-1.5224,-1.7353,-1.2861,-1.2351,-2.375,-4.0686,-2.9436,-2.59,1.2329,-2.0399,-1.6736,1.3512,-1.3954,-2.4807,-3.0844,-0.7794,-1.033,-0.2164,0.3626,0.8819,-0.1209,-1.7594,1.5916,1.4699
2.0493,-2.8768,-0.1193,-3.2637,-2.3911,-1.1664,-1.1415,-1.6687,-1.1823,-0.653,-2.0469,-3.695,-2.8474,-2.7015,1.2482,-2.4167,-1.9921,1.2179,-1.7449,-2.9687,-3.4571,-1.0451,-1.1313,-0.0692,0.514,1.0628,0.2789,-1.4902,1.6841,1.3474
1.8863,-2.8679,0.0024,-3.5268,-2.5566,-1.2094,-0.7526,-1.6522,-1.1982,-0.112,-1.7207,-3.2591,-2.6535,-2.7088,1.3825,-2.652,-2.2151,1.1611,-2.0043,-3.3275,-3.6908,-1.2266,-1.1338,0.1191,0.6245,1.2587,0.6863,-1.1879,1.8816,1.3054
1.8595,-2.6839,0.1873,-3.6424,-2.6198,-1.1915,-0.3568,-1.6762,-1.2826,0.3844,-1.3926,-2.7751,-2.3521,-2.6055,1.5982,-2.736,-2.3088,1.201,-2.1329,-3.5478,-3.7816,-1.298,-1.0219,0.3629,0.7176,1.4849,1.1106,-0.8473,2.1693,1.3535
1.9729,-2.3659,0.4194,-3.6141,-2.5785,-1.113,0.0465,-1.7254,-1.3804,0.8393,-1.0595,-2.2638,-1.9387,-2.3893,1.8574,-2.6675,-2.2467,1.3541,-2.0986,-3.6258,-3.731,-1.2406,-0.7865,0.671,0.8113,1.7367,1.555,-0.4732,2.5286,1.4961
2.2123,-1.9675,0.6861,-3.4608,-2.4402,-0.9789,0.4557,-1.7805,-1.4431,1.2582,-0.7215,-1.752,-1.4198,-2.0659,2.1289,-2.46,-2.0226,1.6271,-1.8914,-3.5685,-3.5496,-1.0494,-0.434,1.0409,0.9144,1.9924,2.0135,-0.0811,2.9373,1.7278
2.5457,-1.5474,0.9757,-3.2157,-2.2246,-0.8015,0.8644,-1.8209,-1.4375,1.6451,-0.3831,-1.2689,-0.8158,-1.6537,2.3942,-2.1443,-1.6577,2.0111,-1.5305,-3.3967,-3.2608,-0.7377,0.0115,1.4568,1.0256,2.2211,2.4695,0.3048,3.3712,2.0311
2.928,-1.1612,1.2741,-2.9225,-1.9627,-0.6015,1.2599,-1.8282,-1.3509,1.9992,-0.053,-0.8423,-0.1609,-1.1837,2.6477,-1.767,-1.2009,2.479,-1.0633,-3.1458,-2.9006,-0.3378,0.5092,1.8903,1.1342,2.3916,2.8975,0.6548,3.8041,2.3769
3.308,-0.8542,1.5647,-2.6292,-1.6932,-0.4049,1.6238,-1.7891,-1.1925,2.3133,0.256,-0.4949,0.4983,-0.698,2.8943,-1.3856,-0.7202,2.986,-0.5569,-2.8622,-2.5158,0.1027,1.007,2.3036,1.2236,2.4795,3.2669,0.9384,4.208,2.7285
3.6376,-0.6554,1.828,-2.3808,-1.4565,-0.239,1.9339,-1.6977,-0.9892,2.5743,0.5281,-0.2421,1.1083,-0.2446,3.1426,-1.059,-0.289,3.4745,-0.0849,-2.5969,-2.1582,0.5267,1.4487,2.6556,1.2749,2.4713,3.5456,1.1279,4.5547,3.047
3.8788,-0.5758,2.043,-2.2139,-1.2895,-0.1286,2.1681,-1.556,-0.7778,2.7663,0.747,-0.0907,1.6151,0.1284,3.3969,-0.8373,0.0283,3.884,0.2872,-2.3981,-1.8781,0.8767,1.7826,2.9079,1.2715,2.365,3.7064,1.2023,4.8176,3.2973
4.0096,-0.6078,2.1892,-2.152,-1.2198,-0.0923,2.3081,-1.3729,-0.5948,2.8752,0.8985,-0.0387,1.972,0.3799,3.6494,-0.7529,0.1884,4.1617,0.5135,-2.3033,-1.7168,1.1037,1.969,3.0305,1.2033,2.1691,3.7312,1.1514,4.9745,3.4534
4.0254,-0.7296,2.2485,-2.2042,-1.2624,-0.1408,2.3431,-1.1623,-0.4672,2.8936,0.9744,-0.0755,2.1471,0.4817,3.8758,-0.8159,0.1757,4.2724,0.574,-2.3337,-1.7005,1.1757,1.9863,3.0072,1.0697,1.9014,3.6155,0.9787,5.0109,3.5017
3.9386,-0.9113,2.2085,-2.3639,-1.4173,-0.2746,2.2729,-0.9401,-0.4057,2.8255,0.9755,-0.1819,2.1297,0.4237,4.0382,-1.0131,0.0025,4.2041,0.4746,-2.4914,-1.836,1.0824,1.8337,2.8395,0.8814,1.5884,3.3713,0.7046,4.9222,3.442
3.775,-1.1225,2.0651,-2.6104,-1.6685,-0.4828,2.1091,-0.7227,-0.4023,2.6874,0.913,-0.332,1.9335,0.2158,4.0934,-1.3132,-0.2966,3.9694,0.2423,-2.7591,-2.1086,0.8374,1.5315,2.5489,0.6607,1.2647,3.0278,0.366,4.715,3.2865
3.5687,-1.3381,1.8259,-2.911,-1.9855,-0.7423,1.8761,-0.5247,-0.4334,2.5078,0.8085,-0.4946,1.5964,-0.1114,4.0068,-1.6734,-0.6743,3.6013,-0.0829,-3.1032,-2.4833,0.4753,1.1179,2.1763,0.4384,0.9713,2.6292,0.0139,4.4078,3.0567
3.3545,-1.5412,1.5115,-3.226,-2.3277,-1.0207,1.6087,-0.3569,-0.4661,2.3238,0.6925,-0.6361,1.177,-0.5104,3.7647,-2.0491,-1.0812,3.1463,-0.4565,-3.4798,-2.9095,0.0457,0.6429,1.778,0.2494,0.7509,2.2313,-0.2937,4.0276,2.7788
3.1621,-1.722,1.1555,-3.5155,-2.6506,-1.2814,1.3496,-0.2245,-0.4664,2.1771,0.6011,-0.7226,0.7474,-0.9218,3.3806,-2.4007,-1.4748,2.6541,-0.8374,-3.842,-3.3277,-0.3956,0.1603,1.4198,0.1275,0.6431,1.8957,-0.4999,3.6069,2.4783
3.0114,-1.8754,0.8003,-3.7454,-2.9128,-1.4899,1.145,-0.1253,-0.4071,2.1085,0.5729,-0.7219,0.3846,-1.2826,2.8957,-2.6996,-1.8252,2.1694,-1.1923,-4.1467,-3.6789,-0.7946,-0.28,1.1678,0.0997,0.6782,1.6841,-0.556,3.1782,2.1759
2.9101,-1.9973,0.49,-3.892,-3.0821,-1.6188,1.0394,-0.0492,-0.2732,2.1534,0.6439,-0.6056,0.1608,-1.5334,2.3717,-2.9302,-2.1157,1.7251,-1.497,-4.3609,-3.9123,-1.1063,-0.6391,1.0806,0.1844,0.8737,1.6525,-0.4281,2.7704,1.8843
2.8519,-2.0819,0.2604,-3.9442,-3.1388,-1.6525,1.069,0.0198,-0.0638,2.3366,0.8421,-0.3519,0.1344,-1.6269,1.8777,-3.0881,-2.3401,1.3395,-1.7352,-4.4641,-3.9929,-1.2987,-0.893,1.2004,0.3894,1.2317,1.8439,-0.1007,2.4046,1.6077
2.8166,-2.1215,0.1293,-3.9035,-3.0785,-1.5884,1.2554,0.0999,0.209,2.6682,1.1805,0.0493,0.3407,-1.5342,1.4763,-3.1779,-2.4994,1.0166,-1.8964,-4.4497,-3.9054,-1.355,-1.0338,1.5462,0.7121,1.7382,2.2814,0.4194,2.0919,1.3424
2.7732,-2.1098,0.0909,-3.7825,-2.9112,-1.4384,1.5997,0.2064,0.5234,3.1406,1.6514,0.5907,0.7858,-1.2507,1.2096,-3.2087,-2.5976,0.748,-1.9743,-4.3236,-3.6561,-1.2741,-1.0688,2.1091,1.1383,2.3635,2.9602,1.1022,1.8325,1.0793
2.6882,-2.0467,0.117,-3.6022,-2.6598,-1.2266,2.0801,0.3472,0.8518,3.7269,2.2245,1.2435,1.4438,-0.7968,1.0915,-3.1912,-2.6414,0.5176,-1.9666,-4.1015,-3.2714,-1.0698,-1.0175,2.8503,1.6415,3.0629,3.8427,1.895,1.6162,0.8077
2.5368,-1.9415,0.1653,-3.3878,-2.3556,-0.9863,2.6531,0.5196,1.1645,4.3823,2.8475,1.9562,2.2586,-0.2166,1.1063,-3.135,-2.6403,0.3073,-1.8771,-3.806,-2.7924,-0.7692,-0.9078,3.7042,2.1825,3.78,4.8579,2.7264,1.4261,0.5195
2.3129,-1.8136,0.1924,-3.164,-2.0332,-0.7535,3.2586,0.7099,1.4326,5.0479,3.4538,2.6592,3.1516,0.4295,1.2138,-3.0465,-2.6072,0.1022,-1.7166,-3.4615,-2.2688,-0.4088,-0.7715,4.5862,2.7116,4.4508,5.9079,3.5146,1.2425,0.2124
2.0341,-1.6866,0.1662,-2.9501,-1.7239,-0.5603,3.8289,0.896,1.6309,5.6576,3.9735,3.2753,4.0331,1.0738,1.3581,-2.9271,-2.5579,-0.1052,-1.5043,-3.0906,-1.7498,-0.0295,-0.6398,5.4038,3.1741,5.0113,6.88,4.1792,1.0472,-0.108
1.7399,-1.5806,0.0757,-2.7553,-1.4509,-0.4277,4.3003,1.0526,1.7411,6.1477,4.3459,3.7334,4.8161,1.6527,1.4787,-2.7728,-2.5078,-0.314,-1.2652,-2.709,-1.2764,0.3289,-0.5385,6.0705,3.5186,5.4053,7.6634,4.6535,0.8275,-0.429
1.4821,-1.504,-0.0667,-2.5771,-1.2246,-0.3601,4.6243,1.1586,1.7545,6.4677,4.5319,3.9822,5.4302,2.1174,1.5221,-2.5738,-2.4664,-0.5163,-1.026,-2.3227,-0.8739,0.6345,-0.4848,6.5188,3.7055,5.5926,8.1665,4.8948,0.5783,-0.7333
1.3124,-1.4484,-0.2294,-2.4016,-1.0407,-0.3439,4.7763,1.2035,1.6734,6.5888,4.5197,4.0003,5.8317,2.4413,1.4521,-2.3163,-2.4323,-0.7008,-0.809,-1.9274,-0.5487,0.8674,-0.4848,6.7102,3.7141,5.5533,8.3316,4.8897,0.3037,-1.0029
1.2665,-1.3897,-0.3694,-2.2069,-0.8817,-0.3495,4.7598,1.1914,1.5111,6.5101,4.3259,3.7994,6.0088,2.6237,1.2579,-1.9851,-2.3915,-0.8563,-0.6271,-1.5101,-0.2884,1.0225,-0.5336,6.6404,3.546,5.2903,8.1435,4.6535,0.0169,-1.222
1.3517,-1.2942,-0.4426,-1.9687,-0.7202,-0.3375,4.6047,1.1414,1.2908,6.2583,3.9892,3.4201,5.9799,2.6874,0.9578,-1.5689,-2.3199,-0.9754,-0.4812,-1.054,-0.066,1.1087,-0.6166,6.3381,3.2233,4.8269,7.6313,4.2251,-0.2616,-1.3801
1.5407,-1.1271,-0.4143,-1.6668,-0.5262,-0.2677,4.36,1.083,1.0418,5.8834,3.5624,2.9236,5.7879,2.6712,0.5965,-1.0641,-2.1901,-1.0553,-0.3617,-0.5452,0.152,1.1462,-0.7133,5.8591,2.7847,4.2047,6.863,3.659,-0.5065,-1.474
1.7746,-0.8618,-0.2671,-1.2912,-0.2747,-0.1082,4.0842,1.0488,0.7961,5.4499,3.1027,2.3807,5.49,2.6208,0.2357,-0.4787,-1.9793,-1.0976,-0.2517,0.0215,0.3969,1.1617,-0.8007,5.2761,2.2789,3.4789,5.9357,3.0185,-0.6933,-1.5093
1.9801,-0.4872,-0.005,-0.8451,0.0477,0.1562,3.8352,1.0666,0.5838,5.0274,2.6649,1.8617,5.1488,2.5793,-0.0619,0.1671,-1.6772,-1.1065,-0.132,0.6388,0.6909,1.1837,-0.8579,4.6686,1.7578,2.714,4.9626,2.3696,-0.803,-1.5002
2.0937,-0.0121,0.3478,-0.3461,0.4381,0.521,3.6618,1.1534,0.4307,4.681,2.2976,1.4297,4.8233,2.5805,-0.248,0.8431,-1.2895,-1.0871,0.0142,1.2863,1.0418,1.2379,-0.8685,4.1121,1.2702,1.9781,4.0588,1.7761,-0.8274,-1.4685
2.0853,0.534,0.7514,0.1773,0.8779,0.9622,3.5996,1.3142,0.357,4.4648,2.0413,1.1345,4.563,2.6449,-0.3013,1.5117,-0.8382,-1.0451,0.1974,1.933,1.4424,1.3431,-0.8234,3.6695,0.8561,1.3359,3.3276,1.2952,-0.7723,-1.4407
1.9696,1.1042,1.1579,0.6895,1.3358,1.4415,3.6683,1.5429,0.3775,4.417,1.9281,1.0102,4.4039,2.779,-0.2308,2.1331,-0.3592,-0.9879,0.4186,2.541,1.8717,1.5079,-0.722,3.385,0.5433,0.8423,2.8489,0.9724,-0.6571,-1.4438
1.7998,1.6412,1.5189,1.1531,1.7746,1.9143,3.8726,1.8278,0.502,4.5576,1.9808,1.0734,4.367,2.9766,-0.0713,2.6687,0.1017,-0.9266,0.6674,3.071,2.2993,1.7287,-0.5726,3.2796,0.3461,0.5362,2.6693,0.8373,-0.5122,-1.5012
1.6475,2.0876,1.7941,1.534,2.1587,2.3389,4.2035,2.1552,0.7346,4.8875,2.2107,1.3222,4.4576,3.2212,0.1276,3.0852,0.4953,-0.8765,0.9229,3.4871,2.6907,1.9904,-0.3906,3.3508,0.2658,0.4365,2.798,0.9003,-0.3732,-1.6288
1.577,2.3968,1.9586,1.8065,2.4615,2.6842,4.6408,2.5123,1.0724,5.3886,2.6136,1.7364,4.6663,3.4901,0.3153,3.3594,0.776,-0.8554,1.1563,3.763,3.0133,2.2689,-0.1953,3.5744,0.2937,0.5406,3.206,1.1502,-0.2733,-1.8321
1.6228,2.5444,2.0081,1.9583,2.6702,2.9356,5.1559,2.8879,1.5034,6.0249,3.1667,2.2785,4.9706,3.7582,0.4526,3.4829,0.911,-0.8787,1.3376,3.8872,3.2429,2.536,-0.0054,3.9088,0.4137,0.8245,3.8299,1.5548,-0.236,-2.1047
1.7761,2.5365,1.9609,1.9949,2.7891,3.0977,5.7147,3.2718,2.0047,6.7452,3.8272,2.8961,5.3377,4.0023,0.5202,3.4668,0.8889,-0.9534,1.4429,3.8682,3.3687,2.7656,0.1657,4.3026,0.6055,1.2449,4.5806,2.0629,-0.2688,-2.4274
1.9872,2.4123,1.856,1.9409,2.8377,3.1921,6.2802,3.6531,2.5432,7.488,4.5339,3.527,5.7291,4.2048,0.5222,3.3432,0.725,-1.0728,1.4623,3.7369,3.3963,2.9398,0.3137,4.702,0.8469,1.7443,5.3556,2.6105,-0.36,-2.7705
2.1808,2.238,1.7463,1.8375,2.8467,3.2527,6.8153,4.0188,3.0773,8.1871,5.2137,4.1059,6.1045,4.357,0.4823,3.1629,0.462,-1.2141,1.4049,3.5445,3.3475,3.0531,0.4435,5.0601,1.1164,2.2587,6.0531,3.1292,-0.4804,-3.0966
2.2822,2.0917,1.6875,1.734,2.8501,3.3161,7.285,4.3525,3.5613,8.7784,5.7905,4.5725,6.4277,4.4594,0.436,2.9855,0.1621,-1.3419,1.2977,3.3539,3.2558,3.1142,0.5678,5.3427,1.3937,2.7269,6.5858,3.5562,-0.5903,-3.3666
2.2446,2.0421,1.7264,1.6757,2.8769,3.4126,7.6578,4.6336,3.9502,9.206,6.1962,4.8781,6.6696,4.52,0.4193,2.8674,-0.1054,-1.4156,1.1806,3.2285,3.1595,3.1438,0.7021,5.5323,1.6618,3.1001,6.8924,3.8439,-0.6488,-3.5457
2.0699,2.1289,1.8903,1.6932,2.9448,3.5592,7.9083,4.8395,4.2055,9.4291,6.3802,4.9921,6.8114,4.5519,0.4586,2.8484,-0.279,-1.3997,1.0969,3.2184,3.0934,3.1698,0.8595,5.6282,1.9071,3.3489,6.9434,3.9665,-0.6247,-3.6094
1.8141,2.3531,2.1826,1.796,3.0578,3.7571,8.0212,4.9495,4.3012,9.4269,6.3172,4.9046,6.8468,4.5701,0.5631,2.944,-0.3164,-1.2722,1.0844,3.3506,3.0837,3.2211,1.0478,5.6447,2.1204,3.4666,6.7439,3.9229,-0.5037,-3.5471
1.576,2.6807,2.5823,1.9741,3.2096,3.9949,7.9946,4.9507,4.2275,9.2026,6.0105,4.6267,6.7826,4.5898,0.7237,3.1449,-0.2,-1.0283,1.1687,3.6255,3.145,3.3223,1.2679,5.6067,2.2963,3.4671,6.3311,3.7352,-0.2908,-3.3619
1.4695,3.0575,3.0512,2.2054,3.3885,4.256,7.8426,4.8433,3.9942,8.7836,5.4911,4.1876,6.6391,4.6258,0.9175,3.4229,0.0631,-0.6804,1.36,4.0197,3.2818,3.4897,1.5162,5.5455,2.4331,3.3794,5.7672,3.442,-0.0066,-3.069
1.5907,3.4294,3.5431,2.4656,3.5842,4.5251,7.5956,4.6427,3.6296,8.2182,4.8127,3.6296,6.4477,4.6914,1.1185,3.7413,0.4457,-0.2534,1.6527,4.4929,3.4907,3.7294,1.7872,5.4929,2.5312,3.2387,5.1295,3.0904,0.3188,-2.6911
1.9881,3.7574,4.015,2.7351,3.7906,4.7933,7.2966,4.3783,3.1773,7.5692,4.0442,3.0023,6.2474,4.7984,1.3082,4.0637,0.9066,0.2207,2.0281,4.9985,3.7631,4.0378,2.0765,5.4767,2.5923,3.0777,4.4982,2.7269,0.6537,-2.2554
2.6457,4.0258,4.4361,3.0031,4.0065,5.0587,6.9948,4.0886,2.6906,6.9052,3.2611,2.3576,6.079,4.9558,1.4837,4.3617,1.398,0.7093,2.4568,5.4929,4.0872,4.4028,2.3815,5.5172,2.619,2.9217,3.9444,2.3916,0.9724,-1.7903
3.4831,4.2402,4.7915,3.2653,4.233,5.3242,6.7379,3.8147,2.2244,6.2929,2.5369,1.746,5.98,5.1686,1.6591,4.6174,1.872,1.1841,2.9034,5.9416,4.4486,4.806,2.7015,5.625,2.6146,2.7867,3.5199,2.115,1.2599,-1.3243
4.3738,4.4186,5.0812,3.5209,4.4704,5.5927,6.5649,3.5924,1.8278,5.7896,1.936,1.213,5.978,5.4366,1.8606,4.8229,2.2867,1.6242,3.3303,6.3233,4.8306,5.2251,3.0357,5.8009,2.5845,2.6802,3.2518,1.9171,1.5124,-0.8842
5.1758,4.5792,5.3151,3.7667,4.7149,5.8631,6.4997,3.4458,1.5364,5.4373,1.5062,0.7952,6.0868,5.7527,2.1161,4.9774,2.6101,2.0177,3.7024,6.628,5.2146,5.6363,3.3808,6.0362,2.536,2.6031,3.1418,1.8069,1.7353,-0.4935
5.7687,4.73,5.5061,3.9944,4.9573,6.1276,6.548,3.3832,1.3674,5.2585,1.2745,0.5171,6.3034,6.1032,2.4446,5.0831,2.8229,2.3603,3.9914,6.8549,5.5809,6.0168,3.729,6.3141,2.4787,2.5522,3.1692,1.782,1.9388,-0.1702
6.0851,4.8632,5.664,4.1896,5.1835,6.3719,6.6975,3.3968,1.3185,5.2546,1.2438,0.3877,6.6078,6.4677,2.847,5.1424,2.9199,2.6541,4.1796,7.0087,5.9105,6.3476,4.0687,6.6121,2.4229,2.5214,3.2984,1.8306,2.1344,0.0764
6.1254,4.958,5.7926,4.3353,5.377,6.5786,6.9209,3.4654,1.3704,5.4055,1.3935,0.3998,6.966,6.8221,3.3035,5.1568,2.9102,2.905,4.2635,7.097,6.1875,6.6162,4.3851,6.9038,2.3782,2.504,3.4864,1.9337,2.3317,0.2483
5.9527,4.9896,5.8885,4.4174,5.5227,6.7324,7.1812,3.5606,1.4924,5.6727,1.6833,0.5302,7.3354,7.1412,3.777,5.1273,2.8166,3.1201,4.2542,7.1293,6.402,6.8182,4.6631,7.1627,2.3516,2.4935,3.6908,2.0684,2.5371,0.3585
5.6694,4.9413,5.945,4.4303,5.6111,6.8248,7.438,3.6533,1.65,6.0047,2.0591,0.7423,7.6714,7.403,4.2216,5.0565,2.6725,3.3058,4.1766,7.1168,6.5521,6.9572,4.8904,7.3645,2.3453,2.4838,3.8755,2.2107,2.7528,0.429
5.3853,4.8147,5.9574,4.3817,5.6417,6.8581,7.6548,3.7207,1.8114,6.3449,2.4615,0.9916,7.9346,7.5922,4.5932,4.9508,2.5185,3.4668,4.0656,7.0728,6.6443,7.0436,5.0597,7.4912,2.3565,2.4699,4.0141,2.3384,2.9762,0.4854
5.1894,4.6342,5.9299,4.2928,5.6251,6.8452,7.8049,3.7506,1.9546,6.6406,2.8351,1.2326,8.098,7.7044,4.8597,4.8229,2.3967,3.6073,3.9615,7.0143,6.6944,7.0924,5.171,7.5346,2.3789,2.4476,4.0922,2.4329,3.2006,0.5519
5.1319,4.4435,5.8782,4.1956,5.5822,6.807,7.8753,3.7435,2.0697,6.8512,3.1361,1.4264,8.1519,7.7476,5.0071,4.6926,2.3453,3.7332,3.9041,6.9618,6.7256,7.121,5.2331,7.4983,2.4056,2.4155,4.1079,2.4814,3.417,0.6463
5.221,4.2941,5.8274,4.1257,5.5408,6.7665,7.8672,3.7101,2.1582,6.9535,3.3379,1.5463,8.1043,7.7418,5.042,4.5848,2.3919,3.8539,3.9256,6.9374,6.7653,7.1464,5.2622,7.3987,2.4315,2.3748,4.0693,2.4781,3.6173,0.778
5.4292,4.2313,5.8055,4.1134,5.5276,6.7416,7.7928,3.6669,2.2284,6.942,3.4313,1.5805,7.978,7.7133,4.989,4.5238,2.5474,3.9822,4.0444,6.961,6.839,7.1828,5.2795,7.2609,2.4553,2.3299,3.9908,2.4237,3.7959,0.948
5.7074,4.28,5.8346,4.1745,5.5612,6.7387,7.6683,3.6286,2.2873,6.8244,3.4215,1.5303,7.8034,7.6882,4.8849,4.5271,2.8017,4.1323,4.2604,7.0445,6.9641,7.2385,5.3065,7.1134,2.4784,2.2872,3.8879,2.324,3.951,1.1496
5.9993,4.4368,5.9252,4.305,5.6446,6.7503,7.5078,3.6012,2.335,6.6155,3.3218,1.4058,7.6108,7.6853,4.7724,4.5987,3.1239,4.3156,4.5545,7.1875,7.145,7.3143,5.3609,6.9818,2.5034,2.2534,3.7734,2.1878,4.0846,1.3713
6.2542,4.6711,6.0737,4.482,5.7651,6.7565,7.3186,3.5777,2.3595,6.3307,3.1482,1.2217,7.4243,7.7119,4.6931,4.727,3.4671,4.5375,4.8919,7.3759,7.3709,7.4048,5.4532,6.8849,2.5326,2.2339,3.6556,2.0262,4.2007,1.5985
6.4359,4.935,6.2635,4.6698,5.8976,6.7329,7.1013,3.5379,2.3385,5.9833,2.9151,0.9939,7.2591,7.764,4.6823,4.8874,3.7791,4.7949,5.2301,7.5855,7.62,7.5014,5.5855,6.8326,2.5669,2.232,3.5397,1.8518,4.3044,1.8165
6.5266,5.1787,6.4687,4.8312,6.0134,6.6589,6.8525,3.4528,2.2453,5.5848,2.6343,0.7387,7.1226,7.8312,4.7637,5.0489,4.0157,5.0775,5.529,7.7886,7.8653,7.597,5.7529,6.8276,2.6065,2.2492,3.4312,1.6794,4.4011,2.0131
6.5273,5.3645,6.66,4.9376,6.0894,6.5266,6.5716,3.2943,2.0584,5.1485,2.3172,0.4734,7.0181,7.9025,4.9444,5.183,4.1525,5.3712,5.7604,7.9615,8.0835,7.6899,5.9456,6.8678,2.6522,2.2855,3.3389,1.5255,4.496,2.181
6.4554,5.4759,6.8103,4.9772,6.115,6.3444,6.2659,3.0453,1.771,4.6934,1.9779,0.2172,6.9483,7.9719,5.2125,5.2715,4.1926,5.6623,5.9146,8.0913,8.2612,7.7858,6.1515,6.9489,2.7058,2.3418,3.2768,1.4087,4.5951,2.3198
6.3407,5.5192,6.9016,4.957,6.095,6.1352,5.9542,2.7093,1.3969,4.2468,1.6355,-0.0083,6.9184,8.041,5.5379,5.3109,4.1653,5.941,6.0018,8.1787,8.3984,7.8963,6.3593,7.0664,2.7712,2.4205,3.2623,1.347,4.7051,2.4352
6.2191,5.5186,6.9284,4.8997,6.0478,5.9303,5.6659,2.314,0.9708,3.8432,1.3151,-0.1817,6.9355,8.1185,5.879,5.3119,4.1178,6.2031,6.0496,8.2366,8.5075,8.0357,6.5607,7.2154,2.8531,2.526,3.3125,1.356,4.8344,2.538
6.1259,5.5072,6.8991,4.8381,6.001,5.7621,5.4367,1.9074,0.5412,3.5201,1.0444,-0.2845,7.0072,8.2166,6.1923,5.2965,4.1018,6.4487,6.0944,8.2864,8.6087,8.2158,6.7511,7.3905,2.9554,2.6625,3.4383,1.4439,4.991,2.6404
6.0889,5.5183,6.8327,4.8079,5.984,5.6569,5.3,1.5468,0.1611,3.3112,0.8493,-0.3063,7.137,8.3465,6.4435,5.291,4.1596,6.6784,6.1718,8.3518,8.7243,8.4408,6.9292,7.5845,3.0778,2.8302,3.6394,1.6081,5.1811,2.7524
6.124,5.5763,6.754,4.8393,6.0217,5.6306,5.279,1.2844,-0.1243,3.2384,0.7479,-0.2482,7.3216,8.5132,6.6153,5.3196,4.3129,6.8897,6.3058,8.4524,8.8712,8.7038,7.0953,7.787,3.2135,3.0214,3.9013,1.8318,5.4046,2.8792
6.2332,5.6901,6.6879,4.9512,6.1281,5.6873,5.3799,1.1536,-0.2857,3.306,0.7465,-0.1238,7.5489,8.7124,6.7099,5.3979,4.558,7.0745,6.5017,8.5991,9.0564,8.9856,7.249,7.9845,3.3476,3.2188,4.1962,2.0853,5.6533,3.0192
6.406,5.8506,6.6548,5.1459,6.3036,5.8194,5.5898,1.1606,-0.3153,3.4993,0.8376,0.043,7.7998,8.9311,6.7463,5.5296,4.8679,7.2188,6.7448,8.7915,9.2751,9.2578,7.3871,8.1615,3.4591,3.3964,4.4882,2.3304,5.9098,3.1639
6.6216,6.0332,6.6682,5.4092,6.535,6.0091,5.8794,1.2843,-0.2263,3.7869,1.0028,0.2239,8.0527,9.1502,6.7528,5.7066,5.2003,7.3062,7.0051,9.0193,9.5124,9.4891,7.504,8.3033,3.5245,3.5239,4.7403,2.5288,6.1501,3.2997
6.8514,6.2059,6.7328,5.7129,6.7986,6.2315,6.2089,1.4833,-0.0482,4.1274,1.216,0.3924,8.2891,9.3509,6.7585,5.9125,5.5083,7.3229,7.247,9.2654,9.7487,9.6533,7.5937,8.3997,3.5243,3.5735,4.9234,2.6494,6.3482,3.411
7.0622,6.3396,6.8448,6.0222,7.0659,6.4572,6.5364,1.7072,0.1801,4.4778,1.4496,0.5299,8.4982,9.5195,6.7853,6.1274,5.753,7.2635,7.4397,9.5119,9.9657,9.7373,7.6525,8.4476,3.4494,3.5267,5.0227,2.6759,6.4822,3.4842
7.2202,6.4179,6.9923,6.3035,7.309,6.6569,6.8256,1.9092,0.4189,4.8008,1.6793,0.6292,8.6788,9.6515,6.8415,6.3335,5.9131,7.1349,7.5667,9.7435,10.1507,9.745,7.6828,8.4534,3.3045,3.3804,5.0414,2.6098,6.5392,3.5111
7.297,6.4418,7.1571,6.5317,7.5058,6.806,7.0513,2.056,0.6358,5.0708,1.8879,0.6955,8.8375,9.7515,6.9202,6.5187,5.9898,6.9566,7.6296,9.9511,10.2987,9.6966,7.6931,8.431,3.1095,3.1503,4.9991,2.4708,6.5191,3.4918
7.2753,6.4284,7.317,6.694,7.6417,6.8891,7.201,2.1331,0.8113,5.2757,2.0674,0.7433,8.9837,9.8295,7.0015,6.6772,6.0052,6.7566,7.647,10.1307,10.4109,9.6234,7.6974,8.3989,2.8956,2.8695,4.9261,2.2922,6.4344,3.4348
7.1533,6.4031,7.4488,6.7899,7.7101,6.9015,7.2741,2.1449,0.9395,5.4141,2.2169,0.7902,9.1222,9.8939,7.0583,6.8077,5.9941,6.565,7.6457,10.2813,10.4902,9.5575,7.7099,8.3741,2.6983,2.5824,4.8531,2.1125,6.3074,3.355
6.9448,6.3877,7.5307,6.8275,7.7098,6.8491,7.2767,2.1101,1.0251,5.4907,2.3385,0.8491,9.2475,9.9453,7.0654,6.9094,5.9911,6.4048,7.6507,10.4001,10.5368,9.5222,7.7407,8.3654,2.5485,2.3345,4.8017,1.9653,6.1633,3.269
6.6753,6.3905,7.5427,6.8185,7.6426,6.7448,7.217,2.054,1.0766,5.51,2.4318,0.9222,9.3407,9.9724,7.0065,6.9782,6.0174,6.2842,7.6738,10.4802,10.544,9.5232,7.7906,8.3691,2.4653,2.1621,4.7774,1.8701,6.0233,3.1891
6.3731,6.4013,7.4683,6.7734,7.511,6.6039,7.1016,2.0005,1.1007,5.4723,2.4914,0.9982,9.3719,9.9532,6.8786,7.0055,6.0726,6.1939,7.7086,10.5095,10.4991,9.5464,7.8488,8.3687,2.4522,2.0853,4.7694,1.8289,5.8977,3.1185
6.0623,6.3947,7.2955,6.6997,7.3192,6.441,6.9341,1.9663,1.0983,5.3729,2.5065,1.0557,9.3079,9.8615,6.6907,6.9807,6.1349,6.1093,7.7317,10.4752,10.3872,9.5619,7.8948,8.3396,2.4975,2.106,4.7563,1.8278,5.7828,3.0493
5.7591,6.3423,7.0223,6.6036,7.0759,6.2692,6.7173,1.958,1.0659,5.2061,2.465,1.0701,9.1232,9.6771,6.4587,6.8983,6.1702,5.9988,7.7122,10.3709,10.1994,9.5341,7.9031,8.2575,2.5787,2.2105,4.7168,1.845,5.6628,2.9642
5.4739,6.2272,6.6615,6.4942,6.7979,6.102,6.4566,1.9733,0.9977,4.9706,2.3587,1.0231,8.8113,9.3956,6.1995,6.7647,6.1465,5.8348,7.6241,10.2042,9.9408,9.4337,7.8511,8.1075,2.6688,2.3746,4.6397,1.858,5.5158,2.8432
5.2171,6.0563,6.2454,6.3876,6.512,5.9554,6.164,2.0047,0.8906,4.6742,2.1883,0.9093,8.3913,9.0351,5.9273,6.6033,6.0479,5.6038,7.4583,10.0011,9.636,9.2491,7.727,7.8912,2.7428,2.5691,4.53,1.8502,5.3232,2.6717
5.0026,5.8632,5.8236,6.3073,6.2533,5.8474,5.8593,2.0443,0.7468,4.3373,1.9663,0.7398,7.9085,8.6359,5.653,6.453,5.883,5.3114,7.2298,9.8046,9.3281,8.9917,7.5348,7.6292,2.7825,2.7647,4.4086,1.8142,5.0775,2.4478
4.8481,5.7009,5.4549,6.2806,6.0591,5.7948,5.569,2.0874,0.5759,3.9905,1.7161,0.54,7.4271,8.2544,5.3867,6.3612,5.6847,4.9815,6.9762,9.6668,9.0713,8.6956,7.2959,7.3567,2.7794,2.9363,4.307,1.7514,4.7872,2.1847
4.7724,5.6269,5.1947,6.3316,5.9611,5.8078,5.3226,2.1337,0.3949,3.6712,1.4686,0.3441,7.0184,7.9515,5.1408,6.3723,5.5013,4.6505,6.7502,9.6366,8.9199,8.4108,7.0455,7.1169,2.7355,3.0668,4.2582,1.6709,4.4772,1.9084
4.7903,5.686,5.082,6.4746,5.9789,5.8868,5.1479,2.1884,0.2257,3.4167,1.2569,0.188,6.746,7.7799,4.9318,6.5173,5.3842,4.3593,6.6077,9.7486,8.9153,8.1926,6.8264,6.9502,2.6618,3.1484,4.2863,1.5865,4.1842,1.6521
4.9095,5.8976,5.1311,6.711,6.1168,6.0222,5.0659,2.2593,0.0928,3.2579,1.1105,0.1005,6.6529,7.7726,4.7808,6.8058,5.3741,4.1451,6.5945,10.0151,9.0775,8.0902,6.6803,6.8856,2.5742,3.1832,4.3996,1.5134,3.9502,1.449
5.1284,6.2508,5.3293,7.0299,6.3639,6.1988,5.0878,2.3545,0.0176,3.2138,1.0499,0.0973,6.7528,7.9364,4.7108,7.2251,5.4917,4.0351,6.7369,10.4248,9.401,8.136,6.6399,6.9337,2.4895,3.1801,4.5876,1.4633,3.8141,1.3247
5.4343,6.7084,5.6423,7.4116,6.6987,6.4012,5.2123,2.4782,0.0144,3.2878,1.0825,0.1773,7.0274,8.2506,4.7427,7.7437,5.7337,4.0426,7.0358,10.9466,9.8564,8.3389,6.7225,7.0842,2.4203,3.1512,4.8222,1.4413,3.8043,1.2927
5.8037,7.2178,6.0237,7.8323,7.0924,6.6172,5.4259,2.6273,0.0859,3.4666,1.2006,0.3223,7.4306,8.6715,4.8899,8.3188,6.075,4.1661,7.4668,11.5372,10.3972,8.6825,6.9267,7.3089,2.3728,3.1073,5.0642,1.4428,3.932,1.3521
6.2045,7.7235,6.4266,8.2666,7.5131,6.8388,5.7044,2.7905,0.2219,3.7225,1.3823,0.501,7.8979,9.1411,5.1522,8.905,6.4763,4.3902,7.9864,12.1483,10.9683,9.1274,7.233,7.5676,2.3461,3.0551,5.272,1.4539,4.1883,1.4877
6.6014,8.1777,6.813,8.6889,7.9273,7.0587,6.0156,2.9491,0.4005,4.0178,1.5963,0.6766,8.3584,9.5977,5.5124,9.461,6.8923,4.6893,8.5393,12.7339,11.5147,9.6189,7.6069,7.8166,2.3345,2.9963,5.4102,1.4548,4.5453,1.6734
6.9607,8.5468,7.1582,9.0736,8.3023,7.2672,6.3241,3.0802,0.5926,4.3113,1.8076,0.815,8.748,9.9865,5.9366,9.9533,7.2796,5.0309,9.0672,13.2543,11.989,10.0952,8.0054,8.017,2.3306,2.9295,5.4578,1.4255,4.9598,1.8761
7.2545,8.8138,7.4502,9.3966,8.6083,7.4499,6.5949,3.1611,0.7661,4.564,1.9839,0.8911,9.0193,10.2669,6.3789,10.3579,7.6018,5.3784,9.5173,13.678,12.3558,10.4974,8.383,8.1407,2.3285,2.8529,5.4113,1.3516,5.3799,2.0616
7.461,8.9775,7.6856,9.6371,8.8217,7.5894,6.7981,3.1731,0.8914,4.7437,2.1008,0.8932,9.1478,10.4167,6.7891,10.6599,7.8336,5.6948,9.8485,13.9834,12.5941,10.7784,8.6994,8.1736,2.3253,2.7668,5.2847,1.228,5.7522,2.1991
7.5641,9.0502,7.8642,9.7821,8.9279,7.6689,6.9121,3.1054,0.9446,4.8288,2.1447,0.8228,9.1326,10.4329,7.1212,10.854,7.9639,5.9452,10.0379,14.1601,12.6983,10.9099,8.9254,8.116,2.3209,2.6738,5.1052,1.0609,6.0307,2.267
7.5539,9.0525,7.984,9.8293,8.9251,7.6763,6.9266,2.9569,0.9115,4.8098,2.1145,0.693,8.9945,10.3298,7.3406,10.945,7.998,6.1019,10.0851,14.2102,12.6775,10.8877,9.0477,7.9813,2.3167,2.5785,4.9065,0.8668,6.1844,2.2578
7.4301,9.0082,8.0399,9.7887,8.8244,7.6084,6.844,2.7375,0.789,4.6907,2.0203,0.5248,8.7703,10.1351,7.4284,10.9482,7.9575,6.1493,10.0129,14.1493,12.5535,10.7327,9.0708,7.7935,2.3142,2.4873,4.7229,0.6706,6.2036,2.1805
7.2059,8.9387,8.025,9.6824,8.6494,7.4731,6.6787,2.4669,0.5867,4.4874,1.8817,0.3427,8.5053,9.8858,7.3833,10.8886,7.876,6.0885,9.8637,14.0062,12.3582,10.488,9.0156,7.5837,2.3144,2.4074,4.5834,0.5014,6.1012,2.0591
6.911,8.8583,7.9346,9.5398,8.433,7.2886,6.4552,2.1714,0.3257,4.2259,1.7225,0.1699,8.246,9.623,7.2213,10.7975,7.7909,5.9387,9.6901,13.8191,12.13,10.2105,8.914,7.3858,2.3166,2.346,4.5072,0.3868,5.9094,1.9273
6.5883,8.773,7.7727,9.3931,8.2122,7.0823,6.2042,1.8808,0.036,3.938,1.5667,0.0247,8.0324,9.3867,6.9747,10.7072,7.7333,5.7346,9.5429,13.6306,11.9082,9.96,8.801,7.2302,2.3181,2.3097,4.5011,0.3475,5.6728,1.8194
6.286,8.6823,7.5557,9.2712,8.0228,6.8866,5.9576,1.6238,-0.2477,3.6568,1.4342,-0.0819,7.8923,9.2105,6.6887,10.6455,7.7201,5.5194,9.4598,13.4807,11.7283,9.7865,8.7063,7.1389,2.3139,2.3026,4.5589,0.3925,5.4384,1.7613
6.0467,8.5846,7.3144,9.1961,7.8949,6.7355,5.7442,1.4248,-0.4913,3.4129,1.3385,-0.1459,7.8391,9.1179,6.4176,10.6311,7.751,5.3363,9.4584,13.3999,11.617,9.7207,8.6477,7.1202,2.2969,2.3252,4.6636,0.5172,5.2478,1.7642
5.8975,8.4833,7.0901,9.1806,7.8483,6.6583,5.5862,1.3,-0.6665,3.2308,1.2863,-0.17,7.8712,9.1186,6.2158,10.6717,7.8109,5.2205,9.5347,13.4044,11.5882,9.7674,8.6275,7.1673,2.2594,2.3725,4.7914,0.7035,5.131,1.8227
5.845,8.39,6.9267,9.2269,7.8892,6.6742,5.4964,1.2558,-0.7567,3.1262,1.2769,-0.1624,7.9736,9.2069,6.1282,10.7635,7.8763,5.1928,9.6659,13.4932,11.6405,9.9057,8.6332,7.2597,2.1946,2.4337,4.9161,0.9224,5.1036,1.919
5.8781,8.3227,6.8602,9.327,8.0092,6.7869,5.4771,1.2875,-0.759,3.1038,1.3034,-0.1366,8.1208,9.3622,6.1802,10.8921,7.9227,5.2568,9.8171,13.6477,11.7573,10.0934,8.6411,7.3665,2.0981,2.4916,5.0135,1.1374,5.1663,2.0298
5.9756,8.2982,6.9069,9.4629,8.1858,6.9826,5.5209,1.3804,-0.685,3.157,1.3538,-0.1101,8.2807,9.5515,6.3716,11.0346,7.9299,5.3998,9.948,13.835,11.9084,10.2764,8.623,7.4527,1.9695,2.5246,5.0648,1.3102,5.3072,2.1346
6.1159,8.3236,7.0567,9.6093,8.3864,7.2317,5.6123,1.5132,-0.5572,3.2686,1.4137,-0.1021,8.4198,9.7357,6.6771,11.1637,7.8856,5.5958,10.0222,14.0144,12.0567,10.4013,8.5536,7.4863,1.8131,2.5111,5.0579,1.4071,5.5058,2.2217
6.2838,8.3907,7.2736,9.7376,8.5748,7.4946,5.7314,1.6623,-0.4035,3.4136,1.4696,-0.1289,8.5079,9.8769,7.052,11.2539,7.7879,5.8124,10.0142,14.1462,12.1654,10.4281,8.4181,7.4451,1.6384,2.4344,4.9888,1.4058,5.7376,2.2907
6.4729,8.4764,7.504,9.8217,8.7187,7.7302,5.856,1.8072,-0.2508,3.5641,1.5119,-0.1986,8.5237,9.9461,7.4422,11.2878,7.6463,6.0172,9.917,14.2008,12.2071,10.3399,8.217,7.3213,1.4598,2.2889,4.8612,1.3015,5.9789,2.351
6.6832,8.5504,7.6915,9.8437,8.7963,7.9042,5.9648,1.9338,-0.1203,3.6927,1.5373,-0.3088,8.4568,9.9279,7.796,11.2621,7.4814,6.1852,9.7448,14.1659,12.1696,10.1459,7.9673,7.1233,1.294,2.0826,4.6854,1.1087,6.2105,2.4163
6.9158,8.5856,7.7912,9.7982,8.7996,7.9957,6.0382,2.0344,-0.025,3.7763,1.5472,-0.4469,8.308,9.8226,8.0746,11.1897,7.3217,6.3031,9.5306,14.0485,12.0583,9.8783,7.6996,6.8729,1.1567,1.8357,4.4763,0.8571,6.4192,2.4991
7.1673,8.5678,7.7819,9.6934,8.734,7.9995,6.0593,2.1058,0.0294,3.7978,1.545,-0.5949,8.0876,9.6438,8.2593,11.097,7.1973,6.3706,9.3194,13.8726,11.8934,9.5816,7.4504,6.5998,1.0587,1.5762,4.2506,0.5837,6.5983,2.6055
7.4251,8.5006,7.6699,9.5488,8.614,7.9234,6.0144,2.1457,0.0418,3.7465,1.5324,-0.7352,7.8119,9.4138,8.3537,11.0169,7.1322,6.399,9.156,13.672,11.7032,9.3006,7.2539,6.3346,1.0025,1.334,4.0247,0.3237,6.746,2.7329
7.6661,8.4042,7.4856,9.3891,8.4578,7.7833,5.8949,2.1488,0.0134,3.6194,1.5078,-0.8552,7.5007,9.1583,8.3788,10.98,7.1377,6.4066,9.0747,13.4812,11.5169,9.0697,7.134,6.1031,0.9826,1.1348,3.8141,0.1034,6.864,2.871
7.8602,8.3094,7.2739,9.2388,8.281,7.5958,5.6994,2.1069,-0.0533,3.4226,1.468,-0.9481,7.176,8.9016,8.3642,11.0073,7.2104,6.4136,9.0909,13.3283,11.3572,8.9069,7.1006,5.9227,0.9879,0.9969,3.6328,-0.0627,6.9559,3.0045
7.9787,8.2484,7.0815,9.1162,8.0938,7.3739,5.4362,2.0105,-0.1556,3.1714,1.4107,-1.012,6.8606,8.6639,8.3376,11.1055,7.3343,6.437,9.1992,13.2297,11.2369,8.8138,7.1493,5.8015,1.0067,0.9298,3.4938,-0.1713,7.0268,3.1185
8.006,8.2449,6.9466,9.0305,7.9003,7.1253,5.1234,1.8521,-0.2889,2.8893,1.3374,-1.0477,6.5772,8.4601,8.3168,11.2663,7.487,6.4875,9.377,13.1891,11.1585,8.7798,7.2649,5.7393,1.0308,0.9337,3.4081,-0.227,7.0828,3.2026
7.9475,8.3069,6.8915,8.9806,7.7005,6.8546,4.787,1.6304,-0.447,2.6041,1.2542,-1.0567,6.3465,8.2993,8.3074,11.4692,7.6453,6.5674,9.5909,13.2,11.1162,8.7882,7.4265,5.7297,1.0575,1.0011,3.3847,-0.2388,7.1305,3.2537
7.832,8.4236,6.9196,8.9575,7.4939,6.5676,4.4575,1.3519,-0.6207,2.3428,1.1701,-1.0404,6.1855,8.1861,8.3057,11.6861,7.7901,6.6719,9.8041,13.249,11.0998,8.8219,7.6123,5.763,1.0896,1.1185,3.4285,-0.217,7.1767,3.2762
7.705,8.5679,7.0168,8.948,7.2828,6.276,4.1637,1.0321,-0.7977,2.1272,1.0944,-1.001,6.1046,8.1211,8.3056,11.8879,7.9075,6.7914,9.9837,13.3196,11.099,8.8679,7.8031,5.8278,1.1331,1.2686,3.5395,-0.1718,7.2274,3.2804
7.6147,8.7057,7.1554,8.9392,7.0741,5.9991,3.9275,0.6937,-0.9641,1.9689,1.0338,-0.9428,6.1052,8.1005,8.3044,12.049,7.9887,6.9148,10.1049,13.3957,11.1052,8.9182,7.9839,5.9121,1.1935,1.4326,3.7107,-0.1127,7.2873,3.2796
7.5962,8.8065,7.3003,8.9224,6.8781,5.7617,3.7591,0.3632,-1.1071,1.8679,0.9895,-0.873,6.1779,8.1163,8.3057,12.1514,8.0286,7.0338,10.1534,13.4616,11.1119,8.969,8.1436,6.0029,1.2731,1.5923,3.9273,-0.0493,7.3583,3.2861
7.6587,8.8528,7.4173,8.8945,6.7053,5.5883,3.6539,0.0671,-1.2193,1.8121,0.9568,-0.8023,6.3014,8.1547,8.3171,12.186,8.0242,7.1447,10.1257,13.5027,11.1132,9.0178,8.2737,6.0867,1.369,1.7318,4.1658,0.0096,7.4392,3.3081
7.7818,8.8437,7.4806,8.8563,6.5617,5.4945,3.5938,-0.1726,-1.3013,1.7806,0.9253,-0.7443,6.4452,8.1966,8.3463,12.1523,7.9751,7.2484,10.0283,13.5046,11.101,9.0611,8.3676,6.1491,1.4732,1.8379,4.3963,0.055,7.5248,3.3476
7.9233,8.7914,7.4776,8.8096,6.4453,5.4808,3.551,-0.3415,-1.362,1.7477,0.8829,-0.7126,6.5732,8.2191,8.3959,12.0557,7.8835,7.3488,9.8756,13.4537,11.0644,9.0919,8.4187,6.1756,1.5725,1.901,4.585,0.0787,7.6061,3.3994
8.0313,8.7133,7.4089,8.7532,6.3452,5.5291,3.4942,-0.435,-1.4154,1.6891,0.8185,-0.7192,6.6498,8.1987,8.4618,11.9048,7.7545,7.4481,9.6871,13.3387,10.9895,9.1,8.4209,6.153,1.6504,1.9141,4.6986,0.0725,7.6706,3.4519
8.0577,8.6222,7.2844,8.6807,6.2431,5.6039,3.3958,-0.4587,-1.4761,1.5866,0.7258,-0.7714,6.6456,8.1146,8.5326,11.7083,7.5958,7.5435,9.4832,13.1522,10.8616,9.0737,8.3685,6.0706,1.6885,1.8727,4.7089,0.0294,7.7041,3.4885
7.9669,8.5198,7.1161,8.5807,6.1179,5.6596,3.2379,-0.4275,-1.5539,1.4323,0.6049,-0.8719,6.542,7.9525,8.5932,11.4729,7.4158,7.6252,9.2816,12.8925,10.668,9.0018,8.257,5.9218,1.67,1.7734,4.5978,-0.0571,7.6919,3.4911
7.7411,8.394,6.9135,8.4391,5.9506,5.6506,3.0166,-0.3624,-1.6519,1.23,0.4615,-1.0176,6.3343,7.7072,8.6277,11.2018,7.2224,7.6775,9.094,12.5641,10.4007,8.8772,8.0848,5.706,1.5834,1.6145,4.3612,-0.191,7.6217,3.4433
7.3825,8.2224,6.6807,8.2421,5.7295,5.5423,2.7433,-0.2864,-1.7651,0.9951,0.3069,-1.2002,6.033,7.3836,8.6221,10.8951,7.0209,7.6834,8.9231,12.1766,10.0583,8.6981,7.8543,5.4297,1.4259,1.3977,4.0119,-0.3714,7.486,3.3348
6.9136,7.9784,6.4185,7.98,5.4529,5.3195,2.4429,-0.2197,-1.8821,0.7521,0.1563,-1.4048,5.6631,6.9967,8.5644,10.5506,6.8111,7.6293,8.7612,11.742,9.6471,8.4684,7.573,5.1073,1.2069,1.132,3.5811,-0.5892,7.2845,3.1641
6.3778,7.6393,6.1289,7.6485,5.129,4.9896,2.1498,-0.1748,-1.9865,0.5317,0.0288,-1.6083,5.2618,6.5693,8.4423,10.165,6.586,7.5101,8.59,11.2719,9.1803,8.1964,7.253,4.761,0.9483,0.8386,3.1166,-0.8231,7.0242,2.9405
5.8374,7.192,5.8191,7.2495,4.7737,4.5781,1.9013,-0.1537,-2.059,0.3664,-0.0531,-1.7792,4.8739,6.129,8.2388,9.7342,6.3297,7.3308,8.3817,10.7748,8.6763,7.8923,6.9093,4.4194,0.6825,0.5526,2.6777,-1.0382,6.7181,2.6824
5.3699,6.6353,5.5025,6.7884,4.405,4.1208,1.731,-0.1472,-2.08,0.2862,-0.0655,-1.8789,4.5452,5.7024,7.931,9.2531,6.0181,7.1056,8.1025,10.2531,8.1542,7.5653,6.5573,4.1139,0.448,0.3222,2.3268,-1.1877,6.3825,2.4142
5.0574,5.9763,5.1967,6.2715,4.0378,3.6523,1.6615,-0.1384,-2.0338,0.3129,0.0121,-1.868,4.3141,5.311,7.4908,8.7153,5.6217,6.8541,7.7173,9.7023,7.6293,7.2205,6.2099,3.8739,0.2822,0.2006,2.1187,-1.2212,6.033,2.1614
4.9704,5.2266,4.9182,5.7036,3.6803,3.1982,1.7009,-0.1082,-1.912,0.4558,0.1924,-1.7152,4.205,4.9662,6.8927,8.1137,5.1121,6.5964,7.1973,9.113,7.1101,6.8586,5.8751,3.7207,0.2136,0.2348,2.09,-1.0954,5.6824,1.9454
5.1497,4.3995,4.6776,5.0876,3.3329,2.7711,1.8412,-0.0413,-1.7162,0.7095,0.4757,-1.4061,4.2227,4.6686,6.1228,7.4436,4.4714,6.3492,6.5278,8.4748,6.5973,6.4772,5.5552,3.6621,0.2559,0.4518,2.2512,-0.7867,5.3385,1.7791
5.5906,3.5096,4.4763,4.4278,2.9909,2.3714,2.0617,0.0691,-1.4581,1.0551,0.8487,-0.9501,4.3521,4.4092,5.1892,6.7067,3.6999,6.1221,5.7152,7.7822,6.0863,6.074,5.2481,3.6901,0.4035,0.8485,2.5836,-0.3008,5.0045,1.6641
6.2382,2.5753,4.3062,3.7327,2.6489,1.9927,2.3337,0.219,-1.1571,1.4628,1.2858,-0.3813,4.5613,4.1732,4.1264,5.9142,2.821,5.9165,4.7889,7.0395,5.5714,5.6504,4.9483,3.7818,0.6324,1.3881,3.042,0.3247,4.6792,1.5907
6.9964,1.6201,4.1521,3.0178,2.3044,1.6274,2.6264,0.3949,-0.8365,1.8975,1.7536,0.2467,4.8083,3.9447,2.9936,5.0881,1.8796,5.7269,3.7984,6.2629,5.0501,5.213,4.6499,3.9046,0.9045,2.0057,3.5629,1.0262,4.359,1.5409
