FP1,F3,F7,FC3,C3,C5,P3,P7,PO7,PO3,O1,Oz,Pz,CPz,FP2,Fz,F4,F8,FC4,FCz,Cz,C4,C6,P4,P8,PO8,PO4,O2,HEOG_left,HEOG_right
-1.4174,-2.3458,-3.6642,-1.6178,-0.3343,-0.74,0.1248,-0.0845,-0.0274,-0.5177,-0.4628,-0.1983,-0.2975,-0.0172,-1.5363,-1.5162,-0.978,-2.1079,-1.1622,-0.21,0.0614,-1.085,-1.3469,-0.4442,-0.9452,-2.227,-0.6771,-1.367,-2.1852,-2.8096
-1.2766,-1.7905,-3.0578,-1.1633,-0.1029,-0.5712,0.4905,0.2178,0.2498,-0.114,-0.1157,0.1965,0.0269,0.4046,-1.1562,-0.858,-0.6048,-1.5314,-0.4586,0.3334,0.5787,-0.2813,-0.6249,0.1388,-0.2748,-1.4517,-0.0566,-0.488,-1.9763,-2.1698
-1.1463,-1.2811,-2.4968,-0.7503,0.1145,-0.4033,0.819,0.4827,0.4948,0.2534,0.2043,0.5561,0.3135,0.7755,-0.7851,-0.2779,-0.2637,-1.0072,0.1688,0.8022,1.0358,0.4355,0.0213,0.6462,0.3202,-0.7682,0.4964,0.2975,-1.7675,-1.5708
-1.0179,-0.8429,-2.016,-0.4014,0.3148,-0.2286,1.0813,0.6829,0.6821,0.5581,0.478,0.8578,0.5372,1.0612,-0.4273,0.1745,0.0275,-0.5679,0.6665,1.1479,1.3919,1.002,0.5359,1.0222,0.7819,-0.2396,0.9311,0.9223,-1.5542,-1.0425
-0.8862,-0.4913,-1.629,-0.1291,0.4957,-0.0408,1.2586,0.8043,0.7985,0.7867,0.6983,1.0914,0.6864,1.2437,-0.0946,0.4741,0.2579,-0.2324,1.0037,1.3471,1.6246,1.3811,0.8873,1.235,1.0762,0.1024,1.2183,1.3497,-1.3348,-0.6038
-0.7486,-0.229,-1.3263,0.0662,0.6545,0.1631,1.3437,0.8466,0.8438,0.9388,0.8686,1.2579,0.7635,1.3233,0.1947,0.6242,0.425,-0.0016,1.1764,1.4043,1.7331,1.5678,1.0716,1.2808,1.1966,0.2608,1.3518,1.5754,-1.1101,-0.2604
-0.6019,-0.0456,-1.0796,0.1957,0.7882,0.3806,1.34,0.8213,0.828,1.023,0.9962,1.3638,0.7811,1.3161,0.4218,0.6536,0.534,0.1418,1.2061,1.3494,1.7357,1.5865,1.1106,1.1815,1.1622,0.2676,1.3458,1.6214,-0.8828,-0.0051
-0.441,0.0797,-0.8523,0.2798,0.8938,0.6035,1.2588,0.7468,0.7655,1.0515,1.0857,1.4151,0.7559,1.2488,0.5755,0.6087,0.597,0.23,1.1326,1.2286,1.6647,1.4837,1.0443,0.9775,1.0114,0.1721,1.2269,1.5247,-0.6557,0.1797
-0.2582,0.1746,-0.6105,0.3431,0.9693,0.8186,1.117,0.6433,0.6713,1.036,1.1347,1.4132,0.7036,1.1512,0.6595,0.5415,0.6293,0.3021,1.0041,1.0927,1.5577,1.3153,0.92,0.7172,0.7922,0.0274,1.0271,1.3263,-0.4316,0.3167
-0.0455,0.2668,-0.3342,0.4082,1.014,1.0094,0.9346,0.5295,0.5577,0.985,1.1338,1.3555,0.6342,1.0492,0.6949,0.4968,0.6461,0.3935,0.8651,0.9843,1.4485,1.1341,0.7822,0.4478,0.5527,-0.1211,0.7779,1.0628,-0.2132,0.4287
0.2011,0.3772,-0.0228,0.4899,1.0289,1.1586,0.7329,0.4196,0.4339,0.9045,1.0717,1.2383,0.5516,0.9597,0.7157,0.5015,0.6579,0.5255,0.7473,0.9281,1.3603,0.9778,0.6631,0.2069,0.3334,-0.2429,0.507,0.7637,-0.0041,0.5331
0.4768,0.5126,0.3045,0.5902,1.0146,1.2505,0.5324,0.3227,0.3071,0.7993,0.9415,1.0623,0.4552,0.8879,0.7576,0.5583,0.6668,0.6979,0.6632,0.9257,1.3009,0.8628,0.5789,0.0179,0.1616,-0.3242,0.2376,0.452,0.1889,0.6378
0.7634,0.6623,0.615,0.6961,0.9696,1.2713,0.3504,0.242,0.184,0.675,0.7467,0.8369,0.3424,0.8282,0.8447,0.6454,0.6641,0.8881,0.6051,0.9564,1.2617,0.7838,0.5284,-0.1105,0.05,-0.3649,-0.011,0.1476,0.3557,0.7402
1.0289,0.7989,0.8715,0.7824,0.8884,1.2097,0.1989,0.1762,0.0719,0.5388,0.5048,0.5812,0.2122,0.7679,0.9785,0.7232,0.6323,1.056,0.5502,0.9844,1.2223,0.719,0.4975,-0.1823,-0.0026,-0.373,-0.2224,-0.13,0.4818,0.8282
1.2326,0.8853,1.0418,0.8182,0.7642,1.0589,0.0828,0.1202,-0.0222,0.3992,0.2443,0.3219,0.0679,0.6926,1.1353,0.7466,0.5501,1.1552,0.4698,0.9695,1.1575,0.6411,0.4663,-0.2089,-0.0066,-0.3573,-0.3824,-0.36,0.551,0.8851
1.3347,0.8867,1.1054,0.7773,0.5925,0.8189,0,0.0672,-0.093,0.2645,-0.0016,0.0884,-0.0813,0.5931,1.2722,0.6795,0.4016,1.1461,0.341,0.8805,1.0461,0.5278,0.4173,-0.2035,0.0234,-0.3228,-0.479,-0.5221,0.5487,0.8942
1.3084,0.7825,1.0563,0.6482,0.3768,0.5009,-0.0562,0.011,-0.1386,0.1413,-0.2027,-0.0937,-0.2208,0.4691,1.3403,0.5073,0.1837,1.0078,0.1561,0.7049,0.879,0.3714,0.3418,-0.176,0.073,-0.2683,-0.5038,-0.5987,0.4667,0.8448
1.1489,0.5754,0.9024,0.4408,0.1322,0.1299,-0.0941,-0.0518,-0.1614,0.0342,-0.3391,-0.2076,-0.3329,0.3305,1.3,0.2433,-0.0894,0.7448,-0.0732,0.454,0.6621,0.1811,0.2429,-0.1311,0.1313,-0.1875,-0.4533,-0.5792,0.307,0.7348
0.8758,0.2927,0.6635,0.186,-0.1141,-0.2553,-0.12,-0.1194,-0.1661,-0.0538,-0.4038,-0.2477,-0.4005,0.1946,1.1338,-0.0744,-0.3883,0.3861,-0.3188,0.1596,0.4151,-0.0196,0.1335,-0.0681,0.1907,-0.0737,-0.3306,-0.4629,0.0842,0.5723
0.5284,-0.0198,0.3681,-0.0715,-0.3287,-0.6069,-0.1355,-0.1842,-0.1576,-0.1192,-0.4017,-0.2189,-0.4118,0.0798,0.8495,-0.3928,-0.6762,-0.0223,-0.545,-0.1356,0.1648,-0.2016,0.0303,0.0156,0.2455,0.0755,-0.1467,-0.2613,-0.1754,0.3738
0.1548,-0.3105,0.0499,-0.2851,-0.4793,-0.8763,-0.1382,-0.2345,-0.1383,-0.1576,-0.3449,-0.1342,-0.3637,-0.0008,0.4773,-0.6602,-0.9196,-0.4291,-0.7199,-0.3905,-0.0633,-0.3407,-0.0525,0.1205,0.2894,0.2537,0.0794,0.0024,-0.4378,0.1608
-0.1995,-0.5362,-0.2553,-0.4197,-0.5444,-1.0247,-0.1228,-0.2567,-0.1064,-0.1631,-0.2488,-0.0119,-0.2637,-0.0448,0.0589,-0.8396,-1.0964,-0.7886,-0.825,-0.5774,-0.2526,-0.425,-0.1093,0.2411,0.3135,0.4436,0.3213,0.294,-0.666,-0.0447
-0.4995,-0.6724,-0.5141,-0.4598,-0.5184,-1.0319,-0.0841,-0.2387,-0.0567,-0.1297,-0.1278,0.1271,-0.1283,-0.0606,-0.3612,-0.9175,-1.1997,-1.0686,-0.859,-0.688,-0.3984,-0.4581,-0.1442,0.3645,0.3072,0.6186,0.5472,0.5719,-0.8273,-0.2241
-0.7228,-0.7165,-0.699,-0.411,-0.4126,-0.9006,-0.0194,-0.1732,0.0173,-0.0543,0.0071,0.2622,0.0208,-0.0641,-0.7433,-0.903,-1.2343,-1.2514,-0.8347,-0.7318,-0.5054,-0.4552,-0.1676,0.4724,0.2603,0.748,0.7245,0.7936,-0.8973,-0.3639
-0.8568,-0.6817,-0.792,-0.294,-0.2499,-0.6552,0.07,-0.0598,0.1206,0.0615,0.1486,0.376,0.1622,-0.0709,-1.0553,-0.8194,-1.2091,-1.3311,-0.7714,-0.7284,-0.5818,-0.4355,-0.19,0.5456,0.1673,0.8053,0.8255,0.9238,-0.8639,-0.4571
-0.8941,-0.5878,-0.7857,-0.1353,-0.0568,-0.3353,0.1788,0.0937,0.2524,0.2086,0.2917,0.4564,0.2795,-0.0904,-1.2731,-0.6932,-1.13,-1.3091,-0.6855,-0.6975,-0.6325,-0.4136,-0.2151,0.5698,0.0311,0.7752,0.833,0.9423,-0.7283,-0.5022
-0.8287,-0.4509,-0.6829,0.0427,0.1438,0.0126,0.2979,0.2727,0.4048,0.3704,0.4308,0.4967,0.3639,-0.1212,-1.3813,-0.5441,-0.9963,-1.1907,-0.5855,-0.6512,-0.6556,-0.3945,-0.2371,0.5389,-0.1356,0.6586,0.7436,0.8486,-0.5048,-0.5018
-0.6577,-0.279,-0.4944,0.2265,0.3372,0.3442,0.4161,0.4579,0.5619,0.5244,0.5569,0.4945,0.414,-0.1517,-1.3747,-0.3807,-0.8024,-0.9838,-0.4703,-0.5907,-0.6427,-0.3723,-0.2417,0.4568,-0.3118,0.4716,0.5684,0.6608,-0.219,-0.4608
-0.3857,-0.0732,-0.2355,0.4111,0.5165,0.6238,0.5221,0.629,0.7033,0.6463,0.6572,0.451,0.4349,-0.1653,-1.2581,-0.2029,-0.5439,-0.6996,-0.3336,-0.5095,-0.5835,-0.3351,-0.2118,0.3355,-0.4727,0.2424,0.3305,0.411,0.0963,-0.3851
-0.0303,0.1665,0.0757,0.5964,0.6798,0.8286,0.6065,0.7684,0.8078,0.7157,0.7168,0.3697,0.4351,-0.146,-1.0457,-0.0077,-0.224,-0.3545,-0.1693,-0.3988,-0.472,-0.2709,-0.1342,0.1928,-0.594,0.0055,0.0614,0.1383,0.4066,-0.2809
0.3745,0.4345,0.4193,0.7813,0.8257,0.9497,0.6629,0.8631,0.8592,0.7209,0.7234,0.2575,0.4252,-0.0841,-0.7582,0.2051,0.1425,0.0292,0.0229,-0.255,-0.3114,-0.1734,-0.0058,0.0491,-0.6573,-0.2033,-0.2034,-0.1171,0.6812,-0.1542
0.7818,0.7161,0.7729,0.9599,0.9493,0.9914,0.689,0.9053,0.849,0.6618,0.6719,0.1254,0.4153,0.0195,-0.4188,0.4285,0.5294,0.4232,0.2348,-0.0833,-0.1164,-0.0456,0.1643,-0.0751,-0.6526,-0.3505,-0.4284,-0.3185,0.8995,-0.0111
1.1399,0.9878,1.1107,1.12,1.0412,0.9682,0.6852,0.8915,0.7777,0.5499,0.5666,-0.0117,0.4136,0.1528,-0.0511,0.6481,0.9028,0.7943,0.4499,0.1013,0.0878,0.0996,0.3551,-0.1629,-0.5804,-0.4105,-0.5835,-0.4375,1.0535,0.141
1.4026,1.2206,1.4042,1.2443,1.0877,0.8997,0.6528,0.8203,0.6528,0.4036,0.4203,-0.1386,0.4235,0.2938,0.3202,0.8442,1.2263,1.1076,0.6462,0.2761,0.2694,0.2416,0.5375,-0.2039,-0.4524,-0.3702,-0.6495,-0.4599,1.1472,0.2933
1.5388,1.3858,1.6244,1.3129,1.0729,0.8047,0.5907,0.6913,0.4851,0.2416,0.2479,-0.2453,0.4416,0.4135,0.6674,0.9951,1.4668,1.3293,0.7987,0.4147,0.3944,0.3551,0.679,-0.1982,-0.29,-0.2349,-0.6245,-0.3918,1.1918,0.4343
1.5363,1.4597,1.7454,1.3063,0.9818,0.6955,0.4939,0.5053,0.2846,0.0759,0.0612,-0.3322,0.4561,0.4802,0.9585,1.0802,1.5981,1.4317,0.8841,0.4912,0.4327,0.4146,0.7495,-0.158,-0.1213,-0.0306,-0.5256,-0.263,1.1999,0.55
1.402,1.4281,1.7491,1.2101,0.8047,0.5754,0.3533,0.2652,0.0595,-0.0907,-0.1351,-0.4115,0.4489,0.4659,1.1594,1.0835,1.6039,1.3985,0.8838,0.4854,0.3637,0.3998,0.727,-0.1052,0.0231,0.1994,-0.3872,-0.1233,1.1794,0.6246
1.1569,1.2898,1.6285,1.0186,0.5407,0.44,0.1599,-0.0211,-0.1833,-0.2625,-0.3412,-0.502,0.3996,0.3521,1.2393,0.9972,1.4805,1.2292,0.789,0.3865,0.181,0.3001,0.6022,-0.0662,0.1167,0.4036,-0.2522,-0.0307,1.1319,0.644
0.8314,1.0572,1.3916,0.738,0.2007,0.2808,-0.0907,-0.3386,-0.4365,-0.4461,-0.5575,-0.6212,0.2921,0.1353,1.1777,0.8238,1.2392,0.9414,0.6036,0.197,-0.1047,0.1184,0.3817,-0.0646,0.1423,0.5358,-0.1603,-0.0336,1.0542,0.5993
0.4599,0.7558,1.0626,0.3882,-0.192,0.0913,-0.393,-0.6649,-0.6894,-0.6437,-0.7786,-0.7764,0.1205,-0.1696,0.9713,0.5783,0.9064,0.5711,0.346,-0.0668,-0.4659,-0.128,0.0869,-0.114,0.096,0.5683,-0.1372,-0.1548,0.9438,0.4908
0.0786,0.4202,0.6799,0,-0.6045,-0.1289,-0.7291,-0.9719,-0.9279,-0.849,-0.9915,-0.9604,-0.1073,-0.5316,0.6379,0.2867,0.5213,0.1674,0.0468,-0.3755,-0.8619,-0.4095,-0.2487,-0.2147,-0.0121,0.4996,-0.1878,-0.3822,0.8031,0.3303
-0.2777,0.088,0.2917,-0.389,-0.9992,-0.3718,-1.0705,-1.2303,-1.1351,-1.0476,-1.1769,-1.1525,-0.3709,-0.9088,0.2177,-0.0177,0.1303,-0.2141,-0.2563,-0.6918,-1.2465,-0.6908,-0.5868,-0.3553,-0.1611,0.3537,-0.2979,-0.6731,0.6423,0.1399
-0.578,-0.2081,-0.0524,-0.7422,-1.3414,-0.6228,-1.3841,-1.4153,-1.2942,-1.2211,-1.3141,-1.3251,-0.6423,-1.2582,-0.2314,-0.3016,-0.2222,-0.5215,-0.5274,-0.9783,-1.5774,-0.9386,-0.8912,-0.5178,-0.3246,0.171,-0.4416,-0.9678,0.4779,-0.0512
-0.7977,-0.4469,-0.3107,-1.0319,-1.6058,-0.8641,-1.6401,-1.5122,-1.3915,-1.3528,-1.387,-1.4518,-0.8934,-1.546,-0.6442,-0.5399,-0.5022,-0.7156,-0.74,-1.2062,-1.8256,-1.1293,-1.1348,-0.6851,-0.4773,-0.0055,-0.5916,-1.2086,0.3289,-0.2126
-0.9212,-0.6225,-0.4574,-1.2449,-1.7824,-1.0798,-1.8194,-1.5191,-1.4196,-1.4327,-1.3879,-1.5147,-1.1033,-1.7556,-0.9598,-0.7214,-0.6924,-0.777,-0.8832,-1.3625,-1.9813,-1.2542,-1.3037,-0.8465,-0.6006,-0.1437,-0.7286,-1.3564,0.2115,-0.3192
-0.9418,-0.7423,-0.4878,-1.3832,-1.8767,-1.2585,-1.9174,-1.4472,-1.3788,-1.4603,-1.3195,-1.5084,-1.2625,-1.8891,-1.134,-0.8507,-0.7928,-0.707,-0.9617,-1.4525,-2.0555,-1.3193,-1.3968,-1.0001,-0.685,-0.2315,-0.8461,-1.3993,0.135,-0.3547
-0.8614,-0.821,-0.4181,-1.4611,-1.9076,-1.3952,-1.944,-1.3171,-1.2787,-1.4436,-1.1935,-1.4402,-1.3727,-1.9647,-1.1454,-0.9447,-0.8178,-0.5261,-0.9926,-1.4974,-2.0749,-1.3414,-1.423,-1.1507,-0.7298,-0.2789,-0.9487,-1.3528,0.1002,-0.3144
-0.6885,-0.8725,-0.2808,-1.4985,-1.9003,-1.4898,-1.9189,-1.1544,-1.1361,-1.396,-1.0284,-1.3277,-1.4439,-2.0086,-0.9986,-1.0259,-0.7896,-0.2683,-0.9988,-1.5271,-2.0735,-1.3418,-1.3968,-1.3047,-0.7402,-0.3119,-1.047,-1.2505,0.1001,-0.2042
-0.4389,-0.9042,-0.1152,-1.5147,-1.8799,-1.5453,-1.8652,-0.9839,-0.9731,-1.3323,-0.8464,-1.1938,-1.489,-2.0457,-0.7228,-1.1159,-0.7326,0.0251,-1.0025,-1.5716,-2.083,-1.3392,-1.3338,-1.4637,-0.7238,-0.3615,-1.1492,-1.1313,0.1238,-0.0388
-0.1376,-0.9169,0.0412,-1.5239,-1.8651,-1.5655,-1.8039,-0.8261,-0.813,-1.2657,-0.671,-1.0619,-1.5193,-2.0925,-0.3692,-1.2304,-0.67,0.3102,-1.021,-1.654,-2.125,-1.3463,-1.2488,-1.6207,-0.6868,-0.4526,-1.2555,-1.0274,0.1601,0.1598
0.1789,-0.909,0.1587,-1.5354,-1.8664,-1.5555,-1.75,-0.6958,-0.6773,-1.2065,-0.5254,-0.9521,-1.542,-2.155,-0.0069,-1.3792,-0.6226,0.545,-1.066,-1.787,-2.2079,-1.3695,-1.1561,-1.7599,-0.634,-0.5953,-1.3561,-0.9558,0.1998,0.3652
0.4623,-0.8844,0.2174,-1.5558,-1.8881,-1.5231,-1.7128,-0.6024,-0.5829,-1.163,-0.43,-0.8785,-1.561,-2.2308,0.2846,-1.5681,-0.6097,0.6923,-1.1449,-1.9746,-2.3301,-1.4113,-1.0712,-1.8608,-0.5688,-0.7824,-1.4337,-0.9174,0.2354,0.548
0.6575,-0.8571,0.2057,-1.5928,-1.9309,-1.4807,-1.6975,-0.5519,-0.5407,-1.1427,-0.4006,-0.8493,-1.5786,-2.3143,0.4268,-1.8016,-0.6494,0.7231,-1.2629,-2.2155,-2.4854,-1.4744,-1.0122,-1.9047,-0.4952,-0.9924,-1.4694,-0.9008,0.26,0.6793
0.7116,-0.8514,0.118,-1.6565,-1.9961,-1.4452,-1.7077,-0.5472,-0.5547,-1.1528,-0.4457,-0.866,-1.5973,-2.4016,0.3565,-2.0836,-0.7565,0.621,-1.4238,-2.5057,-2.6684,-1.5633,-0.9979,-1.8804,-0.4197,-1.197,-1.4495,-0.8893,0.2653,0.7346
0.5883,-0.8959,-0.0452,-1.7579,-2.0857,-1.4351,-1.7461,-0.5886,-0.6217,-1.1994,-0.5643,-0.9244,-1.6202,-2.4919,0.0415,-2.4147,-0.9378,0.3864,-1.6278,-2.84,-2.8768,-1.6829,-1.0438,-1.7883,-0.3504,-1.3698,-1.3703,-0.8681,0.2438,0.6998
0.2792,-1.0134,-0.2755,-1.9049,-2.2018,-1.4656,-1.8144,-0.6733,-0.7319,-1.2861,-0.7456,-1.0152,-1.6487,-2.5862,-0.5074,-2.7877,-1.1878,0.0396,-1.8681,-3.2092,-3.1094,-1.834,-1.1558,-1.6402,-0.2968,-1.4937,-1.24,-0.829,0.191,0.5762
-0.1893,-1.2113,-0.5548,-2.0979,-2.3431,-1.5439,-1.9111,-0.7943,-0.8708,-1.4117,-0.969,-1.1249,-1.6805,-2.683,-1.2322,-3.184,-1.485,-0.3783,-2.128,-3.5977,-3.3617,-2.0086,-1.3246,-1.4565,-0.2659,-1.5648,-1.0763,-0.7723,0.1089,0.3829
-0.7588,-1.4751,-0.8545,-2.3265,-2.5035,-1.6658,-2.0311,-0.9408,-1.0209,-1.5683,-1.2067,-1.2365,-1.7084,-2.7759,-2.034,-3.5719,-1.7921,-0.8087,-2.3798,-3.9816,-3.6224,-2.188,-1.5249,-1.2606,-0.2603,-1.5914,-0.9019,-0.7041,0.0077,0.1554
-1.3495,-1.7689,-1.1393,-2.5695,-2.6713,-1.8166,-2.1645,-1.0983,-1.1645,-1.7409,-1.4266,-1.3305,-1.7211,-2.8529,-2.7894,-3.9098,-2.0609,-1.1822,-2.5882,-4.3303,-3.8724,-2.3439,-1.7184,-1.0746,-0.2757,-1.5897,-0.7388,-0.6326,-0.0958,-0.061
-1.8773,-2.0426,-1.3749,-2.7982,-2.831,-1.9744,-2.2978,-1.2503,-1.286,-1.9092,-1.5979,-1.3879,-1.7066,-2.8996,-3.3753,-4.154,-2.2407,-1.4295,-2.7166,-4.6116,-4.0882,-2.4448,-1.8623,-0.9151,-0.301,-1.5774,-0.6036,-0.5647,-0.1827,-0.2198
-2.271,-2.2443,-1.5359,-2.9835,-2.9673,-2.1162,-2.4157,-1.3809,-1.3727,-2.0496,-1.6951,-1.3922,-1.6557,-2.9045,-3.6967,-4.2679,-2.2887,-1.4944,-2.7353,-4.7977,-4.2477,-2.4637,-1.9186,-0.7912,-0.3195,-1.5676,-0.5046,-0.5033,-0.2372,-0.2846
-2.488,-2.335,-1.6135,-3.1034,-3.0685,-2.2239,-2.5036,-1.4777,-1.4164,-2.1397,-1.7034,-1.3338,-1.566,-2.8639,-3.7098,-4.2327,-2.1803,-1.3466,-2.6298,-4.8731,-4.3374,-2.3856,-1.8637,-0.7042,-0.3118,-1.5641,-0.4405,-0.4475,-0.251,-0.2373
-2.5234,-2.3013,-1.6187,-3.1502,-3.131,-2.2889,-2.5497,-1.5346,-1.4128,-2.1617,-1.6216,-1.2118,-1.4436,-2.7861,-3.4336,-4.0536,-1.9171,-0.9914,-2.4076,-4.8397,-4.3582,-2.214,-1.695,-0.6483,-0.2585,-1.5598,-0.4022,-0.3938,-0.2262,-0.0843
-2.4112,-2.1622,-1.5812,-3.1343,-3.1611,-2.3156,-2.5478,-1.5535,-1.3629,-2.1063,-1.4631,-1.0367,-1.3036,-2.6909,-2.9478,-3.7632,-1.5302,-0.4733,-2.1001,-4.7191,-4.3277,-1.972,-1.4322,-0.613,-0.1438,-1.5382,-0.3749,-0.338,-0.1756,0.1436
-2.2176,-1.9668,-1.5429,-3.0843,-3.1758,-2.3215,-2.4987,-1.5441,-1.2724,-1.9749,-1.2552,-0.8297,-1.1679,-2.608,-2.3754,-3.4174,-1.0779,0.1284,-1.7603,-4.5508,-4.2783,-1.7006,-1.1151,-0.5859,0.0409,-1.4776,-0.3424,-0.2769,-0.1202,0.397
-2.026,-1.7838,-1.5483,-3.0405,-3.1989,-2.333,-2.4098,-1.5205,-1.1512,-1.7794,-1.0346,-0.62,-1.0611,-2.5701,-1.8573,-3.0863,-0.6365,0.7125,-1.4537,-4.3852,-4.2514,-1.4511,-0.7958,-0.5551,0.2949,-1.3571,-0.2896,-0.2095,-0.0857,0.6175
-1.9188,-1.6824,-1.6322,-3.0432,-3.2549,-2.378,-2.2932,-1.4967,-1.0115,-1.5401,-0.8408,-0.4397,-1.0046,-2.6052,-1.5217,-2.8392,-0.286,1.175,-1.2456,-4.2722,-4.2865,-1.2748,-0.528,-0.5114,0.6058,-1.1631,-0.2061,-0.137,-0.0964,0.7511
-1.9576,-1.7131,-1.8096,-3.1196,-3.3595,-2.4763,-2.1613,-1.4813,-0.8645,-1.2815,-0.7075,-0.3168,-1.0107,-2.7271,-1.4558,-2.7276,-0.0929,1.4318,-1.1846,-4.2485,-4.409,-1.2104,-0.3554,-0.4479,0.9489,-0.8962,-0.0885,-0.0635,-0.169,0.7615
-2.1666,-1.8889,-2.0681,-3.2705,-3.5097,-2.6288,-2.0225,-1.4744,-0.7186,-1.0272,-0.6552,-0.269,-1.0759,-2.9271,-1.6851,-2.77,-0.092,1.439,-1.2876,-4.3246,-4.619,-1.2722,-0.301,-0.3604,1.2882,-0.5759,0.0579,0.0033,-0.3052,0.6396
-2.5235,-2.1763,-2.3649,-3.463,-3.6778,-2.811,-1.8767,-1.4665,-0.5784,-0.7964,-0.6867,-0.2999,-1.1784,-3.1703,-2.1642,-2.9417,-0.2736,1.2065,-1.53,-4.4759,-4.8838,-1.4422,-0.3596,-0.2462,1.579,-0.2428,0.2185,0.0509,-0.4873,0.4092
-2.9588,-2.4962,-2.6311,-3.6318,-3.8098,-2.9715,-1.7151,-1.4419,-0.4468,-0.6011,-0.7874,-0.398,-1.2782,-3.3962,-2.783,-3.1737,-0.5788,0.8009,-1.8441,-4.6421,-5.1378,-1.669,-0.4962,-0.104,1.7732,0.0441,0.3699,0.0625,-0.676,0.1247
-3.3665,-2.7359,-2.7811,-3.6885,-3.8324,-3.039,-1.5216,-1.3841,-0.3272,-0.4464,-0.9293,-0.5389,-1.3226,-3.5276,-3.3879,-3.3614,-0.9061,0.3351,-2.1274,-4.7332,-5.2911,-1.8738,-0.6507,0.0663,1.8254,0.2157,0.484,0.0206,-0.8134,-0.1365
-3.623,-2.7712,-2.7278,-3.5382,-3.6653,-2.9358,-1.2779,-1.2828,-0.2268,-0.3319,-1.0784,-0.6895,-1.2555,-3.4825,-3.8132,-3.3828,-1.1283,-0.0519,-2.2608,-4.645,-5.2439,-1.9643,-0.7488,0.2638,1.7017,0.2063,0.5334,-0.0875,-0.832,-0.2879
-3.6107,-2.4926,-2.3984,-3.1006,-3.2392,-2.5951,-0.9703,-1.1397,-0.1587,-0.2543,-1.2023,-0.8136,-1.0285,-3.1907,-3.9162,-3.1222,-1.1173,-0.2238,-2.1314,-4.2793,-4.9071,-1.8521,-0.7161,0.4863,1.3878,-0.0296,0.4995,-0.2631,-0.6664,-0.2494
-3.2432,-1.8311,-1.7511,-2.3288,-2.5131,-1.9793,-0.5952,-0.9709,-0.1402,-0.2093,-1.2756,-0.8769,-0.6129,-2.6095,-3.6068,-2.4963,-0.7727,-0.0759,-1.6579,-3.5661,-4.2216,-1.4714,-0.4946,0.7302,0.8951,-0.5036,0.3781,-0.4911,-0.2685,0.036
-2.4837,-0.7772,-0.7851,-1.2246,-1.4887,-1.0922,-0.1647,-0.8056,-0.1894,-0.1936,-1.2836,-0.8534,-0.009,-1.7363,-2.8651,-1.4749,-0.0471,0.4416,-0.8111,-2.4823,-3.1754,-0.7958,-0.0562,0.9885,0.2622,-1.1867,0.1817,-0.7411,0.3804,0.5902
-1.3539,0.611,0.4545,0.156,-0.2179,0.0153,0.2919,-0.6796,-0.3204,-0.2059,-1.2241,-0.7311,0.7485,-0.6156,-1.7417,-0.0933,1.0384,1.3109,0.3744,-1.0637,-1.8123,0.1526,0.5882,1.2479,-0.4504,-2.0134,-0.0648,-0.974,1.2614,1.3921
0.0685,2.2158,1.8809,1.7077,1.2007,1.25,0.7291,-0.6283,-0.5395,-0.2488,-1.1079,-0.5165,1.5918,0.6636,-0.3428,1.5495,2.3925,2.4501,1.8021,0.5956,-0.2303,1.3022,1.3878,1.4866,-1.1703,-2.8946,-0.3315,-1.1523,2.3182,2.3797
1.6644,3.8803,3.3781,3.2916,2.635,2.4911,1.0906,-0.6785,-0.8431,-0.3289,-0.9578,-0.2354,2.4287,1.9792,1.1956,3.3064,3.8684,3.7294,3.3286,2.3559,1.4314,2.5425,2.2598,1.6744,-1.8265,-3.7358,-0.5921,-1.2507,3.4647,3.4595
3.2944,5.4381,4.8189,4.7574,3.941,3.6116,1.3193,-0.8429,-1.2174,-0.4556,-0.8045,0.0709,3.1569,3.195,2.7353,5.0077,5.292,4.9981,4.7895,4.055,3.0148,3.7419,3.1037,1.7761,-2.3605,-4.4536,-0.8308,-1.2617,4.5994,4.5232
4.8229,6.7433,6.0858,5.9694,4.9879,4.5004,1.3686,-1.1164,-1.6399,-0.6371,-0.6804,0.353,3.6827,4.1843,4.1573,6.4914,6.4961,6.1137,6.0296,5.5364,4.3693,4.7713,3.8202,1.7585,-2.7353,-4.9895,-1.0438,-1.1962,5.6227,5.4668
6.1387,7.6951,7.0887,6.828,5.6805,5.0826,1.2142,-1.4758,-2.0805,-0.8763,-0.6119,0.5646,3.9373,4.8509,5.3756,7.6308,7.3531,6.966,6.93,6.6759,5.3774,5.5255,4.3281,1.5982,-2.9392,-5.3167,-1.2377,-1.0792,6.4537,6.2076
7.1701,8.2495,7.7767,7.2845,5.9746,5.3306,0.862,-1.8822,-2.5037,-1.166,-0.6127,0.6722,3.8894,5.1443,6.3401,8.3535,7.7965,7.4925,7.4258,7.4005,5.9721,5.9392,4.5774,1.2879,-2.9853,-5.4396,-1.4249,-0.9415,7.0423,6.696
7.8893,8.419,8.1418,7.3447,5.8815,5.2653,0.3499,-2.2865,-2.872,-1.4862,-0.6796,0.6631,3.55,5.0658,7.0332,8.6488,7.8289,7.6818,7.5122,7.6965,6.1449,5.9943,4.5544,0.8402,-2.9056,-5.3885,-1.6166,-0.8125,7.3746,6.9198
8.308,8.261,8.2142,7.0626,5.4619,4.9479,-0.2569,-2.6364,-3.1489,-1.8049,-0.7929,0.5477,2.9693,4.664,7.462,8.5626,7.514,7.5679,7.2378,7.6058,5.9414,5.7184,4.2815,0.2876,-2.7422,-5.208,-1.8179,-0.7136,7.4699,6.9015
8.4666,7.8598,8.0506,6.5265,4.8113,4.4644,-0.8767,-2.885,-3.3046,-2.0828,-0.9217,0.3562,2.2271,4.0241,7.6489,8.1835,6.9571,7.2174,6.6904,7.2135,5.4495,5.1768,3.8101,-0.3208,-2.5372,-4.946,-2.0238,-0.6554,7.3712,6.6886
8.4215,7.3086,7.7197,5.8414,4.0419,3.9077,-1.4253,-2.9983,-3.3206,-2.2795,-1.0321,0.1303,1.4188,3.2511,7.6243,7.623,6.2808,6.713,5.9778,6.6298,4.7804,4.4591,3.2108,-0.9261,-2.324,-4.643,-2.2193,-0.6375,7.1319,6.341
8.2333,6.6948,7.2887,5.1117,3.2639,3.3614,-1.8297,-2.9609,-3.1934,-2.3616,-1.0963,-0.0869,0.6394,2.4516,7.4226,6.9959,5.6008,6.1383,5.2096,5.9713,4.0502,3.6647,2.5619,-1.4689,-2.1228,-4.3271,-2.3826,-0.6504,6.8034,5.9181
7.9597,6.0916,6.8131,4.4283,2.5702,2.8888,-2.0403,-2.7775,-2.9354,-2.3092,-1.0991,-0.261,-0.0304,1.7179,7.0833,6.4028,5.0086,5.5653,4.4811,5.3431,3.3614,2.8879,1.9377,-1.8987,-1.9396,-4.0126,-2.4906,-0.6804,6.4266,5.4693
7.6502,5.5529,6.3317,3.8585,2.0262,2.5276,-2.0366,-2.4713,-2.5726,-2.1191,-1.04,-0.3721,-0.5362,1.1152,6.6522,5.9184,4.561,5.0468,3.863,4.8252,2.7892,2.2047,1.3986,-2.182,-1.7705,-3.7047,-2.526,-0.7135,6.0292,5.0302
7.3428,5.1115,5.8668,3.4405,1.6635,2.2897,-1.8294,-2.0791,-2.1399,-1.805,-0.931,-0.4173,-0.8561,0.6739,6.1813,5.5843,4.2786,4.6135,3.3952,4.4634,2.3728,1.6637,0.9837,-2.308,-1.6085,-3.4054,-2.4822,-0.7403,5.6277,4.6239
7.062,4.7786,5.4269,3.1819,1.4802,2.1649,-1.4564,-1.6444,-1.675,-1.3944,-0.7919,-0.4086,-1.001,0.3895,5.724,5.4083,4.1506,4.2748,3.0871,4.2659,2.1133,1.2818,0.7072,-2.2892,-1.4497,-3.1202,-2.367,-0.7593,5.2322,4.266
6.8185,4.5456,5.0128,3.0623,1.4453,2.1277,-0.975,-1.2092,-1.2133,-0.9244,-0.6452,-0.3681,-1.0092,0.2272,5.3283,5.369,4.1436,4.0245,2.9216,4.2071,1.9783,1.0458,0.5592,-2.1586,-1.2992,-2.8622,-2.2019,-0.7766,4.8518,3.9692
6.6109,4.3893,4.6223,3.0417,1.5095,2.145,-0.4505,-0.8077,-0.7833,-0.4354,-0.5115,-0.3215,-0.9354,0.1341,5.0291,5.4243,4.2124,3.8467,2.8633,4.2371,1.9134,0.9206,0.5105,-1.962,-1.1722,-2.6512,-2.0178,-0.803,4.4991,3.7475
6.4292,4.2797,4.2546,3.0709,1.6179,2.1856,0.0555,-0.4607,-0.4037,0.0355,-0.4058,-0.29,-0.8368,0.0528,4.8435,5.5219,4.3097,3.7229,2.8683,4.2947,1.8575,0.8603,0.522,-1.7474,-1.0905,-2.5079,-1.8467,-0.8484,4.1915,3.6158
6.2583,4.1878,3.913,3.1041,1.7233,2.2277,0.4965,-0.1742,-0.0825,0.4607,-0.3344,-0.2844,-0.7594,-0.0635,4.7674,5.6094,4.3932,3.6362,2.894,4.3219,1.758,0.8207,0.5538,-1.5532,-1.0756,-2.4452,-1.7117,-0.9148,3.9505,3.5864
6.0814,4.0927,3.6052,3.1086,1.7964,2.2633,0.8482,0.0592,0.183,0.8265,-0.2933,-0.3013,-0.7276,-0.2397,4.7763,5.6433,4.4302,3.5738,2.9064,4.2748,1.5831,0.7703,0.5751,-1.3993,-1.1404,-2.4605,-1.6191,-0.9923,3.7973,3.6633
5.8822,3.9853,3.3413,3.0699,1.83,2.2981,1.1103,0.2556,0.4038,1.135,-0.2685,-0.323,-0.7405,-0.4736,4.8299,5.593,4.3986,3.5258,2.8835,4.1304,1.3275,0.6961,0.5692,-1.2829,-1.2826,-2.5318,-1.5558,-1.0598,3.7476,3.8366
5.6469,3.8681,3.1316,2.9915,1.8357,2.347,1.3026,0.4335,0.5947,1.4005,-0.2382,-0.3226,-0.774,-0.7374,4.8795,5.4425,4.2871,3.4843,2.8163,3.8868,1.0117,0.604,0.5353,-1.1802,-1.4826,-2.62,-1.4913,-1.0896,3.8059,4.0788
5.3644,3.7519,2.982,2.89,1.8369,2.426,1.4562,0.6068,0.7697,1.6441,-0.1785,-0.2709,-0.7896,-0.9853,4.8767,5.1896,4.0935,3.4427,2.7069,3.56,0.6745,0.5153,0.4863,-1.0532,-1.7045,-2.6763,-1.3859,-1.0549,3.962,4.3475
5.0261,3.6496,2.8901,2.7872,1.8585,2.5449,1.6034,0.7813,0.9377,1.8853,-0.0687,-0.1446,-0.7448,-1.1648,4.7811,4.8421,3.8245,3.3949,2.565,3.1764,0.3624,0.4586,0.4436,-0.8603,-1.9022,-2.6514,-1.2007,-0.9368,4.1902,4.5919
4.6259,3.5694,2.843,2.7012,1.9168,2.701,1.7682,0.9524,1.1006,2.1362,0.1036,0.0683,-0.604,-1.2299,4.5665,4.4134,3.4932,3.3357,2.4047,2.7645,0.1175,0.462,0.43,-0.5664,-2.027,-2.5045,-0.9061,-0.7281,4.4505,4.7625
4.1592,3.5078,2.8146,2.6379,2.0123,2.8761,1.9598,1.1069,1.2542,2.3974,0.3401,0.3661,-0.3485,-1.1527,4.2216,3.9165,3.1158,3.2591,2.2382,2.3465,-0.0337,0.5435,0.4632,-0.1526,-2.0363,-2.2098,-0.4893,-0.4331,4.6927,4.8198
3.6228,3.4446,2.7664,2.5857,2.1279,3.0377,2.1717,1.2269,1.3906,2.6588,0.6319,0.7341,0.019,-0.9311,3.7481,3.3576,2.7051,3.1557,2.0711,1.9309,-0.088,0.7044,0.5489,0.3779,-1.9018,-1.7602,0.0434,-0.0644,4.8611,4.7391
3.0131,3.3421,2.6508,2.5142,2.2301,3.1433,2.3834,1.295,1.5022,2.9033,0.9616,1.1483,0.4737,-0.5913,3.1549,2.7317,2.2641,3.0086,1.8969,1.5088,-0.0679,0.9252,0.6768,0.9982,-1.616,-1.1688,0.6669,0.3614,4.9001,4.5094
2.326,3.1504,2.4188,2.3799,2.2781,3.1493,2.5678,1.3008,1.5856,3.1127,1.3057,1.5799,0.9745,-0.1834,2.4499,2.0229,1.7818,2.7918,1.6962,1.0558,-0.0167,1.1678,0.8207,1.6619,-1.195,-0.4672,1.3418,0.8272,4.761,4.1291
1.557,2.8186,2.0314,2.1375,2.2344,3.0206,2.7003,1.2468,1.645,3.2744,1.6389,2.0007,1.473,0.2302,1.6346,1.2096,1.2356,2.4737,1.4407,0.5396,0.0131,1.3827,0.9431,2.3122,-0.6769,0.297,2.0206,1.3171,4.4095,3.6016
0.7032,2.311,1.4729,1.756,2.0788,2.7425,2.7684,1.151,1.6925,3.3864,1.9383,2.3875,1.9271,0.5908,0.7035,0.2768,0.6005,2.0247,1.1033,-0.0666,-0.0249,1.5222,1.0054,2.8937,-0.1158,1.0668,2.6558,1.8161,3.8343,2.9334
-0.2326,1.6224,0.7604,1.2329,1.8185,2.3284,2.7795,1.0463,1.7481,3.4611,2.1876,2.7254,2.3112,0.8597,-0.3491,-0.7716,-0.1376,1.43,0.6707,-0.7698,-0.1545,1.5548,0.9789,3.3647,0.4273,1.7824,3.2079,2.3084,3.0527,2.1348
-1.2366,0.7892,-0.0529,0.6036,1.4933,1.823,2.7626,0.9758,1.836,3.5246,2.3802,3.01,2.6253,1.03,-1.5163,-1.9023,-0.9678,0.7001,0.1551,-1.5463,-0.366,1.4783,0.8569,3.7061,0.8967,2.3902,3.6516,2.7766,2.1117,1.2248
-2.2779,-0.1104,-0.8859,-0.0584,1.1726,1.2989,2.7663,0.9842,1.981,3.6134,2.5216,3.2471,2.8954,1.1322,-2.7666,-3.0487,-1.8457,-0.122,-0.3991,-2.3377,-0.6132,1.325,0.6611,3.9259,1.2526,2.8501,3.9788,3.2014,1.0824,0.2347
-3.3046,-0.9666,-1.6444,-0.6525,0.9449,0.845,2.8497,1.1086,2.2034,3.7678,2.6277,3.451,3.1691,1.2281,-4.0376,-4.1168,-2.6947,-0.9635,-0.9179,-3.0571,-0.8201,1.1593,0.4413,4.0575,1.479,3.1422,4.1995,3.5638,0.0481,-0.7908
-4.2462,-1.6565,-2.242,-1.0689,0.9013,0.5513,3.0714,1.3706,2.5144,4.0237,2.7221,3.6416,3.5056,1.3992,-5.2393,-4.9988,-3.4183,-1.7325,-1.3095,-3.6032,-0.895,1.0658,0.2678,4.1527,1.5866,3.27,4.3392,3.8489,-0.9115,-1.7971
-5.0229,-2.0684,-2.6172,-1.2094,1.1186,0.4924,3.478,1.7714,2.9142,4.4055,2.832,3.841,3.9627,1.7287,-6.2681,-5.5918,-3.9184,-2.336,-1.4815,-3.8789,-0.7494,1.132,0.2185,4.2719,1.6098,3.2601,4.4341,4.0504,-1.7349,-2.7268
-5.5627,-2.123,-2.744,-1.0068,1.6447,0.7134,4.0946,2.2924,3.391,4.9211,2.9824,4.0699,4.5851,2.2845,-7.0276,-5.8158,-4.1158,-2.6977,-1.3596,-3.8097,-0.3148,1.4313,0.3631,4.4735,1.5989,3.1569,4.5251,4.1726,-2.3897,-3.5292
-5.8204,-1.7896,-2.6337,-0.4372,2.4896,1.2224,4.9202,2.8993,3.9233,5.56,3.1913,4.3439,5.3952,3.1058,-7.4523,-5.6295,-3.9654,-2.773,-0.9022,-3.3576,0.4441,2.0079,0.7501,4.804,1.6094,3.015,4.6511,4.2308,-2.874,-4.1684
-5.7936,-1.0915,-2.3283,0.4753,3.6233,1.9895,5.9267,3.5488,4.4821,6.294,3.4638,4.6691,6.388,4.1951,-7.5246,-5.0373,-3.4636,-2.5553,-0.1074,-2.5283,1.5228,2.8701,1.3974,5.2917,1.6903,2.8885,4.8421,4.2478,-3.2127,-4.6277
-5.5276,-0.1018,-1.8892,1.6633,4.9801,2.9537,7.0627,4.1962,5.0344,7.0798,3.7871,5.0382,7.5313,5.5173,-7.2819,-4.089,-2.6459,-2.0741,0.9872,-1.3689,2.8778,3.9895,2.2896,5.9424,1.8749,2.8209,5.1142,4.2471,-3.447,-4.9107
-5.1092,1.0712,-1.3857,3.0284,6.4688,4.0339,8.2596,4.8011,5.5454,7.8641,4.1288,5.4281,8.7701,7.0056,-6.8095,-2.8703,-1.5787,-1.3861,2.313,0.0403,4.4335,5.308,3.381,6.7401,2.1749,2.8384,5.4668,4.2469,-3.6236,-5.0378
-4.6485,2.3042,-0.8839,4.4587,7.9871,5.1438,9.4428,5.333,5.9831,8.591,4.4404,5.8024,10.0371,8.5732,-6.2226,-1.4875,-0.3451,-0.5628,3.7828,1.6007,6.095,6.7488,4.6048,7.6507,2.5806,2.9465,5.8838,4.2556,-3.7853,-5.0406
-4.2559,3.4806,-0.4386,5.8475,9.4375,6.205,10.5431,5.7745,6.3229,9.2114,4.6687,6.1193,11.2646,10.1284,-5.6415,-0.0484,0.9681,0.3219,5.3052,3.2121,7.7636,8.2303,5.8846,8.6292,3.0657,3.1335,6.3392,4.2723,-3.9644,-4.9566
-4.0196,4.5084,-0.0891,7.1098,10.7422,7.1579,11.5075,6.1227,6.553,9.6915,4.769,6.3426,12.3969,11.5898,-5.1668,1.3548,2.2827,1.2006,6.7979,4.788,9.3525,9.6779,7.1466,9.6276,3.5957,3.376,6.8042,4.2902,-4.1813,-4.8251
-3.9902,5.3323,0.1437,8.1924,11.8525,7.9672,12.3069,6.3887,6.6778,10.0193,4.7187,6.4528,13.3984,12.8983,-4.862,2.6581,3.5365,2.0172,8.1967,6.2664,10.7983,11.0333,8.3289,10.6022,4.1366,3.6475,7.2548,4.302,-4.4447,-4.6846
-4.1774,5.9368,0.2563,9.0772,12.7531,8.6222,12.9383,6.5949,6.7192,10.2071,4.5273,6.4543,14.2573,14.0231,-4.7494,3.8305,4.6861,2.7294,9.4592,7.614,12.0668,12.2584,9.3882,11.5195,4.6619,3.9241,7.6769,4.3043,-4.7556,-4.5716
-4.5563,6.3421,0.2602,9.7769,13.4592,9.1328,13.4221,6.7705,6.7136,10.2883,4.2378,6.3771,14.9831,14.9615,-4.817,4.8713,5.7063,3.3089,10.565,8.8241,13.152,13.3351,10.3016,12.3582,5.1556,4.1888,8.0682,4.3002,-5.1091,-4.5179
-5.0815,6.5942,0.1787,10.326,14.0082,9.5231,13.7939,6.9451,6.7045,10.3109,3.9196,6.2711,15.5999,15.7329,-5.0336,5.8026,6.5877,3.7429,11.5128,9.91,14.0703,14.2623,11.066,13.1096,5.6115,4.4329,8.4367,4.3001,-5.4965,-4.5481
-5.6997,6.7532,0.0416,10.7691,14.4478,9.8243,14.0944,7.142,6.7321,10.3254,3.6519,6.1929,16.1365,16.3699,-5.3617,6.6589,7.3347,4.0347,12.3159,10.897,14.8519,15.0517,11.6943,13.7736,6.0294,4.6535,8.7952,4.3185,-5.9059,-4.6758
-6.3577,6.8807,-0.1184,11.1496,14.8244,10.0673,14.3571,7.3721,6.8218,10.3721,3.5032,6.1894,16.6162,16.9068,-5.7658,7.4775,7.9624,4.2035,12.9981,11.8144,15.5311,15.7222,12.2096,14.3522,6.4095,4.8486,9.1529,4.3685,-6.3222,-4.9008
-7.005,7.0289,-0.269,11.5015,15.1722,10.277,14.599,7.6301,6.9765,10.4696,3.5109,6.2825,17.049,17.3714,-6.2123,8.2903,8.4942,4.2805,13.588,12.6888,16.1394,16.2949,12.6386,14.8428,6.7475,5.0106,9.5064,4.4539,-6.7271,-5.2083
-7.593,7.2334,-0.3801,11.8447,15.508,10.4697,14.817,7.8959,7.1747,10.6092,3.6717,6.4605,17.4281,17.7791,-6.667,9.118,8.9573,4.3018,14.114,13.5402,16.7004,16.7887,13.0049,15.2342,7.0321,5.1229,9.8342,4.5637,-7.1004,-5.5714
-8.0756,7.5101,-0.4252,12.1863,15.832,10.6526,14.9906,8.14,7.3763,10.7582,3.9432,6.6816,17.733,18.1329,-7.0929,9.9678,9.3776,4.2996,14.5992,14.3802,17.2285,17.2179,13.3247,15.5071,7.246,5.161,10.0986,4.6715,-7.4218,-5.9564
-8.4127,7.8557,-0.3836,12.5241,16.1328,10.8269,15.0901,8.3328,7.5342,10.87,4.2568,6.8862,17.9374,18.4277,-7.4515,10.8331,9.7747,4.2953,15.0576,15.2112,17.7298,17.5913,13.6053,15.6408,7.3704,5.0991,10.2544,4.7418,-7.6734,-6.3294
-8.5768,8.2524,-0.2427,12.8524,16.3949,10.9904,15.0882,8.4531,7.6068,10.8988,4.5371,7.014,18.0195,18.6561,-7.7074,11.6959,10.159,4.2958,15.4927,16.0277,18.2046,17.9136,13.8468,15.622,7.3915,4.9195,10.2619,4.7405,-7.8433,-6.662
-8.5608,8.6745,-0.0016,13.1663,16.6068,11.1417,14.9709,8.4941,7.5688,10.8136,4.7204,7.0221,17.9709,18.8148,-7.8338,12.5312,10.5315,4.2969,15.8998,16.8181,18.6498,18.1879,14.0459,15.4535,7.3064,4.6218,10.101,4.6477,-7.9272,-6.9353
-8.3819,9.0943,0.3274,13.464,16.7648,11.281,14.7433,8.4642,7.4173,10.6091,4.7702,6.8967,17.8026,18.9081,-7.8184,13.3118,10.8864,4.2889,16.2688,17.5664,19.0603,18.4179,14.2,15.1597,7.1271,4.2283,9.7804,4.4672,-7.93,-7.1405
-8.0818,9.4876,0.7185,13.7463,16.8741,11.4106,14.4308,8.385,7.1729,10.3081,4.6849,6.6574,17.5443,18.9478,-7.6671,14.0125,11.2133,4.2641,16.5884,18.2546,19.4296,18.609,14.3103,14.7847,6.8802,3.7827,9.3396,4.229,-7.8641,-7.2778
-7.7206,9.8351,1.1349,14.013,16.9449,11.5333,14.0749,8.286,6.8752,9.9581,4.4973,6.3526,17.239,18.9497,-7.4061,14.6128,11.5,4.2206,16.8489,18.8637,19.749,18.7668,14.3818,14.3856,6.6031,3.3424,8.8418,3.9838,-7.7476,-7.3545
-7.3668,10.1225,1.5341,14.2593,16.9876,11.6494,13.7242,8.1978,6.5754,9.6196,4.2664,6.0475,16.9339,18.9278,-7.0807,15.0972,11.7326,4.1621,17.0427,19.3739,20.0066,18.895,14.4212,14.0208,6.3359,2.9657,8.3599,3.7891,-7.6004,-7.3828
-7.0838,10.3383,1.8744,14.4733,17.0079,11.7559,13.4248,8.1465,6.3248,9.3519,4.0614,5.8069,16.6694,18.89,-6.749,15.4544,11.8954,4.0945,17.1635,19.7651,20.1868,18.9921,14.4344,13.7381,6.1139,2.6989,7.9601,3.6919,-7.4402,-7.3775
-6.9174,10.4732,2.1227,14.6364,17.0043,11.8458,13.21,8.1488,6.1643,9.1977,3.9426,5.6791,16.471,18.8352,-6.4711,15.676,11.971,4.0222,17.2061,20.0178,20.272,19.0512,14.4234,13.565,5.9594,2.5654,7.6874,3.7148,-7.2793,-7.3531
-6.8859,10.5211,2.2607,14.7285,16.9692,11.9106,13.0942,8.2095,6.1148,9.1727,3.945,5.6831,16.3445,18.755,-6.2962,15.7569,11.9435,3.9467,17.1664,20.116,20.247,19.0612,14.3872,13.5048,5.8784,2.5612,7.5567,3.8483,-7.1227,-7.3206
-6.9756,10.4836,2.2911,14.7364,16.8944,11.9443,13.0715,8.3222,6.1731,9.2625,4.069,5.8048,16.2781,18.6391,-6.2497,15.6983,11.8033,3.8688,17.0447,20.0529,20.105,19.0121,14.3239,13.538,5.8599,2.6567,7.5515,4.0533,-6.9679,-7.2837
-7.1439,10.3752,2.24,14.6623,16.7777,11.9482,13.1195,8.4722,6.3146,9.4282,4.282,6.002,16.2493,18.4827,-6.3255,15.5125,11.5536,3.7933,16.8491,19.8368,19.8543,18.9011,14.2349,13.6298,5.8802,2.8039,7.631,4.2709,-6.8062,-7.2376
-7.3268,10.2278,2.155,14.53,16.629,11.9334,13.2079,8.6407,6.5006,9.6182,4.5289,6.2161,16.2341,18.2935,-6.485,15.2272,11.2159,3.7328,16.5992,19.4957,19.5224,18.7373,14.1285,13.7387,5.9089,2.9475,7.7405,4.4373,-6.6252,-7.1689
-7.4522,10.0891,2.0968,14.3831,16.4723,11.9205,13.3078,8.8099,6.6885,9.7824,4.7472,6.387,16.2161,18.0929,-6.6635,14.8856,10.8301,3.7089,16.3264,19.0764,19.1547,18.5435,14.0213,13.8258,5.9164,3.0364,7.8255,4.4984,-6.4118,-7.0588
-7.455,10.0137,2.1252,14.2757,16.3408,11.9344,13.3985,8.9653,6.8418,9.884,4.8833,6.4667,16.1899,17.9131,-6.7847,14.5412,10.4499,3.7484,16.0694,18.6385,18.8069,18.3518,13.9347,13.8615,5.8797,3.0325,7.8423,4.4211,-6.1572,-6.8896
-7.2905,10.0479,2.2827,14.256,16.2683,11.9962,13.4702,9.0971,6.9364,9.9051,4.9031,6.4285,16.1604,17.7876,-6.7774,14.2472,10.1313,3.8758,15.8666,18.2419,18.5332,18.1957,13.8897,13.8284,5.7865,2.9166,7.7656,4.1983,-5.8614,-6.6509
-6.9436,10.2141,2.5813,14.3509,16.278,12.1151,13.5223,9.1994,6.9625,9.8469,4.7989,6.27,16.1375,17.7414,-6.5933,14.0435,9.9199,4.1045,15.7466,17.9344,18.3733,18.1012,13.9001,13.7218,5.6369,2.6892,7.5904,3.8479,-5.536,-6.345
-6.4308,10.4999,2.9969,14.5555,16.3743,12.2833,13.5589,9.2698,6.9243,9.7255,4.5891,6.0117,16.13,17.7829,-6.2195,13.9471,9.8385,4.4292,15.7209,17.741,18.3425,18.0792,13.9679,13.5474,5.4422,2.3693,7.3308,3.408,-5.2037,-5.9889
-5.7972,10.8584,3.4731,14.8323,16.5405,12.4764,13.5846,9.3084,6.8369,9.5661,4.314,5.6915,16.1409,17.9011,-5.6826,13.9479,9.8809,4.824,15.7795,17.6597,18.4288,18.1222,14.0821,13.3196,5.2225,1.9899,7.0161,2.9303,-4.8949,-5.6116
-5.1065,11.2193,3.9351,15.1206,16.7415,12.6591,13.6008,9.3172,6.721,9.397,4.0273,5.3584,16.1653,18.0681,-5.0433,14.0114,10.0126,5.2455,15.8929,17.663,18.5963,18.2065,14.2207,13.0582,5.0022,1.5921,6.6851,2.4724,-4.6407,-5.2481
-4.4296,11.5075,4.3062,15.3525,16.9323,12.7935,13.6035,9.2992,6.5982,9.2436,3.7843,5.0632,16.1917,18.2456,-4.3826,14.0875,10.1779,5.6407,16.0179,17.7058,18.7936,18.2974,14.3552,12.7861,4.805,1.2189,6.3791,2.0895,-4.4649,-4.9317
-3.8307,11.6625,4.5256,15.4695,17.0671,12.8481,13.5828,9.2569,6.4848,9.1232,3.629,4.8485,16.2039,18.3924,-3.7831,14.1221,10.3127,5.9573,16.1058,17.7354,18.9643,18.3567,14.4562,12.5246,4.6489,0.9067,6.1339,1.8242,-4.3782,-4.6857
-3.3575,11.6518,4.5609,15.435,17.1088,12.8037,13.5244,9.1911,6.3888,9.0411,3.5833,4.7393,16.1844,18.4715,-3.3116,14.0671,10.3567,6.1539,16.1112,17.7011,19.0578,18.3492,14.4982,12.2899,4.5427,0.6799,5.9723,1.698,-4.375,-4.518
-3.0352,11.4745,4.4129,15.2403,17.0345,12.656,13.4125,9.1006,6.3084,8.9896,3.642,4.7384,16.1179,18.4567,-3.0073,13.8881,10.265,6.2074,15.9999,17.5627,19.0375,18.2486,14.4628,12.0902,4.4841,0.5478,5.9005,1.7069,-4.4339,-4.4191
-2.8656,11.155,4.1128,14.9031,16.839,12.4145,13.2349,8.9839,6.2345,8.9513,3.7753,4.8276,15.9957,18.3365,-2.8782,13.5688,10.0149,6.117,15.7543,17.2968,18.8861,18.0419,14.3411,11.9261,4.4618,0.5068,5.9092,1.824,-4.5231,-4.3646
-2.8326,10.7327,3.7129,14.4601,16.5344,12.0995,12.9881,8.8412,6.1554,8.9056,3.9385,4.9746,15.8189,18.1169,-2.9049,13.1123,9.6096,5.9043,15.3768,16.9007,18.6081,17.7316,14.1348,11.7932,4.4587,0.5447,5.9788,2.008,-4.6085,-4.3218
-2.9101,10.2492,3.2733,13.9579,16.147,11.7368,12.6811,8.6759,6.0621,8.8353,4.0849,5.1425,15.6,17.8209,-3.0503,12.5405,9.076,5.6088,14.8895,16.3932,18.2281,17.3359,13.8552,11.6861,4.457,0.6472,6.0872,2.2144,-4.6625,-4.259
-3.0712,9.7407,2.8485,13.4434,15.7121,11.3529,12.3354,8.4956,5.9516,8.7329,4.1774,5.2998,15.3616,17.4843,-3.2714,11.8901,8.46,5.2789,14.3311,15.8111,17.7859,16.8854,13.5216,11.6012,4.4414,0.8007,6.2152,2.4054,-4.6715,-4.1556
-3.2954,9.2336,2.4774,12.9559,15.2665,10.9706,11.9826,8.3106,5.8285,8.6027,4.1968,5.4255,15.1325,17.1489,-3.5304,11.2073,7.8183,4.9614,13.7494,15.2024,17.3277,16.4177,13.1571,11.5379,4.4021,0.9938,6.3503,2.5568,-4.6396,-4.01
-3.5716,8.7456,2.1782,12.5225,14.8428,10.607,11.658,8.1323,5.7035,8.4598,4.1445,5.5123,14.9413,16.8532,-3.8024,10.5403,7.2087,4.6922,13.1936,14.6165,16.8977,15.9699,12.784,11.4977,4.335,1.2156,6.486,2.6593,-4.5861,-3.8409
-3.8965,8.2889,1.9505,12.1572,14.4645,10.2731,11.3941,7.9722,5.5916,8.3266,4.0415,5.565,14.8103,16.6247,-4.0789,9.9314,6.6809,4.4899,12.7044,14.0938,16.5284,15.571,12.4205,11.4813,4.2421,1.4554,6.6206,2.7182,-4.5378,-3.6831
-4.27,7.8744,1.7815,11.8618,14.1442,9.9752,11.2142,7.8408,5.5093,8.2273,3.9231,5.5981,14.7507,16.4744,-4.3661,9.4094,6.2684,4.3547,12.3072,13.658,16.2363,15.2365,12.077,11.4866,4.1298,1.702,6.7543,2.75,-4.5202,-3.5772
-4.6885,7.514,1.6551,11.6305,13.8842,9.7174,11.1283,7.7468,5.4714,8.1815,3.8317,5.6311,14.76,16.3963,-4.6773,8.9858,5.9835,4.2719,12.0082,13.3133,16.0199,14.9662,11.7562,11.5074,4.0078,1.9445,6.8873,2.7773,-4.5486,-3.5566
-5.1386,7.2224,1.5595,11.4545,13.6805,9.5036,11.1316,7.6951,5.4871,8.1994,3.8063,5.683,14.8233,16.3711,-5.0229,8.6565,5.818,4.2192,11.7959,13.048,15.8643,14.7463,11.4545,11.5324,3.886,2.1731,7.0168,2.8227,-4.6232,-3.637
-5.5933,7.0162,1.4922,11.3269,13.5266,9.3396,11.2058,7.6856,5.5568,8.2775,3.8716,5.7667,14.9162,16.3737,-5.3999,8.4076,5.7483,4.1755,11.6483,12.8433,15.7492,14.556,11.1654,11.5476,3.7723,2.3781,7.1367,2.9027,-4.7281,-3.811
-6.0112,6.9119,1.4605,11.2468,13.4183,9.2326,11.3234,7.7118,5.6701,8.3986,4.0305,5.8839,15.0112,16.3819,-5.7857,8.2248,5.746,4.1286,11.5428,12.684,15.6581,14.3762,10.8847,11.5386,3.6707,2.5496,7.2365,3.0234,-4.8343,-4.0481
-6.3411,6.9236,1.4792,11.2202,13.3558,9.1911,11.4543,7.7619,5.8064,8.535,4.2608,6.0246,15.0834,16.3834,-6.139,8.1022,5.7877,4.0806,11.4662,12.5668,15.5852,14.1987,10.616,11.4951,3.5807,2.6766,7.3036,3.1779,-4.905,-4.2999
-6.531,7.0597,1.5641,11.2586,13.3444,9.2218,11.5717,7.821,5.9383,8.6546,4.5202,6.1678,15.1167,16.3792,-6.4055,8.0456,5.863,4.0481,11.4204,12.5033,15.5385,14.0312,10.373,11.4136,3.4983,2.7474,7.3249,3.3469,-4.9032,-4.5101
-6.5384,7.3196,1.7262,11.3737,13.3921,9.3277,11.6572,7.8743,6.0378,8.7283,4.7563,6.2875,15.1064,16.3819,-6.5298,8.0707,5.9756,4.0586,11.421,12.5153,15.536,13.8965,10.1792,11.2997,3.4183,2.7518,7.2906,3.5014,-4.7988,-4.6252
-6.3422,7.6901,1.9657,11.5709,13.5051,9.504,11.7031,7.9102,6.082,8.7364,4.92,6.3589,15.0587,16.4092,-6.4688,8.1946,6.1384,4.1408,11.4896,12.6253,15.5982,13.8252,10.0623,11.1667,3.3378,2.6844,7.1967,3.6085,-4.576,-4.6058
-5.9503,8.1416,2.2693,11.8425,13.6823,9.7363,11.7112,7.9215,6.0578,8.6728,4.9772,6.3644,14.9873,16.4759,-6.203,8.4256,6.3636,4.3152,11.6421,12.8445,15.7377,13.8445,10.0461,11.0322,3.2582,2.549,7.0476,3.6394,-4.2377,-4.4342
-5.4015,8.629,2.6116,12.1644,13.9114,9.9998,11.6892,7.9054,5.9644,8.5449,4.9163,6.2987,14.9076,16.5863,-5.7435,8.7546,6.6529,4.5851,11.879,13.1643,15.9519,13.9671,10.1422,10.9139,3.1866,2.3611,6.857,3.5782,-3.8059,-4.1168
-4.7588,9.0957,2.9601,12.4986,14.1691,10.262,11.6474,7.8616,5.8126,8.3715,4.7494,6.1693,14.8322,16.731,-5.1308,9.1529,6.9924,4.9343,12.1809,13.5545,16.2196,14.1847,10.3443,10.8244,3.1347,2.1478,6.6463,3.4273,-3.3176,-3.6813
-4.0967,9.4841,3.2823,12.8012,14.4242,10.4882,11.5943,7.7916,5.6219,8.1778,4.5076,5.9941,14.7666,16.8878,-4.4261,9.5775,7.3534,5.3297,12.5112,13.9686,16.5048,14.4673,10.6271,10.768,3.1154,1.9422,6.44,3.2075,-2.8166,-3.1688
-3.4848,9.7477,3.5521,13.0334,14.6441,10.6485,11.5359,7.6975,5.4165,7.9895,4.232,5.7965,14.7094,17.0282,-3.6975,9.9806,7.6985,5.7288,12.8247,14.3552,16.7648,14.7696,10.9496,10.7394,3.1376,1.775,6.2599,2.9522,-2.3444,-2.6257
-2.9739,9.8613,3.7546,13.1715,14.8026,10.724,11.4754,7.5828,5.2205,7.8288,3.9634,5.6,14.6549,17.1246,-3.0073,10.3207,7.9895,6.0884,13.0782,14.6696,16.9606,15.0411,11.2618,10.7258,3.2024,1.6666,6.1201,2.6983,-1.932,-2.0958
-2.589,9.827,3.8876,13.2121,14.8847,10.7103,11.4154,7.4531,5.0553,7.7118,3.7352,5.4251,14.5969,17.1588,-2.403,10.5703,8.1945,6.3715,13.2393,14.8831,17.0662,15.2372,11.5144,10.711,3.3012,1.6222,6.025,2.4783,-1.5952,-1.615
-2.3304,9.6716,3.9594,13.1702,14.8893,10.6169,11.3595,7.3172,4.9372,7.6477,3.5685,5.2878,14.5338,17.1254,-1.9159,10.7177,8.2917,6.5517,13.2918,14.9861,17.0734,15.3284,11.6669,10.6811,3.4176,1.6321,5.9711,2.3152,-1.3347,-1.2092
-2.1829,9.438,3.9843,13.072,14.8265,10.4637,11.3127,7.1866,4.8764,7.6397,3.472,5.2003,14.4693,17.0324,-1.5652,10.7649,8.2707,6.6149,13.2359,14.9862,16.9915,15.3043,11.6949,10.6289,3.5314,1.6765,5.9511,2.2207,-1.1399,-0.8951
-2.1262,9.1726,3.9766,12.9445,14.712,10.2743,11.28,7.0733,4.8763,7.6852,3.444,5.1711,14.4109,16.896,-1.3627,10.722,8.1321,6.5597,13.0846,14.9017,16.8419,15.1732,11.5929,10.5545,3.624,1.7319,5.9574,2.1972,-0.9945,-0.6813
-2.1433,8.9135,3.9465,12.8064,14.5604,10.0697,11.2634,6.9871,4.9329,7.7752,3.4751,5.2047,14.3651,16.7342,-1.3156,10.602,7.886,6.3966,12.8588,14.7545,16.6498,14.9563,11.3732,10.4639,3.6821,1.7779,5.9841,2.2397,-0.8826,-0.5693
-2.2224,8.6831,3.8991,12.6636,14.3802,9.8637,11.2582,6.9325,5.0348,7.8943,3.551,5.2996,14.3317,16.56,-1.4229,10.4182,7.5517,6.1468,12.5818,14.564,16.4363,14.6806,11.0619,10.3633,3.6997,1.8002,6.0254,2.3368,-0.7918,-0.5527
-2.3519,8.4872,3.8366,12.5096,14.1722,9.6608,11.2522,6.9071,5.1636,8.0204,3.6541,5.4471,14.3004,16.3774,-1.6689,10.1835,7.1568,5.8404,12.2759,14.3442,16.2133,14.3706,10.6916,10.2542,3.6769,1.7916,6.0726,2.4717,-0.7139,-0.6161
-2.5135,8.3203,3.7622,12.3321,13.932,9.4585,11.2257,6.9021,5.2958,8.126,3.7639,5.6291,14.2507,16.1816,-2.0149,9.9125,6.7367,5.5137,11.9605,14.1038,15.9817,14.0442,10.2947,10.1297,3.6171,1.7507,6.112,2.6229,-0.6435,-0.7347
-2.6756,8.1744,3.6836,12.1206,13.656,9.252,11.1565,6.904,5.4062,8.1817,3.8579,5.8199,14.1567,15.962,-2.3965,9.6234,6.3319,5.2044,11.6514,13.8485,15.7356,13.7107,9.8977,9.9744,3.5248,1.6809,6.1241,2.7662,-0.5752,-0.8766
-2.7937,8.0477,3.6141,11.8749,13.3475,9.0396,11.0249,6.8984,5.4716,8.1611,3.9132,5.9887,13.9939,15.7084,-2.7298,9.339,5.985,4.9459,11.3615,13.5845,15.4677,13.373,9.5187,9.7691,3.4033,1.5889,6.087,2.8789,-0.5019,-1.0076
-2.8164,7.9495,3.571,11.6081,13.0198,8.8257,10.8205,6.8737,5.4751,8.0458,3.9091,6.1053,13.7473,15.417,-2.926,9.0851,5.7341,4.7624,11.1018,13.3207,15.1759,13.0314,9.1674,9.4971,3.2552,1.4834,5.9814,2.9429,-0.4133,-1.0975
-2.6979,7.8982,3.5707,11.3452,12.6956,8.6208,10.5447,6.8224,5.4084,7.83,3.8311,6.1446,13.4166,15.0942,-2.9124,8.8865,5.6073,4.6652,10.8815,13.0697,14.8673,12.6877,8.8474,9.152,3.0832,1.3739,5.7957,2.9483,-0.2976,-1.1266
-2.4092,7.9157,3.6235,11.1159,12.4008,8.4371,10.2113,6.7407,5.2729,7.5212,3.6721,6.0906,13.0177,14.7565,-2.6517,8.7621,5.6165,4.6526,10.7077,12.8456,14.5582,12.3478,8.5592,8.7413,2.8912,1.2681,5.5301,2.8929,-0.1451,-1.0887
-1.9479,8.0177,3.7287,10.9462,12.156,8.2832,9.8416,6.6261,5.0779,7.1383,3.4331,5.9376,12.5785,14.4261,-2.1536,8.72,5.7538,4.7127,10.5839,12.6608,14.2699,12.0207,8.3019,8.2867,2.6863,1.1704,5.1967,2.7816,0.0476,-0.9917
-1.3407,8.2052,3.873,10.8489,11.969,8.1586,9.4593,6.475,4.8374,6.7074,3.1225,5.6905,12.1321,14.124,-1.474,8.7545,5.9918,4.8268,10.5074,12.5216,14.0216,11.7158,8.0738,7.8193,2.4781,1.0807,4.8179,2.6235,0.2728,-0.8542
-0.6395,8.4598,4.0326,10.8191,11.8309,8.0523,9.084,6.2825,4.5678,6.2568,2.7549,5.3636,11.7082,13.8619,-0.7029,8.8463,6.2864,4.9738,10.4678,12.4249,13.823,11.4392,7.8717,7.3727,2.2788,0.9957,4.4219,2.4298,0.5106,-0.7012
0.0882,8.7448,4.1784,10.8343,11.7174,7.9451,8.7289,6.0454,4.2855,5.8133,2.3508,4.9801,11.3267,13.6388,0.0566,8.9656,6.5839,5.1321,10.4471,12.3576,13.6708,11.191,7.6905,6.9762,2.1009,0.9105,4.0388,2.2126,0.7328,-0.5574
0.7715,9.012,4.2827,10.8604,11.5963,7.8151,8.401,5.7671,4.0065,5.4,1.9368,4.5709,10.9953,13.4408,0.711,9.0787,6.8316,5.2811,10.4216,12.2994,13.5487,10.9644,7.523,6.6503,1.9549,0.8215,3.6966,1.9851,0.9107,-0.4428
1.3498,9.2137,4.3257,10.862,11.4379,7.6455,8.1042,5.4619,3.747,5.0365,1.5443,4.1724,10.7115,13.2477,1.1953,9.1554,6.9876,5.402,10.3674,12.2281,13.4333,10.7492,7.3612,6.4046,1.8481,0.7286,3.4191,1.762,1.0239,-0.3698
1.7817,9.3159,4.2991,10.8123,11.225,7.4309,7.8433,5.1561,3.5234,4.7394,1.2075,3.8242,10.4677,13.0408,1.4841,9.1765,7.0302,5.4779,10.2661,12.1259,13.3018,10.5353,7.1991,6.2397,1.7832,0.637,3.2241,1.5601,1.0661,-0.3429
2.0513,9.3072,4.2061,10.7011,10.9585,7.1795,7.6263,4.8843,3.3523,4.5218,0.9594,3.5632,10.2566,12.8103,1.5918,9.1379,6.9618,5.4962,10.1099,11.9849,13.1395,10.3182,7.0352,6.1494,1.76,0.5575,3.1225,1.3972,1.0449,-0.3615
2.1667,9.2016,4.0593,10.5361,10.6569,6.9111,7.463,4.6818,3.2469,4.3923,0.8257,3.4186,10.0745,12.5588,1.5637,9.0504,6.8073,5.4499,9.9038,11.8087,12.943,10.1001,6.8734,6.1232,1.7763,0.5045,3.1168,1.2902,0.9761,-0.4232
2.1561,9.0324,3.875,10.3388,10.3494,6.6501,7.3606,4.5742,3.2138,4.3517,0.8192,3.4048,9.9209,12.2993,1.4598,8.9355,6.6065,5.3392,9.6634,11.6101,12.7201,9.8899,6.7221,6.1476,1.83,0.4931,3.1998,1.251,0.8759,-0.5262
2.0599,8.8411,3.6695,10.136,10.0663,6.4182,7.3188,4.5699,3.2497,4.3916,0.9361,3.518,9.7957,12.0492,1.3381,8.8178,6.403,5.1716,9.4097,11.4059,12.4847,9.6991,6.5913,6.2063,1.9189,0.5344,3.3543,1.2829,0.7553,-0.67
1.9226,8.6641,3.4549,9.9502,9.8291,6.2285,7.3255,4.6554,3.3396,4.4932,1.1549,3.735,9.6955,11.8229,1.2404,8.7178,6.2322,4.9598,9.1622,11.2107,12.251,9.536,6.4881,6.2794,2.0392,0.6308,3.5535,1.3777,0.6185,-0.8545
1.7844,8.5223,3.2391,9.7931,9.6444,6.082,7.3566,4.7975,3.458,4.6291,1.4398,4.016,9.6101,11.6257,1.1854,8.6459,6.1125,4.719,8.9324,11.0317,12.0275,9.4012,6.4122,6.3435,2.1823,0.7725,3.7626,1.5149,0.465,-1.0775
1.6759,8.4162,3.0261,9.6623,9.5028,5.9691,7.3796,4.9495,3.5732,4.7676,1.746,4.3105,9.5227,11.4512,1.1703,8.5996,6.0408,4.4642,8.721,10.8662,11.8145,9.2846,6.3543,6.3732,2.3328,0.9378,3.9434,1.6644,0.2944,-1.3342
1.6145,8.329,2.8182,9.5437,9.3827,5.8732,7.3605,5.0621,3.6522,4.8774,2.0271,4.5666,9.4119,11.283,1.1785,8.5655,5.9948,4.2077,8.5182,10.7034,11.6039,9.1664,6.2962,6.3446,2.4688,1.0969,4.0598,1.791,0.1104,-1.6162
1.6053,8.2348,2.6173,9.4169,9.2564,5.7762,7.271,5.0938,3.6678,4.9334,2.2437,4.7403,9.2565,11.0996,1.1906,8.5242,5.9397,3.9573,8.3076,10.5287,11.383,9.0217,6.2146,6.2398,2.5661,1.219,4.0842,1.8625,-0.0785,-1.9133
1.6434,8.1077,2.425,9.2612,9.098,5.6636,7.0952,5.0203,3.6034,4.9209,2.3698,4.8044,9.0407,10.8802,1.1933,8.457,5.8391,3.717,8.0723,10.3288,11.1387,8.8264,6.0874,6.0517,2.6039,1.2815,4.0041,1.8569,-0.2593,-2.2136
1.717,7.9308,2.2429,9.0615,8.8893,5.5273,6.8329,4.8388,3.4567,4.837,2.3961,4.7528,8.7582,10.611,1.1833,8.352,5.6651,3.4877,7.8007,10.0968,10.8621,8.5643,5.8991,5.7863,2.5711,1.2769,3.8246,1.769,-0.4182,-2.5049
1.811,7.701,2.0714,8.8127,8.6247,5.3679,6.5001,4.5677,3.2402,4.6902,2.3292,4.6011,8.4154,10.2896,1.1662,8.2088,5.4082,3.2699,7.4917,9.8353,10.5526,8.2325,5.6465,5.4639,2.471,1.217,3.5699,1.6134,-0.5419,-2.7747
1.91,7.4316,1.9104,8.5226,8.3129,5.1954,6.1267,4.242,2.979,4.4989,2.1893,4.3822,8.0325,9.9277,1.1529,8.04,5.082,3.0664,7.158,9.5576,10.2203,7.8457,5.3414,5.117,2.3219,1.1327,3.28,1.4237,-0.6206,-3.0115
2.0034,7.1515,1.7598,8.2135,7.9785,5.0289,5.7529,3.9065,2.7069,4.2882,2.0059,4.1395,7.6434,9.5524,1.1557,7.8711,4.7245,2.8848,6.826,9.2881,9.8874,7.4359,5.0106,4.7876,2.1538,1.0679,3.0045,1.2462,-0.6483,-3.2054
2.0894,6.9031,1.621,7.9215,7.6587,4.8947,5.4239,3.6075,2.4614,4.0874,1.8136,3.9183,7.2924,9.2043,1.1874,7.7374,4.3922,2.7387,6.5333,9.0604,9.5874,7.0498,4.6927,4.5203,2.0009,1.0694,2.7936,1.129,-0.6232,-3.3488
2.1792,6.7362,1.5002,7.692,7.3984,4.8231,5.1836,3.3858,2.2776,3.9262,1.647,3.7568,7.0279,8.9316,1.2627,7.6788,4.1499,2.6464,6.3224,8.9129,9.3607,6.7404,4.4311,4.3551,1.8934,1.1734,2.6874,1.1084,-0.5449,-3.4354
2.2975,6.701,1.4108,7.5727,7.2425,4.8427,5.068,3.2696,2.1818,3.8298,1.536,3.6783,6.8937,8.7817,1.3991,7.7323,4.0566,2.6273,6.2317,8.8827,9.2479,6.5573,4.265,4.3185,1.8494,1.3944,2.7061,1.1981,-0.4113,-3.4598
2.4778,6.8376,1.3744,7.6035,7.2265,4.974,5.0978,3.2698,2.1859,3.815,1.5003,3.6872,6.9184,8.7895,1.6163,7.9238,4.1511,2.6971,6.2859,8.9978,9.2803,6.5349,4.2212,4.4167,1.8707,1.7188,2.8454,1.3838,-0.2169,-3.4167
2.7548,7.1664,1.4168,7.8067,7.368,5.2225,5.2736,3.3781,2.2849,3.8862,1.5453,3.7692,7.1075,8.9684,1.9329,8.2612,4.4416,2.862,6.4893,9.2694,9.4717,6.6844,4.3073,4.6333,1.9443,2.1073,3.0767,1.627,0.0468,-3.3034
3.1538,7.6812,1.5605,8.1803,7.6619,5.5751,5.5748,3.5684,2.4575,4.0351,1.6615,3.896,7.4407,9.3046,2.3614,8.7301,4.9026,3.116,6.823,9.6877,9.8132,6.99,4.5106,4.9326,2.0478,2.5047,3.3555,1.8758,0.3871,-3.121
3.6833,8.3478,1.8147,8.6962,8.0799,5.9995,5.962,3.8022,2.6708,4.2422,1.8268,4.0331,7.8741,9.7579,2.9043,9.2951,5.4802,3.4417,7.2481,10.2212,10.2731,7.4111,4.801,5.2674,2.1576,2.8541,3.6323,2.0786,0.8061,-2.8757
4.3299,9.1073,2.1691,9.3035,8.5742,6.449,6.3837,4.0366,2.8879,4.4804,2.0119,4.1484,8.3488,10.2692,3.5488,9.9034,6.103,3.8133,7.7121,10.8196,10.8011,7.8901,5.1373,5.5905,2.2559,3.1109,3.8646,2.1971,1.297,-2.5788
5.0581,9.8848,2.5925,9.9365,9.0854,6.8716,6.7854,4.232,3.0744,4.7196,2.1866,4.2188,8.8027,10.7709,4.2644,10.4924,6.696,4.202,8.1587,11.4193,11.3359,8.3623,5.4753,5.8636,2.3352,3.2523,4.0251,2.213,1.844,-2.2452
5.8158,10.5996,3.039,10.5249,9.5523,7.2201,7.1193,4.3602,3.2051,4.9304,2.325,4.2334,9.1815,11.1996,5.004,10.9986,7.193,4.581,8.5362,11.9527,11.8147,8.7678,5.7753,6.0637,2.3979,3.2796,4.105,2.1288,2.4242,-1.8916
6.5445,11.1781,3.4573,11.0049,9.9208,7.4613,7.3508,4.4082,3.2664,5.0878,2.4093,4.1928,9.4472,11.5061,5.7127,11.3679,7.5473,4.9296,8.8056,12.3574,12.1821,9.0608,6.0076,6.1837,2.4524,3.2143,4.111,1.9634,3.0107,-1.5338
7.191,11.5662,3.8032,11.3287,10.1518,7.581,7.4625,4.3795,3.2565,5.1729,2.4302,4.1057,9.5817,11.6618,6.3412,11.5652,7.7372,5.2361,8.9462,12.587,12.3983,9.2164,6.1561,6.2286,2.5084,3.0882,4.0592,1.7448,3.5757,-1.1841
7.7183,11.7383,4.048,11.4716,10.2251,7.5834,7.4537,4.2913,3.1832,5.1734,2.3862,3.9849,9.5855,11.6601,6.8596,11.5817,7.7676,5.4986,8.9581,12.6194,12.4435,9.2322,6.2187,6.2097,2.5717,2.9346,3.9677,1.5035,4.0924,-0.8494
8.1117,11.7029,4.1835,11.4344,10.1414,7.4874,7.3366,4.1685,3.0597,5.0846,2.2824,3.8433,9.4732,11.5148,7.2671,11.4373,7.6675,5.7236,8.8608,12.4617,12.3208,9.1266,6.2051,6.1388,2.6422,2.7802,3.8511,1.2676,4.5381,-0.5318
8.3816,11.5014,4.2224,11.2439,9.9213,7.3207,7.1323,4.0374,2.9014,4.909,2.1295,3.6917,9.2681,11.2547,7.5918,11.1785,7.4837,5.9229,8.6897,12.1503,12.0547,8.9339,6.1342,6.0256,2.7138,2.6413,3.7179,1.06,4.8982,-0.2298
8.5597,11.2014,4.1939,10.9487,9.6029,7.1155,6.8664,3.9194,2.7232,4.6573,1.944,3.5386,8.9968,10.9188,7.8824,10.8708,7.2727,6.1097,8.4891,11.7454,11.688,8.6967,6.0292,5.8771,2.777,2.5242,3.5718,0.8959,5.1701,0.0589
8.6922,10.8841,4.138,10.6114,9.2365,6.9042,6.5671,3.8278,2.5392,4.3479,1.7481,3.3913,8.6866,10.5491,8.1927,10.5857,7.0901,6.2942,8.3037,11.3199,11.2743,8.4582,5.9143,5.6993,2.8221,2.4272,3.4141,0.7824,5.3647,0.3354
8.8296,10.6282,4.0963,10.2981,8.877,6.7167,6.2623,3.7672,2.3628,4.0065,1.5672,3.2573,8.3623,10.1849,8.5659,10.3869,6.9805,6.4812,8.17,10.9451,10.869,8.255,5.8103,5.4995,2.8422,2.3457,3.2473,0.7183,5.504,0.5985
9.0171,10.4944,4.103,10.0662,8.5746,6.5769,5.9789,3.7361,2.2078,3.6633,1.4272,3.1447,8.0463,9.8575,9.0228,10.3173,6.97,6.6692,8.1099,10.6768,10.5193,8.1112,5.7325,5.2886,2.8349,2.275,3.0781,0.6956,5.616,0.8449
9.2884,10.5146,4.177,9.9544,8.3665,6.5001,5.7406,3.7308,2.0888,3.3501,1.3493,3.063,7.7578,9.5876,9.5595,10.392,7.063,6.8529,8.128,10.5458,10.2578,8.037,5.6895,5.0813,2.8035,2.2136,2.9176,0.7022,5.7273,1.0712
9.6621,10.6876,4.3163,9.9765,8.2716,6.4914,5.5665,3.7486,2.0205,3.0965,1.3463,3.0214,7.513,9.3847,10.1528,10.5981,7.2449,7.0275,8.2148,10.5555,10.0985,8.0292,5.6836,4.8951,2.7557,2.1626,2.7806,0.7255,5.857,1.2769
10.1426,10.9828,4.4988,10.1204,8.2885,6.5468,5.468,3.7899,2.0153,2.9257,1.419,3.0263,7.3238,9.2484,10.7708,10.9012,7.488,7.1917,8.3508,10.6853,10.0382,8.0755,5.7125,4.7476,2.7021,2.1247,2.6823,0.755,6.013,1.4658
10.7207,11.3483,4.6867,10.3521,8.3976,6.6536,5.4468,3.8561,2.0791,2.85,1.5553,3.0791,7.1969,9.1708,11.3843,11.2549,7.7605,7.3496,8.514,10.8979,10.0595,8.159,5.7699,4.6523,2.6538,2.1022,2.6335,0.7848,6.191,1.6461
11.3764,11.7238,4.8378,10.623,8.5657,6.7937,5.493,3.947,2.2081,2.868,1.7314,3.1727,7.1314,9.1384,11.974,11.6111,8.0336,7.5101,8.6843,11.1483,10.1353,8.2618,5.8477,4.6139,2.6195,2.0944,2.6365,0.8138,6.3759,1.8281
12.0816,12.0528,4.9165,10.8797,8.7535,6.9453,5.5853,4.0567,2.3859,2.9634,1.9156,3.2913,7.1176,9.1342,12.5338,11.9287,8.2873,7.6857,8.8466,11.3917,10.2338,8.3676,5.9362,4.6246,2.6037,2.0967,2.6818,0.8436,6.5462,2.0205
12.8032,12.2939,4.9049,11.0743,8.9219,7.0858,5.694,4.1724,2.5856,3.1073,2.0737,3.4112,7.1372,9.139,13.0669,12.1786,8.5108,7.8871,8.9904,11.5893,10.3227,8.4623,6.0242,4.6635,2.6057,2.0995,2.7479,0.8757,6.6794,2.2267
13.505,12.427,4.8074,11.1726,9.0385,7.1941,5.7858,4.2752,2.7735,3.2635,2.1764,3.5049,7.165,9.1327,13.5786,12.345,8.6996,8.1184,9.1077,11.7118,10.3728,8.5332,6.0992,4.6987,2.6205,2.0902,2.8048,0.9091,6.756,2.4414
14.1496,12.4539,4.6485,11.1577,9.0804,7.2524,5.8303,4.3447,2.9166,3.396,2.2042,3.5473,7.1728,9.0957,14.0678,12.4226,8.851,8.3716,9.1896,11.7406,10.3598,8.5679,6.1479,4.6949,2.6406,2.0556,2.8196,0.9385,6.7637,2.6499
14.7006,12.3936,4.463,11.0303,9.0353,7.2473,5.8055,4.3641,2.99,3.4764,2.1511,3.5207,7.1345,9.0107,14.5212,12.4133,8.9598,8.6244,9.2254,11.6666,10.2664,8.5547,6.1571,4.6211,2.6585,1.9857,2.7648,0.9551,6.6988,2.83
15.1253,12.2739,4.2839,10.8049,8.9002,7.1713,5.7025,4.3257,2.9827,3.4895,2.0256,3.4203,7.0308,8.8645,14.9123,12.3224,9.0165,8.8426,9.2028,11.4903,10.0834,8.4839,6.1162,4.4603,2.6687,1.8764,2.6255,0.9481,6.5665,2.9565
15.3969,12.1208,4.1302,10.5035,8.6797,7.0233,5.5275,4.2342,2.9002,3.4367,1.8487,3.2556,6.8549,8.652,15.2056,12.1562,9.0088,8.9858,9.1108,11.22,9.8113,8.3497,6.0192,4.2153,2.6689,1.7311,2.4047,0.9072,6.3797,3.0062
15.4973,11.9501,4.0015,10.1503,8.3844,6.8095,5.301,4.1063,2.7633,3.3349,1.6501,3.0498,6.6145,8.3779,15.3653,11.9211,8.9239,9.0161,8.943,10.8707,9.4607,8.1534,5.8667,3.91,2.6597,1.5601,2.1237,0.8247,6.1554,2.9632
15.4197,11.7635,3.8798,9.7672,8.0306,6.5434,5.0532,3.9675,2.6033,3.2122,1.4627,2.8353,6.3315,8.0585,15.3658,11.6237,8.7528,8.9064,8.7003,10.4625,9.0521,7.9039,5.6657,3.5843,2.644,1.3788,1.8184,0.6979,5.9119,2.8233
15.1717,11.5503,3.7385,9.3727,7.6398,6.2454,4.8186,3.8467,2.4544,3.1018,1.317,2.6473,6.0379,7.7197,15.2017,11.2734,8.494,8.6473,8.3922,10.0197,8.6144,7.6173,5.4289,3.2853,2.6255,1.2044,1.5313,0.5314,5.6661,2.5962
14.7765,11.2953,3.5551,8.9822,7.2383,5.9409,4.6288,3.7691,2.3466,3.0338,1.2354,2.5169,5.7693,7.3934,14.8922,10.8852,8.1563,8.2517,8.0367,9.5693,8.1818,7.3155,5.173,3.0558,2.6079,1.0527,1.3025,0.3375,5.4314,2.3056
14.2721,10.9853,3.32,8.6089,6.8551,5.6559,4.5061,3.7503,2.2986,3.0284,1.2274,2.464,5.5572,7.1115,14.4792,10.4807,7.7602,7.7533,7.6585,9.1405,7.7898,7.0225,4.9168,2.9251,2.5946,0.9358,1.1606,0.1364,5.2158,1.9857
13.7053,10.6148,3.0383,8.2624,6.5168,5.4119,4.4594,3.7916,2.3137,3.0915,1.2861,2.4935,5.4227,6.8993,14.0168,10.0871,7.335,7.2006,7.2853,8.7622,7.4701,6.7611,4.6785,2.9028,2.5887,0.8614,1.1183,-0.0455,5.018,1.6731
13.1248,10.1854,2.7236,7.9464,6.243,5.2192,4.4821,3.8789,2.3794,3.2127,1.3879,2.5936,5.3711,6.7693,13.5574,9.7319,6.9146,6.6471,6.9437,8.4587,7.244,6.5489,4.4739,2.9783,2.5935,0.8331,1.1717,-0.1772,4.8248,1.3975
12.5725,9.7042,2.3864,7.6566,6.0411,5.0742,4.5542,3.9843,2.4695,3.3683,1.4959,2.7391,5.3922,6.7184,13.1383,9.4374,6.5308,6.1396,6.6548,8.2459,7.1177,6.3954,4.3143,3.1247,2.6124,0.8526,1.3041,-0.2249,4.6098,1.1731
12.0782,9.1805,2.0259,7.38,5.9056,4.9599,4.6466,4.0723,2.5509,3.5273,1.5675,2.8979,5.4632,6.7288,12.774,9.2155,6.2081,5.7095,6.4308,8.1279,7.0818,6.3015,4.2058,3.3076,2.6494,0.9217,1.4929,-0.1555,4.3372,0.996
11.6556,8.6236,1.6288,7.0987,5.8201,4.8517,4.729,4.108,2.5915,3.6592,1.5641,3.0391,5.5557,6.7735,12.4559,9.066,5.9594,5.3676,6.2742,8.0965,7.1135,6.2606,4.1486,3.4935,2.7076,1.0433,1.7165,0.0593,3.97,0.8467
11.3015,8.0405,1.177,6.794,5.763,4.7249,4.7767,4.0662,2.5683,3.7421,1.4611,3.1406,5.6431,6.8244,12.1593,8.9774,5.7846,5.1055,6.1777,8.1339,7.1842,6.2611,4.1377,3.6577,2.7891,1.2193,1.9582,0.4346,3.4809,0.6986
10.9993,7.4368,0.659,6.4534,5.713,4.5628,4.7768,3.9386,2.4735,3.7673,1.2536,3.1932,5.7071,6.8595,11.8562,8.9313,5.671,4.9011,6.1264,8.2165,7.2664,6.2887,4.1631,3.7871,2.8927,1.4466,2.2066,0.9643,2.8629,0.5284
10.7258,6.8176,0.0798,6.0743,5.6552,4.361,4.7302,3.7364,2.3158,3.7407,0.9589,3.201,5.7408,6.868,11.5283,8.907,5.5975,4.7277,6.1012,8.3205,7.3409,6.3286,4.2109,3.8807,3.0136,1.7139,2.4537,1.6156,2.1349,0.325
10.459,6.1901,-0.5355,5.6665,5.5829,4.1285,4.6504,3.4877,2.118,3.6804,0.6119,3.1781,5.7481,6.8512,11.175,8.8866,5.5399,4.5617,6.0828,8.4257,7.3988,6.3681,4.2655,3.9461,3.1437,2.0007,2.6927,2.3312,1.3406,0.0932
