FP1,F3,F7,FC3,C3,C5,P3,P7,PO7,PO3,O1,Oz,Pz,CPz,FP2,Fz,F4,F8,FC4,FCz,Cz,C4,C6,P4,P8,PO8,PO4,O2,(corr) HEOG,(corr) VEOG
-0.1344,0.0127,0.7745,0.7914,0.9273,1.2218,-0.2523,0.517,0.3268,-0.08,0.5928,0.3867,0.0955,0.3266,-1.0542,-0.2471,-1.4324,-0.9543,-0.2974,0.5184,0.7481,-0.3394,-0.2367,0.1262,-0.3145,0.112,-0.0493,-0.1457,-0.1293,0.4553
-0.1813,-0.0778,0.5595,0.6419,0.7789,0.8778,-0.252,0.4487,0.3203,0.0628,0.4574,0.1642,0.1928,0.3761,-0.8748,-0.1992,-1.2797,-0.8271,-0.2115,0.5989,0.8049,-0.1645,-0.1324,0.2122,-0.2502,0.1013,0.0233,-0.2715,-0.1043,0.266
-0.2091,-0.1622,0.3329,0.4928,0.6288,0.5422,-0.241,0.3798,0.3077,0.184,0.3291,-0.0319,0.2741,0.4156,-0.7123,-0.1534,-1.1429,-0.7325,-0.1336,0.6654,0.8488,-0.0058,-0.0346,0.2822,-0.1965,0.0833,0.0847,-0.3805,-0.0858,0.0885
-0.2079,-0.234,0.096,0.3482,0.4799,0.2323,-0.2039,0.3134,0.2848,0.2699,0.2142,-0.1817,0.3281,0.4361,-0.584,-0.1156,-1.0333,-0.6893,-0.0729,0.7033,0.867,0.1212,0.0476,0.323,-0.1594,0.0566,0.1278,-0.4566,-0.0756,-0.0577
-0.1768,-0.2877,-0.1434,0.2153,0.3385,-0.0328,-0.1307,0.2525,0.2482,0.3118,0.1162,-0.2737,0.3476,0.4314,-0.4987,-0.0911,-0.9586,-0.7054,-0.0355,0.702,0.8505,0.2081,0.1118,0.3261,-0.1412,0.0227,0.1481,-0.4888,-0.075,-0.1615
-0.1246,-0.3199,-0.3703,0.1032,0.2137,-0.234,-0.0183,0.1991,0.1958,0.3069,0.0347,-0.3067,0.3299,0.3991,-0.4555,-0.0853,-0.9207,-0.7747,-0.024,0.6565,0.7951,0.2552,0.1622,0.2883,-0.1394,-0.0131,0.1447,-0.4725,-0.0842,-0.2203
-0.0671,-0.3308,-0.5643,0.0209,0.1155,-0.3559,0.1292,0.155,0.1277,0.2604,-0.0335,-0.2894,0.2775,0.3402,-0.4463,-0.102,-0.9152,-0.8776,-0.0365,0.5666,0.7013,0.2699,0.207,0.2125,-0.1469,-0.0433,0.1201,-0.4103,-0.101,-0.2371
-0.0231,-0.3239,-0.7032,-0.0251,0.0515,-0.39,0.3026,0.1216,0.0476,0.1851,-0.093,-0.2379,0.1979,0.2593,-0.4588,-0.1435,-0.932,-0.9845,-0.0681,0.4368,0.5744,0.2644,0.2547,0.1078,-0.1536,-0.0588,0.0798,-0.3105,-0.1211,-0.2167
-0.0088,-0.3062,-0.7691,-0.0334,0.0253,-0.3383,0.4894,0.1004,-0.037,0.1007,-0.1474,-0.1718,0.1023,0.1637,-0.4816,-0.2098,-0.9576,-1.063,-0.1117,0.2754,0.4232,0.2518,0.31,-0.0121,-0.1486,-0.0519,0.0322,-0.1859,-0.1378,-0.1624
-0.0342,-0.2871,-0.7537,-0.0091,0.0351,-0.214,0.6758,0.0935,-0.1149,0.03,-0.1974,-0.1092,0.0046,0.0625,-0.5071,-0.2981,-0.9779,-1.0851,-0.1604,0.093,0.2585,0.2431,0.3728,-0.1307,-0.1232,-0.0186,-0.0136,-0.0511,-0.1437,-0.075
-0.1006,-0.2766,-0.663,0.0358,0.0735,-0.0417,0.8488,0.1022,-0.1735,-0.0051,-0.2402,-0.0629,-0.0812,-0.0354,-0.5332,-0.4031,-0.9813,-1.0343,-0.208,-0.0983,0.092,0.2448,0.4385,-0.2316,-0.0731,0.04,-0.0485,0.0798,-0.1328,0.0453
-0.2013,-0.2841,-0.5178,0.0844,0.1294,0.1464,0.9965,0.1267,-0.2013,0.0108,-0.2699,-0.0375,-0.1429,-0.1218,-0.5613,-0.517,-0.9603,-0.9096,-0.2496,-0.2858,-0.0651,0.2584,0.5003,-0.3007,-0.0006,0.1163,-0.0654,0.1952,-0.1028,0.1951
-0.3231,-0.3165,-0.3508,0.118,0.19,0.3147,1.1088,0.1649,-0.1913,0.0829,-0.2796,-0.0299,-0.1721,-0.1909,-0.5938,-0.6302,-0.9129,-0.7251,-0.2818,-0.4575,-0.2033,0.2817,0.552,-0.3287,0.086,0.1971,-0.0606,0.287,-0.0564,0.3651
-0.4495,-0.3766,-0.199,0.1199,0.243,0.4307,1.178,0.2117,-0.1427,0.2044,-0.2637,-0.0312,-0.1659,-0.2397,-0.6308,-0.7326,-0.8419,-0.507,-0.3021,-0.6026,-0.3152,0.3103,0.5892,-0.3119,0.1737,0.2662,-0.0344,0.351,-0.0017,0.538
-0.5642,-0.463,-0.0949,0.0793,0.2781,0.4713,1.1985,0.2598,-0.0616,0.3577,-0.22,-0.0303,-0.1271,-0.2687,-0.6682,-0.8157,-0.7542,-0.2877,-0.3091,-0.7132,-0.3974,0.3391,0.6106,-0.2526,0.2484,0.3076,0.0091,0.3863,0.0495,0.6908
-0.6554,-0.5693,-0.0588,-0.0067,0.2882,0.4263,1.1675,0.3004,0.0396,0.5182,-0.151,-0.0177,-0.0635,-0.2814,-0.6987,-0.8735,-0.6596,-0.0986,-0.3027,-0.7858,-0.4502,0.363,0.6157,-0.1576,0.2974,0.3096,0.0634,0.3945,0.0842,0.7992
-0.7171,-0.6859,-0.0947,-0.1326,0.2696,0.3006,1.0848,0.3249,0.1451,0.6596,-0.0632,0.0126,0.0137,-0.2832,-0.714,-0.9044,-0.5685,0.0365,-0.2854,-0.8215,-0.4784,0.3773,0.6036,-0.0368,0.3133,0.2686,0.1216,0.3798,0.0916,0.8448
-0.7502,-0.8008,-0.1904,-0.2853,0.2225,0.1125,0.9536,0.3265,0.2385,0.759,0.034,0.0619,0.0933,-0.2799,-0.7088,-0.9104,-0.49,0.1058,-0.2611,-0.8253,-0.4896,0.3782,0.5713,0.0989,0.2955,0.1912,0.179,0.349,0.0659,0.8204
-0.7597,-0.9007,-0.321,-0.4462,0.1514,-0.1103,0.7806,0.3025,0.3065,0.8016,0.1313,0.1286,0.1667,-0.2746,-0.6831,-0.8956,-0.4293,0.1124,-0.2349,-0.8043,-0.4915,0.3632,0.5142,0.2395,0.2511,0.0938,0.2346,0.3114,0.0078,0.7336
-0.7526,-0.9722,-0.4558,-0.5934,0.0656,-0.3354,0.5764,0.2546,0.3415,0.7832,0.2219,0.2096,0.2302,-0.2661,-0.6422,-0.8637,-0.3866,0.0726,-0.2107,-0.765,-0.4888,0.3327,0.4289,0.3777,0.1936,-0.0005,0.2913,0.2784,-0.0751,0.6046
-0.7349,-1.0028,-0.5646,-0.7046,-0.0217,-0.5308,0.3564,0.1905,0.3436,0.711,0.3039,0.3026,0.2864,-0.2477,-0.5945,-0.8162,-0.3568,0.0127,-0.1896,-0.7108,-0.4806,0.2911,0.3162,0.5092,0.1401,-0.0664,0.3553,0.2623,-0.1705,0.4611
-0.7103,-0.9831,-0.6237,-0.7612,-0.0952,-0.6689,0.1403,0.1229,0.321,0.6018,0.3803,0.4074,0.3426,-0.2092,-0.5478,-0.7523,-0.3316,-0.0386,-0.1695,-0.6417,-0.4606,0.246,0.1845,0.6325,0.1073,-0.0827,0.4328,0.2741,-0.2634,0.3303
-0.6798,-0.9091,-0.6209,-0.752,-0.1408,-0.7306,-0.0488,0.0679,0.2886,0.4792,0.4587,0.5254,0.4086,-0.1395,-0.5066,-0.6698,-0.3017,-0.057,-0.1453,-0.5551,-0.4186,0.2074,0.0501,0.7466,0.1068,-0.037,0.5279,0.322,-0.3394,0.2318
-0.6424,-0.7836,-0.557,-0.6755,-0.1488,-0.7075,-0.1878,0.0419,0.2646,0.3682,0.5479,0.6585,0.4922,-0.0316,-0.4705,-0.5677,-0.2604,-0.0294,-0.1118,-0.4488,-0.3451,0.1843,-0.0651,0.8497,0.1423,0.0702,0.6387,0.4082,-0.3872,0.1729
-0.5963,-0.6171,-0.4444,-0.5417,-0.1172,-0.6038,-0.2578,0.0576,0.2661,0.2896,0.6545,0.8059,0.5963,0.114,-0.4351,-0.4476,-0.2057,0.0427,-0.066,-0.3233,-0.2355,0.1816,-0.1395,0.9363,0.2076,0.225,0.7558,0.5278,-0.4006,0.1479
-0.5393,-0.4257,-0.304,-0.3703,-0.0525,-0.4365,-0.2495,0.1198,0.3047,0.2548,0.7795,0.9618,0.7157,0.2866,-0.3937,-0.3153,-0.1409,0.1436,-0.0094,-0.1839,-0.094,0.1981,-0.1586,0.9975,0.2881,0.4013,0.8624,0.6675,-0.3792,0.1397
-0.4703,-0.2291,-0.1602,-0.1874,0.0304,-0.2329,-0.1671,0.2232,0.3828,0.2629,0.9158,1.113,0.8367,0.4663,-0.3397,-0.1796,-0.0731,0.2489,0.051,-0.0417,0.0657,0.2252,-0.1206,1.0211,0.363,0.5654,0.9364,0.8066,-0.3282,0.1262
-0.3889,-0.0464,-0.035,-0.0201,0.1119,-0.0262,-0.0296,0.3523,0.4926,0.3009,1.0474,1.2395,0.9393,0.6267,-0.2685,-0.0503,-0.0102,0.3325,0.1053,0.0886,0.2221,0.2495,-0.0381,0.9948,0.4101,0.682,0.9545,0.9203,-0.2566,0.086
-0.296,0.1074,0.0561,0.1086,0.1714,0.1511,0.1322,0.4839,0.6171,0.3466,1.1521,1.3174,1.0011,0.7408,-0.178,0.0642,0.0429,0.3759,0.1432,0.1917,0.3509,0.2565,0.0659,0.9099,0.4109,0.7216,0.8984,0.9833,-0.1753,0.0052
-0.1938,0.2243,0.1085,0.1851,0.1923,0.2741,0.2812,0.592,0.7333,0.3744,1.2049,1.3237,1.0031,0.7875,-0.0676,0.1598,0.0876,0.3742,0.1589,0.2558,0.4315,0.236,0.1645,0.765,0.3546,0.667,0.7598,0.9761,-0.0953,-0.1191
-0.0847,0.3053,0.1284,0.2071,0.1661,0.3313,0.3824,0.6529,0.8164,0.3619,1.1833,1.2413,0.9342,0.7563,0.0617,0.2377,0.1322,0.338,0.1535,0.2761,0.4523,0.185,0.2348,0.5684,0.2415,0.5178,0.5444,0.8888,-0.0253,-0.2777
0.029,0.3588,0.1308,0.1838,0.0939,0.3258,0.4093,0.65,0.8444,0.295,1.0724,1.0639,0.7945,0.6507,0.2077,0.3042,0.19,0.2909,0.1354,0.2561,0.4136,0.1093,0.2634,0.3371,0.0836,0.291,0.2717,0.7245,0.0293,-0.4502
0.1453,0.3985,0.1351,0.1327,-0.0136,0.2746,0.3496,0.5771,0.802,0.1718,0.8688,0.7985,0.5953,0.4871,0.3651,0.3675,0.2743,0.2617,0.1173,0.2069,0.3271,0.0208,0.2477,0.0944,-0.0977,0.0186,-0.0269,0.4993,0.0675,-0.6089
0.262,0.4388,0.1592,0.0754,-0.1386,0.2029,0.2075,0.4389,0.684,0.0035,0.5831,0.4658,0.3572,0.2913,0.5248,0.4348,0.3925,0.2756,0.1117,0.1443,0.2122,-0.0668,0.1938,-0.1349,-0.2751,-0.2585,-0.3146,0.24,0.0921,-0.7237
0.3758,0.4902,0.2138,0.0318,-0.2596,0.1382,0.0028,0.2508,0.4962,-0.1877,0.2396,0.097,0.1064,0.0932,0.6737,0.5089,0.5427,0.3455,0.1266,0.0848,0.0909,-0.142,0.1128,-0.3292,-0.4204,-0.4983,-0.5552,-0.0208,0.109,-0.769
0.4817,0.5571,0.2989,0.0164,-0.355,0.1024,-0.2327,0.0358,0.2554,-0.3736,-0.1266,-0.2704,-0.13,-0.0791,0.7975,0.5878,0.7129,0.468,0.1627,0.0419,-0.0168,-0.1985,0.0163,-0.4731,-0.5103,-0.6657,-0.7196,-0.251,0.1248,-0.7299
0.5738,0.6366,0.4035,0.0356,-0.4075,0.1069,-0.4608,-0.1794,-0.0131,-0.5254,-0.4752,-0.5984,-0.3281,-0.2039,0.8835,0.6654,0.884,0.6235,0.2139,0.0244,-0.0965,-0.2356,-0.0858,-0.5595,-0.5307,-0.7392,-0.791,-0.4245,0.1451,-0.6069
0.6468,0.7203,0.5091,0.0866,-0.4078,0.1499,-0.6448,-0.3693,-0.2794,-0.621,-0.7672,-0.8551,-0.4717,-0.2697,0.9244,0.7339,1.0354,0.7813,0.2693,0.035,-0.1407,-0.2572,-0.1863,-0.5893,-0.4795,-0.7144,-0.7675,-0.5263,0.1728,-0.4164
0.6974,0.7971,0.5954,0.1592,-0.3576,0.2172,-0.757,-0.5135,-0.5139,-0.6493,-0.9719,-1.0195,-0.5547,-0.277,0.9208,0.7862,1.1499,0.9082,0.3168,0.0711,-0.15,-0.2694,-0.2815,-0.5707,-0.3675,-0.6048,-0.6628,-0.5544,0.2079,-0.188
0.7264,0.8562,0.647,0.2384,-0.2698,0.2868,-0.7843,-0.6008,-0.692,-0.6137,-1.0734,-1.0851,-0.5823,-0.2379,0.8813,0.818,1.2182,0.9766,0.3462,0.1261,-0.1318,-0.2791,-0.3694,-0.5178,-0.216,-0.4386,-0.5032,-0.5202,0.247,0.0417
0.738,0.8902,0.6577,0.3078,-0.1662,0.3353,-0.7328,-0.6311,-0.7997,-0.5318,-1.0729,-1.0598,-0.5698,-0.173,0.8212,0.8286,1.2402,0.9721,0.3518,0.1908,-0.0989,-0.2921,-0.4493,-0.4485,-0.0533,-0.2522,-0.3233,-0.4458,0.2854,0.2362
0.74,0.896,0.6315,0.353,-0.0726,0.3438,-0.6265,-0.6159,-0.8356,-0.4321,-0.9891,-0.9646,-0.5397,-0.108,0.7596,0.8207,1.2247,0.8964,0.3341,0.2553,-0.0664,-0.3128,-0.5201,-0.3823,0.0917,-0.083,-0.16,-0.3588,0.3172,0.3656
0.7415,0.875,0.5806,0.3643,-0.0138,0.3016,-0.5038,-0.5759,-0.8121,-0.3482,-0.8538,-0.8278,-0.5167,-0.0677,0.7154,0.7995,1.1874,0.7676,0.2989,0.3101,-0.0495,-0.3437,-0.5802,-0.3381,0.1944,0.0379,-0.0461,-0.2866,0.3378,0.412
0.7508,0.8318,0.5213,0.3376,-0.0085,0.2078,-0.4083,-0.5367,-0.7519,-0.3111,-0.7048,-0.6805,-0.5236,-0.0719,0.7034,0.7717,1.147,0.6144,0.2565,0.3466,-0.06,-0.3853,-0.6271,-0.3319,0.2399,0.0916,-0.005,-0.2507,0.3441,0.3718
0.7724,0.7721,0.4684,0.2735,-0.0666,0.0692,-0.3785,-0.5236,-0.6834,-0.3427,-0.5781,-0.55,-0.5769,-0.1314,0.7314,0.7433,1.1205,0.4695,0.2184,0.357,-0.1049,-0.4364,-0.6593,-0.3743,0.2244,0.0741,-0.0471,-0.2622,0.3363,0.256
0.8053,0.7001,0.4312,0.1758,-0.1889,-0.1026,-0.4382,-0.5562,-0.6339,-0.4501,-0.5004,-0.4571,-0.6844,-0.2474,0.7975,0.7173,1.1181,0.36,0.1936,0.3345,-0.1864,-0.4955,-0.6778,-0.4696,0.1566,-0.0046,-0.1689,-0.3209,0.3175,0.0879
0.8424,0.6174,0.4108,0.0485,-0.3682,-0.2952,-0.5905,-0.6441,-0.6242,-0.6243,-0.4851,-0.4133,-0.8443,-0.4118,0.8883,0.6919,1.1392,0.3005,0.1851,0.2726,-0.303,-0.5614,-0.6881,-0.6147,0.0543,-0.1235,-0.3541,-0.4165,0.2936,-0.1002
0.8708,0.5212,0.3998,-0.1054,-0.5912,-0.4977,-0.8171,-0.7855,-0.6649,-0.8424,-0.5314,-0.422,-1.0467,-0.6107,0.9802,0.6589,1.1714,0.2888,0.1875,0.1653,-0.4508,-0.6343,-0.6993,-0.7993,-0.0588,-0.256,-0.5779,-0.5323,0.2717,-0.2728
0.8749,0.4051,0.3844,-0.285,-0.8421,-0.702,-1.084,-0.9683,-0.7549,-1.0727,-0.6269,-0.4792,-1.2757,-0.828,1.0428,0.6044,1.1921,0.3065,0.1868,0.0078,-0.6259,-0.716,-0.7224,-1.0078,-0.1586,-0.3753,-0.8116,-0.65,0.2578,-0.3978
0.8384,0.2605,0.3478,-0.4906,-1.105,-0.9022,-1.3511,-1.1729,-0.8832,-1.282,-0.7524,-0.5756,-1.5121,-1.0487,1.0448,0.5107,1.174,0.3231,0.1631,-0.2026,-0.8252,-0.8102,-0.7677,-1.2213,-0.2249,-0.4602,-1.0283,-0.7541,0.2554,-0.4533
0.7473,0.0795,0.2735,-0.7217,-1.3667,-1.094,-1.5827,-1.3767,-1.0314,-1.4428,-0.8863,-0.6985,-1.7371,-1.2616,0.9611,0.3607,1.0911,0.3034,0.0949,-0.4647,-1.0468,-0.9215,-0.8428,-1.421,-0.2453,-0.4977,-1.2068,-0.8344,0.2635,-0.4315
0.5925,-0.1426,0.1496,-0.9759,-1.619,-1.2736,-1.7554,-1.5586,-1.178,-1.5394,-1.0103,-0.8336,-1.935,-1.4608,0.7783,0.1422,0.9256,0.2164,-0.0364,-0.7727,-1.2901,-1.0555,-0.9523,-1.5918,-0.217,-0.4852,-1.3338,-0.887,0.2772,-0.3385
0.3716,-0.4044,-0.0284,-1.2478,-1.8598,-1.4383,-1.8622,-1.7026,-1.3027,-1.5706,-1.1116,-0.9659,-2.0954,-1.6458,0.4974,-0.1481,0.6719,0.0425,-0.2417,-1.1161,-1.5549,-1.2172,-1.0973,-1.7247,-0.1463,-0.4298,-1.4054,-0.9135,0.2887,-0.1912
0.0895,-0.6975,-0.2549,-1.5293,-2.0935,-1.5861,-1.9109,-1.7999,-1.3887,-1.5491,-1.185,-1.0819,-2.2145,-1.821,0.1341,-0.5028,0.338,-0.2214,-0.5208,-1.4811,-1.8404,-1.4108,-1.2759,-1.8187,-0.0467,-0.3463,-1.425,-0.9186,0.2902,-0.0103
-0.2415,-1.0071,-0.5134,-1.8105,-2.329,-1.7159,-1.9188,-1.8489,-1.4254,-1.4978,-1.2312,-1.1704,-2.2946,-1.9932,-0.2853,-0.9042,-0.0561,-0.5604,-0.8622,-1.8523,-2.1446,-1.638,-1.4834,-1.8798,0.0647,-0.2534,-1.4015,-0.9079,0.2757,0.1861
-0.6039,-1.3148,-0.779,-2.0807,-2.576,-1.8271,-1.9056,-1.8538,-1.4088,-1.4434,-1.2551,-1.2238,-2.3422,-2.1688,-0.728,-1.3265,-0.4825,-0.9449,-1.2443,-2.2147,-2.4626,-1.8964,-1.7128,-1.9185,0.171,-0.1698,-1.3464,-0.8864,0.2433,0.3864
-0.9773,-1.6015,-1.0223,-2.3295,-2.8402,-1.9193,-1.8865,-1.8227,-1.3418,-1.4091,-1.2629,-1.2388,-2.3651,-2.3505,-1.1606,-1.7406,-0.9103,-1.336,-1.6386,-2.5547,-2.7855,-2.1789,-1.9553,-1.9463,0.2586,-0.1098,-1.2705,-0.857,0.1953,0.5872
-1.3406,-1.8511,-1.2162,-2.5477,-3.1197,-1.9916,-1.8686,-1.7654,-1.234,-1.4091,-1.2599,-1.2165,-2.3704,-2.5348,-1.5539,-2.1181,-1.3099,-1.6931,-2.0139,-2.8603,-3.1002,-2.4726,-2.1999,-1.9716,0.319,-0.0809,-1.1823,-0.8207,0.1382,0.7905
-1.6755,-2.0532,-1.3421,-2.728,-3.4022,-2.0427,-1.8498,-1.6921,-1.1003,-1.4451,-1.2489,-1.1612,-2.3624,-2.7116,-1.886,-2.4359,-1.6572,-1.9812,-2.3413,-3.1217,-3.39,-2.7602,-2.4337,-1.9967,0.3497,-0.0821,-1.0862,-0.7763,0.0805,1.0004
-1.968,-2.2043,-1.3948,-2.8655,-3.6662,-2.0719,-1.8212,-1.6118,-0.9591,-1.506,-1.2299,-1.0793,-2.3422,-2.8654,-2.1438,-2.6789,-1.9352,-2.1768,-2.5976,-3.3305,-3.6362,-3.0223,-2.6423,-2.0179,0.3539,-0.1039,-0.9832,-0.7211,0.031,1.219
-2.2107,-2.3076,-1.3841,-2.9582,-3.8845,-2.0795,-1.771,-1.532,-0.8293,-1.5711,-1.2008,-0.9783,-2.3089,-2.9791,-2.324,-2.8423,-2.1354,-2.2715,-2.7697,-3.4809,-3.8217,-3.2408,-2.8121,-2.0267,0.3396,-0.1306,-0.8719,-0.6512,-0.0027,1.4445
-2.4035,-2.3717,-1.3335,-3.0078,-4.031,-2.0688,-1.69,-1.4579,-0.7258,-1.6147,-1.1588,-0.8658,-2.2614,-3.0398,-2.4326,-2.9314,-2.2589,-2.2727,-2.8562,-3.5712,-3.9356,-3.4034,-2.9341,-2.0137,0.3184,-0.1429,-0.7501,-0.5617,-0.015,1.6728
-2.5543,-2.4094,-1.2755,-3.0204,-4.0883,-2.0472,-1.5757,-1.3916,-0.6558,-1.6115,-1.1015,-0.7494,-2.2018,-3.0435,-2.4854,-2.9618,-2.316,-2.2025,-2.869,-3.6063,-3.9771,-3.508,-3.0079,-1.9736,0.3043,-0.1207,-0.6163,-0.4465,-0.0026,1.9028
-2.6793,-2.4365,-1.2452,-3.0072,-4.0545,-2.0275,-1.4334,-1.3319,-0.6147,-1.5418,-1.0278,-0.6357,-2.1368,-2.9996,-2.5081,-2.9579,-2.327,-2.0945,-2.8328,-3.5999,-3.959,-3.5645,-3.0441,-1.9086,0.3119,-0.0461,-0.4709,-0.2981,0.0367,2.1417
-2.8014,-2.4715,-1.2753,-2.9851,-3.9469,-2.0268,-1.276,-1.2731,-0.5852,-1.3944,-0.9373,-0.5302,-2.0794,-2.9319,-2.5346,-2.9507,-2.3216,-1.9897,-2.7831,-3.5751,-3.908,-3.5961,-3.0649,-1.831,0.3543,0.0943,-0.3169,-0.1075,0.1048,2.4093
-2.9492,-2.5349,-1.3897,-2.9753,-3.8005,-2.0651,-1.1195,-1.2053,-0.5376,-1.1681,-0.8298,-0.436,-2.0473,-2.8749,-2.6041,-2.9754,-2.3363,-1.9317,-2.7617,-3.5632,-3.862,-3.6356,-3.1008,-1.7623,0.4404,0.3069,-0.1594,0.1344,0.2037,2.7356
-3.1515,-2.6466,-1.6003,-3.0004,-3.6614,-2.1604,-0.9776,-1.1141,-0.434,-0.8701,-0.7037,-0.3534,-2.0587,-2.8669,-2.7542,-3.066,-2.4103,-1.9602,-2.8103,-3.5983,-3.8625,-3.7195,-3.1844,-1.7283,0.5731,0.5898,-0.0046,0.4346,0.3354,3.155
-3.4311,-2.8216,-1.9035,-3.0786,-3.5744,-2.3227,-0.8559,-0.9821,-0.2352,-0.5136,-0.5545,-0.2786,-2.1263,-2.9388,-3.0122,-3.248,-2.5765,-2.1047,-2.9612,-3.7094,-3.9445,-3.8785,-3.3415,-1.7516,0.7485,0.9321,0.1419,0.7947,0.5001,3.695
-3.7961,-3.0642,-2.2786,-3.2168,-3.5695,-2.5481,-0.7486,-0.791,0.0903,-0.1132,-0.3753,-0.2045,-2.2499,-3.1026,-3.3847,-3.5304,-2.852,-2.376,-3.2266,-3.9099,-4.1241,-4.1258,-3.5807,-1.8421,0.9559,1.315,0.2783,1.2083,0.6944,4.364
-4.2317,-3.3615,-2.6881,-3.4045,-3.6507,-2.8143,-0.6384,-0.526,0.5565,0.3177,-0.1576,-0.1209,-2.4108,-3.343,-3.8501,-3.8982,-3.2276,-2.759,-3.59,-4.1886,-4.389,-4.4476,-3.8859,-1.9898,1.1811,1.7138,0.4092,1.6585,0.9094,5.1421
-4.6967,-3.6804,-3.0806,-3.6105,-3.7913,-3.0809,-0.5006,-0.1811,1.1519,0.7686,0.1063,-0.0158,-2.571,-3.615,-4.3551,-4.3089,-3.6616,-3.2077,-4.002,-4.5057,-4.6952,-4.7988,-4.2125,-2.1608,1.4089,2.1013,0.546,2.1191,1.1298,5.9769
-5.1257,-3.9682,-3.3978,-3.7861,-3.9372,-3.2947,-0.3103,0.2362,1.8355,1.2307,0.42,0.1224,-2.6772,-3.8503,-4.8189,-4.6957,-4.0806,-3.6462,-4.3837,-4.7959,-4.9721,-5.1061,-4.4914,-2.3011,1.6266,2.4513,0.7054,2.5569,1.3347,6.787
-5.4385,-4.1592,-3.5817,-3.8718,-4.0185,-3.3997,-0.0492,0.7021,2.5394,1.6953,0.7806,0.3037,-2.6706,-3.9697,-5.1446,-4.976,-4.3886,-3.9767,-4.6379,-4.9788,-5.1354,-5.2791,-4.6382,-2.3471,1.8257,2.7412,0.9051,2.9361,1.5001,7.4741
-5.5534,-4.1858,-3.5837,-3.809,-3.966,-3.3488,0.288,1.1777,3.1776,2.1506,1.1778,0.534,-2.5007,-3.9011,-5.2356,-5.0655,-4.4831,-4.0948,-4.6659,-4.9747,-5.1052,-5.2281,-4.5689,-2.2399,2.0011,2.9532,1.1579,3.2232,1.6031,7.9395
-5.4036,-3.9906,-3.3721,-3.5515,-3.7283,-3.1151,0.6914,1.6129,3.6601,2.5803,1.5933,0.8138,-2.1374,-3.5956,-5.013,-4.8936,-4.2755,-3.9091,-4.3866,-4.7213,-4.8243,-4.8826,-4.2163,-1.9413,2.1498,3.0751,1.466,3.3923,1.6257,8.1022
-4.9505,-3.5387,-2.9371,-3.0759,-3.2851,-2.6988,1.1351,1.9547,3.9084,2.9625,2.0026,1.1357,-1.5808,-3.0406,-4.4323,-4.4176,-3.7098,-3.3605,-3.754,-4.1869,-4.2714,-4.2086,-3.5468,-1.4453,2.2683,3.0995,1.8171,3.4281,1.5585,7.9151
-4.1929,-2.8261,-2.2945,-2.3875,-2.6537,-2.1295,1.5797,2.1559,3.8706,3.2704,2.3773,1.4842,-0.8644,-2.2642,-3.4936,-3.6326,-2.7768,-2.4378,-2.7687,-3.379,-3.4681,-3.2187,-2.5713,-0.7832,2.3505,3.0238,2.1845,3.3281,1.4026,7.3749
-3.17,-1.8838,-1.485,-1.5226,-1.8878,-1.4629,1.9767,2.1832,3.5313,3.4747,2.6877,1.8356,-0.0514,-1.3325,-2.2452,-2.5751,-1.5205,-1.1846,-1.4826,-2.3449,-2.4769,-1.9745,-1.3488,-0.0199,2.3885,2.8505,2.5306,3.1025,1.1691,6.5246
-1.9568,-0.7763,-0.5704,-0.5448,-1.0688,-0.7733,2.2739,2.0225,2.9151,3.5485,2.9071,2.1608,0.7751,-0.3388,-0.7788,-1.32,-0.0331,0.3034,0.0079,-1.1656,-1.3916,-0.5789,0.0202,0.7581,2.3733,2.588,2.8132,2.7727,0.8774,5.4469
-0.6526,0.4066,0.3728,0.4633,-0.2918,-0.1426,2.422,1.6813,2.0822,3.4722,3.0149,2.4294,1.5263,0.6122,0.7833,0.0301,1.5579,1.8927,1.5755,0.0565,-0.3209,0.8403,1.4087,1.4597,2.298,2.2517,2.9945,2.3691,0.5519,4.2512
0.6346,1.5626,1.2627,1.4117,0.351,0.3525,2.3829,1.1863,1.1172,3.2393,2.9998,2.6147,2.1237,1.4226,2.3074,1.36,3.1106,3.4335,3.0831,1.2145,0.6296,2.1528,2.6851,2.0062,2.1598,1.8634,3.0487,1.9267,0.2177,3.0545
1.8048,2.5931,2.0228,2.2177,0.786,0.6528,2.1362,0.5796,0.1147,2.8595,2.8618,2.6991,2.5123,2.0177,3.6687,2.5604,4.4915,4.7844,4.4061,2.2134,1.3758,3.2469,3.7358,2.3466,1.9612,1.4501,2.9683,1.4814,-0.1022,1.9626
2.7809,3.4186,2.5925,2.8193,0.9707,0.7263,1.6866,-0.0876,-0.8356,2.3596,2.6126,2.6775,2.67,2.358,4.7707,3.5439,5.5963,5.8355,5.4514,2.9849,1.8681,4.0486,4.4835,2.4654,1.7093,1.0412,2.7656,1.0659,-0.3899,1.0537
3.5192,3.9916,2.937,3.1851,0.9008,0.5747,1.0662,-0.7613,-1.6621,1.7814,2.2746,2.5582,2.6094,2.4443,5.558,4.258,6.3639,6.5239,6.1694,3.496,2.0977,4.5304,4.8977,2.382,1.4145,0.6636,2.4702,0.7059,-0.6335,0.368
4.0133,4.303,3.0532,3.3193,0.6105,0.2324,0.3339,-1.3908,-2.3189,1.1752,1.878,2.3615,2.3745,2.3155,6.0222,4.6906,6.7827,6.8408,6.5586,3.7526,2.0957,4.7126,4.9954,2.1435,1.0875,0.3379,2.1226,0.4178,-0.8265,-0.0939
4.2923,4.3817,2.9708,3.2606,0.1673,-0.2379,-0.4317,-1.9335,-2.7887,0.5936,1.4573,2.116,2.0306,2.0399,6.1982,4.8696,6.8875,6.8283,6.6612,3.7964,1.9262,4.6544,4.8338,1.8124,0.7375,0.0749,1.7654,0.2081,-0.9677,-0.3644
4.4133,4.2891,2.7479,3.0756,-0.3385,-0.7549,-1.1426,-2.3577,-3.08,0.0839,1.0468,1.8531,1.6523,1.7038,6.1556,4.8569,6.7508,6.5674,6.553,3.6973,1.6748,4.4406,4.4971,1.4529,0.3714,-0.126,1.4353,0.0741,-1.059,-0.4973
4.4509,4.1074,2.4617,2.8488,-0.8075,-1.2307,-1.7143,-2.644,-3.2196,-0.3177,0.6773,1.6025,1.3112,1.3972,5.985,4.7373,6.4684,6.1612,6.3288,3.5431,1.435,4.1661,4.0807,1.12,-0.0055,-0.2757,1.1561,0.0061,-1.1055,-0.5543
4.4838,3.9273,2.1963,2.6698,-1.1449,-1.5834,-2.0777,-2.7846,-3.2448,-0.5886,0.373,1.3875,1.0659,1.2014,5.7839,4.6061,6.1444,5.7169,6.0881,3.4271,1.296,3.9204,3.677,0.8522,-0.3888,-0.3915,0.937,-0.0093,-1.1137,-0.5923
4.5831,3.834,2.029,2.6202,-1.2741,-1.7477,-2.1877,-2.7811,-3.1932,-0.7203,0.1499,1.2238,0.9559,1.1791,5.6437,4.5553,5.8762,5.3291,5.9208,3.4355,1.3312,3.7775,3.3632,0.6702,-0.7721,-0.4917,0.774,0.0135,-1.0909,-0.6559
4.8023,3.8947,2.0192,2.7616,-1.1459,-1.6839,-2.0283,-2.6431,-3.096,-0.716,0.0163,1.1189,0.9998,1.3685,5.6383,4.6603,5.7424,5.0697,5.8967,3.6355,1.5899,3.7883,3.195,0.58,-1.1462,-0.5912,0.6549,0.0623,-1.0444,-0.7732
5.1702,4.1497,2.1992,3.1262,-0.7438,-1.3808,-1.6128,-2.3854,-2.974,-0.5869,-0.0261,1.0739,1.1974,1.7804,5.8159,4.9697,5.795,4.9821,6.0583,4.0667,2.0927,3.9781,3.203,0.5782,-1.4983,-0.6964,0.5662,0.1286,-0.9805,-0.955
5.69,4.608,2.5714,3.7132,-0.0839,-0.8554,-0.9788,-2.0258,-2.8352,-0.3473,0.02,1.0859,1.5345,2.4008,6.1936,5.4982,6.055,5.0814,6.4178,4.7355,2.8301,4.3478,3.3928,0.6583,-1.8119,-0.8041,0.4991,0.209,-0.9037,-1.1956
6.3414,5.2476,3.1096,4.4899,0.7902,-0.148,-0.1803,-1.5832,-2.6771,-0.0114,0.1494,1.1503,1.9886,3.1949,6.7566,6.2261,6.5131,5.3578,6.9591,5.6151,3.7659,4.877,3.7472,0.8149,-2.0685,-0.9018,0.4541,0.3055,-0.8167,-1.4759
7.087,6.0222,3.7653,5.4002,1.8164,0.6858,0.7226,-1.0757,-2.4895,0.409,0.3556,1.2631,2.5345,4.1148,7.4623,7.1041,7.1339,5.7811,7.6423,6.6512,4.8439,5.5296,4.2307,1.047,-2.2501,-0.971,0.4419,0.4243,-0.7209,-1.7664
7.8798,6.8705,4.4775,6.3745,2.9249,1.5845,1.6734,-0.5196,-2.2592,0.9049,0.6322,1.4217,3.1494,5.1073,8.2488,8.0636,7.8633,6.3075,8.412,7.7717,5.9973,6.2605,4.7956,1.3571,-2.3416,-0.9914,0.4819,0.5754,-0.6174,-2.0341
8.6704,7.7266,5.1834,7.3424,4.0476,2.4894,2.626,0.0714,-1.9744,1.4693,0.9732,1.6257,3.8151,6.1214,9.0471,9.0287,8.6375,6.8856,9.2073,8.8989,7.1587,7.0223,5.39,1.7505,-2.3342,-0.945,0.5985,0.7698,-0.5078,-2.2493
9.4131,8.5291,5.8273,8.2418,5.1253,3.3508,3.5489,0.6851,-1.6295,2.0965,1.374,1.8768,4.5195,7.1138,9.7932,9.9284,9.392,7.4633,9.9699,9.9606,8.2683,7.7714,5.9655,2.2314,-2.2276,-0.8202,0.8154,1.0185,-0.3953,-2.3928
10.0701,9.2277,6.3663,9.0244,6.1111,4.1304,4.4249,1.3099,-1.2266,2.7809,1.8309,2.1786,5.2556,8.0516,10.4376,10.705,10.0699,7.9935,10.6522,10.8987,9.2791,8.4723,6.484,2.8002,-2.0309,-0.6144,1.1509,1.3299,-0.2839,-2.4609
10.6138,9.7857,6.7726,9.6581,6.9709,4.8021,5.248,1.9334,-0.7769,3.5172,2.3423,2.5354,6.02,8.9132,10.9502,11.3191,10.6274,8.4387,11.2208,11.6731,10.1598,9.0995,6.9223,3.4504,-1.762,-0.3343,1.6134,1.7076,-0.1787,-2.4668
11.0289,10.1818,7.0327,10.1264,7.6831,5.3512,6.0202,2.5426,-0.2977,4.2998,2.9081,2.9513,6.811,9.688,11.3207,11.7509,11.0368,8.7743,11.6587,12.2631,10.8942,9.6388,7.2738,4.1676,-1.445,0.0041,2.1988,2.1496,-0.0844,-2.4382
11.3117,10.4093,7.1468,10.4279,8.2385,5.7728,6.748,3.1248,0.19,5.1226,3.529,3.4286,7.6272,10.3753,11.5555,11.9978,11.2876,8.9899,11.9641,12.666,11.4802,10.0864,7.5477,4.9297,-1.1071,0.3782,2.8901,2.6466,-0.0053,-2.4112
11.4691,10.4752,7.1277,10.5743,8.6395,6.0714,7.439,3.6687,0.6656,5.9778,4.2048,3.966,8.4656,10.9822,11.6723,12.0717,11.3844,9.0886,12.1478,12.8937,11.9269,10.4476,7.7649,5.709,-0.7749,0.7618,3.6594,3.1826,0.0551,-2.4228
11.515,10.399,7.0001,10.5883,8.9008,6.2597,8.0996,4.1656,1.1113,6.8541,4.9312,4.5563,9.3203,11.5214,11.6943,11.9946,11.3435,9.085,12.2293,12.9687,12.2518,10.7344,7.952,6.4747,-0.471,1.1285,4.4707,3.7362,0.0943,-2.5027
11.4673,10.2099,6.798,10.501,9.046,6.356,8.7314,4.6097,1.5139,7.7341,5.6968,5.1849,10.1804,12.0074,11.6449,11.7949,11.1887,9.0011,12.232,12.9204,12.4767,10.9614,8.1349,7.1958,-0.2121,1.455,5.2836,4.2828,0.1104,-2.6676
11.3454,9.9435,6.5615,10.3478,9.1053,6.3825,9.3299,4.9973,1.8647,8.5934,6.481,5.8294,11.029,12.4523,11.5442,11.5038,10.9469,8.8621,12.179,12.78,12.6245,11.1426,8.3309,7.8445,-0.0082,1.7239,6.0572,4.7972,0.1021,-2.9181
11.1679,9.6375,6.3312,10.1638,9.1098,6.3613,9.8825,5.3258,2.1587,9.4001,7.2531,6.4596,11.8416,12.8623,11.407,11.1522,10.6449,8.6917,12.0895,12.5775,12.7157,11.2883,8.5444,8.3979,0.1374,1.9245,6.7527,5.2554,0.0694,-3.2392
10.9523,9.3269,6.1419,9.9791,9.0865,6.3122,10.3697,5.5925,2.3943,10.117,7.9742,7.0401,12.5877,13.2347,11.2423,10.7679,10.3071,8.5093,11.9763,12.3377,12.7649,11.4026,8.7649,8.8393,0.2277,2.0537,7.3356,5.6358,0.0136,-3.6042
10.7136,9.0388,6.0177,9.8143,9.0545,6.2496,10.7668,5.7944,2.572,10.7057,8.6012,7.533,13.2323,13.5579,11.0541,10.3731,9.9536,8.3279,11.8448,12.0783,12.7796,11.4835,8.9693,9.1588,0.271,2.1149,7.7769,5.9198,-0.0624,-3.98
10.4644,8.7883,5.9671,9.6779,9.0217,6.1808,11.0485,5.9282,2.6947,11.1318,9.0921,7.9022,13.7404,13.8129,10.8431,9.982,9.5993,8.1529,11.6936,11.808,12.7589,11.5246,9.1283,9.354,0.2795,2.1167,8.0554,6.0929,-0.1542,-4.3338
10.2137,8.5772,5.9823,9.5653,8.9841,6.1056,11.1937,5.9914,2.7673,11.3704,9.4111,8.118,14.0816,13.9771,10.6085,9.5999,9.2534,7.9825,11.5168,11.5266,12.6951,11.5171,9.2142,9.4291,0.2677,2.0717,8.1603,6.1463,-0.2558,-4.6367
9.9661,8.394,6.0404,9.4606,8.9277,6.017,11.1909,5.9837,2.797,11.4107,9.5347,8.1617,14.2344,14.0288,10.3497,9.2232,8.919,7.8093,11.3058,11.2262,12.5752,11.4524,9.2084,9.3953,0.251,1.9952,8.0927,6.0787,-0.361,-4.8673
9.7207,8.2181,6.1078,9.3401,8.8313,5.904,11.0412,5.9079,2.7925,11.2576,9.4546,8.0281,14.1899,13.9517,10.0676,8.8415,8.5942,7.622,11.0526,10.8941,12.3843,11.3239,9.1053,9.2687,0.2429,1.9038,7.8673,5.8979,-0.4635,-5.0112
9.4702,8.0247,6.1471,9.1783,8.6717,5.7547,10.7587,5.7711,2.7643,10.9316,9.18,7.7277,13.9527,13.738,9.7649,8.44,8.2729,7.409,10.7514,10.516,12.1089,11.128,8.9133,9.069,0.2547,1.8147,7.512,5.6215,-0.5575,-5.0606
9.2012,7.79,6.125,8.9528,8.4291,5.5598,10.369,5.585,2.724,10.4664,8.7377,7.2862,13.542,13.391,9.445,8.0029,7.9463,7.1603,10.3995,10.0798,11.7404,10.8645,8.6512,8.8167,0.2942,1.7451,7.0659,5.2762,-0.6379,-5.0133
8.8958,7.4956,6.0185,8.6486,8.0914,5.3153,9.9047,5.3652,2.6844,9.905,8.1693,6.7423,12.9889,12.9244,9.1096,7.5168,7.6034,6.8691,9.997,9.579,11.277,10.5358,8.343,8.5316,0.3666,1.7114,6.5753,4.896,-0.7008,-4.8705
8.5344,7.1309,5.8189,8.2608,7.6572,5.0234,9.4006,5.1305,2.6587,9.2942,7.5275,6.145,12.3338,12.3611,8.7554,6.9729,7.2316,6.5312,9.5451,9.0137,10.7247,10.146,8.0108,8.2304,0.475,1.7287,6.0891,4.519,-0.7433,-4.6347
8.1003,6.6939,5.5327,7.7951,7.1367,4.6928,8.8888,4.9007,2.6602,8.6805,6.8708,5.5486,11.6226,11.7304,8.3712,6.3682,6.817,6.1439,9.0448,8.3913,10.0973,9.6998,7.6693,7.9261,0.6217,1.8101,5.6535,4.1847,-0.7636,-4.308
7.5836,6.1906,5.1779,7.2666,6.5506,4.3375,8.3961,4.6955,2.7006,8.1062,6.2575,5.0084,10.9028,11.0645,7.9385,5.7064,6.3462,5.706,8.497,7.7257,9.415,9.202,7.3234,7.6286,0.8091,1.9657,5.3081,3.9299,-0.7611,-3.8913
6.9842,5.6341,4.7799,6.6979,5.9277,3.9745,7.9434,4.5319,2.7888,7.6073,5.7409,4.5748,10.2201,10.3965,7.4349,4.9981,5.8098,5.2183,7.9034,7.0357,8.7031,8.659,6.9703,7.3456,1.0397,2.2016,5.0819,3.7855,-0.7363,-3.3855
6.3138,5.0429,4.3667,6.1167,5.302,3.6222,7.5463,4.4238,2.9304,7.2132,5.3639,4.2873,9.6153,9.7582,6.8412,4.2611,5.2059,4.686,7.27,6.3439,7.9915,8.0806,6.6048,7.085,1.3149,2.5182,4.9914,3.7715,-0.6903,-2.7947
5.5954,4.4398,3.9644,5.5529,4.7094,3.298,7.2182,4.3813,3.1272,6.9464,5.1549,4.1685,9.1222,9.18,6.1497,3.5201,4.5437,4.1204,6.6095,5.6752,7.3133,7.4828,6.2262,6.8561,1.6334,2.9096,5.04,3.8934,-0.6248,-2.1296
4.8617,3.8508,3.5951,5.0363,4.1853,3.0173,6.9723,4.4108,3.3774,6.8229,5.1235,4.2175,8.7658,8.6896,5.372,2.8051,3.8458,3.5393,5.9435,5.0562,6.7027,6.8886,5.8433,6.6706,1.9898,3.3623,5.2179,4.1384,-0.5418,-1.4101
4.1508,3.3035,3.2751,4.5947,3.7622,2.7939,6.8222,4.5157,3.6764,6.8513,5.2583,4.4071,8.5609,8.3112,4.5418,2.1497,3.1466,2.9662,5.3017,4.5138,6.1937,6.328,5.4755,6.5419,2.375,3.8567,5.5042,4.4753,-0.4436,-0.6654
3.5022,2.826,3.0156,4.2515,3.4677,2.6402,6.7801,4.6956,4.0166,7.0306,5.5265,4.6851,8.5115,8.0635,3.713,1.5873,2.4888,2.4285,4.7185,4.0728,5.8152,5.8342,5.1496,6.4831,2.7775,4.3688,5.8697,4.8576,-0.3327,0.0689
2.9513,2.4443,2.8223,4.0233,3.3213,2.5663,6.8532,4.9454,4.3875,7.348,5.8785,4.9815,8.609,7.9568,2.9515,1.1472,1.9175,1.954,4.2278,3.7534,5.5878,5.4381,4.8936,6.5041,3.1865,4.8732,6.2794,5.2297,-0.2121,0.7549
2.5251,2.1786,2.6969,3.9169,3.3301,2.5773,7.039,5.2539,4.7755,7.7765,6.2552,5.222,8.833,7.9901,2.3237,0.8495,1.4722,1.5677,3.8571,3.5672,5.5182,5.1629,4.7297,6.6076,3.5941,5.3458,6.6963,5.536,-0.0853,1.3575
2.2381,2.0399,2.6361,3.9255,3.4849,2.6695,7.3214,5.6019,5.1634,8.2751,6.5993,5.344,9.1509,8.1479,1.8831,0.7021,1.1803,1.2883,3.6223,3.5146,5.5965,5.0188,4.6695,6.786,3.9965,5.7659,7.0847,5.7307,0.0435,1.8479
2.0907,2.0268,2.6318,4.0283,3.7573,2.8271,7.6674,5.9607,5.5302,8.7903,6.8645,5.3121,9.5206,8.3996,1.6601,0.6983,1.0523,1.1253,3.5247,3.5831,5.7954,5.0007,4.7118,7.0196,4.3931,6.1176,7.4127,5.7857,0.1681,2.2049
2.0701,2.125,2.6704,4.1919,4.1002,3.0213,8.0293,6.2936,5.8502,9.2605,7.0233,5.1266,9.8945,8.7017,1.6563,0.8182,1.0804,1.0779,3.5522,3.7486,6.073,5.0901,4.8439,7.2778,4.7846,6.3899,7.6551,5.6951,0.2803,2.4138
2.1539,2.3094,2.7351,4.3756,4.4541,3.2142,8.3493,6.558,6.0937,9.6229,7.0681,4.8232,10.2243,9.004,1.8459,1.0325,1.2409,1.1358,3.6813,3.9794,6.3798,5.2586,5.0459,7.5222,5.1697,6.5764,7.7945,5.4751,0.37,2.4655
2.316,2.5493,2.8089,4.5399,4.7561,3.3653,8.5685,6.7105,6.2286,9.8205,7.007,4.4618,10.4676,9.2565,2.1823,1.3088,1.4991,1.2814,3.8832,4.2415,6.6673,5.4739,5.2945,7.7127,5.5429,6.6739,7.821,5.1579,0.4264,2.3547
2.533,2.8134,2.8788,4.6539,4.9525,3.4402,8.6372,6.7134,6.2235,9.8101,6.8555,4.1071,10.5924,9.4183,2.6086,1.6168,1.817,1.494,4.1281,4.505,6.8968,5.7058,5.5671,7.8127,5.8928,6.6806,7.73,4.7813,0.44,2.0819
2.7878,3.0755,2.9384,4.702,5.0082,3.4179,8.5234,6.5413,6.0538,9.5674,6.6264,3.8079,10.5798,9.4626,3.0682,1.9336,2.159,1.7536,4.3903,4.7481,7.0448,5.9297,5.8439,7.7935,6.2023,6.5941,7.5202,4.3782,0.4054,1.6566
3.0708,3.3166,2.9888,4.6865,4.914,3.2964,8.2193,6.1868,5.7068,9.0911,6.3228,3.5804,10.4245,9.3805,3.5136,2.2446,2.4967,2.0424,4.6498,4.9599,7.1061,6.1276,6.1084,7.6379,6.4505,6.4119,7.1916,3.968,0.3233,1.1023
3.376,3.5259,3.0367,4.6249,4.6875,3.0934,7.7415,5.6639,5.1881,8.4028,5.9371,3.4041,10.1336,9.18,3.9099,2.5434,2.8091,2.3444,4.8918,5.1392,7.0911,6.2877,6.3463,7.3417,6.6168,6.133,6.7471,3.5548,0.2008,0.4593
3.6954,3.6988,3.0899,4.545,4.3681,2.8422,7.1288,5.0088,4.5239,7.5443,5.4559,3.2306,9.7244,8.8827,4.2343,2.8278,3.0812,2.6424,5.1042,5.2922,7.0211,6.4012,6.5449,6.9146,6.6852,5.7616,6.1961,3.1315,0.0502,-0.2159
4.0139,3.8343,3.1534,4.4761,4.0083,2.5845,6.435,4.2759,3.7613,6.5738,4.8707,3.004,9.2222,8.519,4.4734,3.0966,3.3009,2.9159,5.2758,5.4271,6.921,6.4607,6.6924,6.3806,6.6482,5.3117,5.5595,2.6896,-0.1128,-0.8559
4.3079,3.9316,3.2259,4.4413,3.6623,2.3616,5.7221,3.5313,2.9631,5.5597,4.1885,2.6832,8.6586,8.1232,4.6194,3.3461,3.4575,3.1415,5.3956,5.5505,6.8136,6.4601,6.7794,5.7767,6.5091,4.8094,4.8724,2.2289,-0.2722,-1.393
4.5483,3.9899,3.3,4.4532,3.3762,2.2061,5.0518,2.8437,2.1997,4.5751,3.4394,2.2608,8.0711,7.7289,4.6692,3.5696,3.5427,3.2968,5.4545,5.6652,6.7158,6.3968,6.8008,5.1508,6.2814,4.2911,4.1838,1.7649,-0.414,-1.771
4.707,4.0078,3.3645,4.5121,3.1818,2.1376,4.4803,2.2754,1.5396,3.692,2.6768,1.7683,7.5012,7.3671,4.6257,3.7584,3.5523,3.3655,5.4489,5.7701,6.6388,6.2748,6.7589,4.5567,5.9867,3.7996,3.5518,1.3282,-0.5279,-1.9571
4.7641,3.9858,3.4087,4.6088,3.0947,2.1607,4.0526,1.8741,1.0384,2.9752,1.9716,1.2696,6.9936,7.0654,4.4995,3.9043,3.4897,3.3432,5.3833,5.8619,6.5894,6.108,6.6639,4.0489,5.6508,3.3763,3.0352,0.9593,-0.6085,-1.9495
4.7139,3.9276,3.4268,4.7299,3.1148,2.2673,3.8008,1.6672,0.7317,2.4771,1.3999,0.8447,6.5929,6.8471,4.3117,4.0024,3.3674,3.2396,5.2722,5.9382,6.5728,5.9204,6.5341,3.6761,5.3002,3.0539,2.6845,0.6992,-0.6553,-1.7785
4.567,3.8405,3.4199,4.8619,3.2307,2.4393,3.7414,1.6596,0.6302,2.2319,1.0296,0.5698,6.3404,6.731,4.0914,4.0527,3.2056,3.078,5.1379,5.999,6.5944,5.7434,6.3927,3.4758,4.9592,2.8523,2.5344,0.5794,-0.6721,-1.5012
4.348,3.7343,3.3955,4.9949,3.4232,2.6531,3.8756,1.8346,0.7198,2.2527,0.9079,0.5007,6.2686,6.7304,3.8721,4.0587,3.0288,2.8894,5.0061,6.0467,6.6598,5.6106,6.264,3.4698,4.6483,2.776,2.5987,0.6155,-0.6666,-1.1907
4.0896,3.6185,3.3621,5.1236,3.6708,2.8828,4.1884,2.1578,0.9657,2.5291,1.0539,0.663,6.3973,6.8514,3.6834,4.0258,2.8585,2.7049,4.8993,6.0857,6.7735,5.5495,6.1688,3.6624,4.3842,2.817,2.8697,0.8039,-0.6484,-0.9224
3.8257,3.5,3.3254,5.2462,3.9531,3.1041,4.6505,2.5828,1.3183,3.0282,1.456,1.0506,6.7288,7.0912,3.5434,3.9585,2.7078,2.5475,4.8314,6.1199,6.9365,5.5764,6.1205,4.0397,4.1803,2.9585,3.3208,1.1239,-0.6283,-0.7608
3.5851,3.381,3.2837,5.3628,4.2536,3.296,5.2199,3.0577,1.7214,3.6983,2.0746,1.63,7.2468,7.4373,3.4542,3.8586,2.5775,2.4264,4.8045,6.1513,7.1453,5.6924,6.123,4.5718,4.0467,3.1791,3.9109,1.5416,-0.6169,-0.749
3.3872,3.2595,3.2294,5.473,4.5612,3.4429,5.8463,3.5318,2.1203,4.4738,2.8498,2.3498,7.9155,7.8677,3.4014,3.7258,2.4568,2.3358,4.8097,6.18,7.3908,5.884,6.1705,5.2155,3.9907,3.4568,4.5903,2.0171,-0.6231,-0.9024
3.2409,3.1307,3.1525,5.5749,4.8687,3.5349,6.4766,3.9611,2.4691,5.2824,3.7107,3.149,8.6831,8.3522,3.359,3.5592,2.3277,2.2576,4.8303,6.2038,7.659,6.1271,6.2504,5.9183,4.0155,3.7707,5.306,2.5103,-0.6535,-1.2084
3.145,2.9894,3.0453,5.6641,5.1706,3.5675,7.0602,4.3127,2.7352,6.0525,4.5841,3.9653,9.4859,8.8544,3.2963,3.359,2.1702,2.1668,4.8467,6.2192,7.9324,6.3916,6.3464,6.6228,4.1188,4.1014,6.0059,2.9853,-0.7113,-1.6296
3.0892,2.8314,2.9065,5.7341,5.4589,3.5407,7.5528,4.5662,2.9028,6.7208,5.4029,4.7392,10.254,9.3341,3.1862,3.1273,1.9678,2.0371,4.8403,6.2207,8.1903,6.6461,6.4407,7.2714,4.2909,4.4303,6.6417,3.4129,-0.7959,-2.112
3.0553,2.6538,2.741,5.7763,5.7202,3.458,7.9198,4.7149,2.9733,7.238,6.1118,5.4181,10.9185,9.7499,3.0097,2.8666,1.7093,1.846,4.7948,6.2002,8.4096,6.8605,6.5157,7.8103,4.5131,4.7385,7.1711,3.7712,-0.903,-2.5945
3.0187,2.454,2.5568,5.7809,5.9339,3.3247,8.1369,4.7637,2.9628,7.5741,6.6709,5.9584,11.418,10.0628,2.7584,2.5787,1.3902,1.5782,4.6971,6.1466,8.5661,7.0073,6.5539,8.1943,4.7584,5.0066,7.5597,4.0451,-1.0247,-3.0187
2.9524,2.2289,2.3615,5.7368,6.074,3.147,8.1919,4.7269,2.8984,7.72,7.0577,6.3281,11.7063,10.24,2.435,2.2638,1.0124,1.2286,4.5373,6.0464,8.6364,7.0637,6.539,8.3908,4.9942,5.216,7.7838,4.2259,-1.1501,-3.3375
2.8318,1.9756,2.1581,5.6345,6.1149,2.9321,8.0856,4.6249,2.8117,7.6873,7.2666,6.5103,11.7587,10.2605,2.0522,1.9218,0.5847,0.804,4.3109,5.8879,8.603,7.014,6.4588,8.3849,5.1876,5.3518,7.8332,4.3112,-1.2667,-3.5213
2.6422,1.6927,1.9442,5.4684,6.0393,2.6882,7.8317,4.4803,2.7325,7.5053,7.3075,6.505,11.5763,10.12,1.6318,1.5555,0.1238,0.3238,4.0216,5.6657,8.4595,6.8543,6.3086,8.1834,5.3119,5.4063,7.7142,4.3063,-1.3618,-3.5617
2.3845,1.3828,1.7128,5.2398,5.8449,2.4241,7.4568,4.3149,2.6828,7.2159,7.2029,6.3304,11.188,9.8348,1.2034,1.1744,-0.3454,-0.1807,3.6844,5.3857,8.215,6.5969,6.0953,7.8167,5.352,5.3818,7.4513,4.2241,-1.4252,-3.4706
2.0778,1.0548,1.456,4.9589,5.5484,2.1495,6.9975,4.1463,2.6727,6.866,6.9845,6.0218,10.6463,9.4404,0.801,0.7963,-0.7913,-0.6691,3.3272,5.0675,7.8952,6.2719,5.8389,7.3361,5.3077,5.2916,7.0851,4.085,-1.4514,-3.2763
1.757,0.7236,1.1691,4.644,5.1823,1.8733,6.4954,3.9858,2.6992,6.5009,6.6888,5.6268,10.0194,8.9874,0.4581,0.4467,-1.1792,-1.097,2.9881,4.7424,7.5396,5.925,5.5705,6.8076,5.1928,5.1569,6.6668,3.9144,-1.4414,-3.0164
1.4653,0.408,0.8547,4.3182,4.7877,1.602,5.9914,3.8377,2.7479,6.1577,6.3538,5.2006,9.3799,8.5319,0.2032,0.1543,-1.4762,-1.4225,2.7099,4.4476,7.1933,5.6098,5.3268,6.3002,5.0306,5.0023,6.2504,3.7392,-1.4025,-2.7312
1.2442,0.1279,0.5233,4.0052,4.4036,1.3388,5.5201,3.699,2.7968,5.8612,6.0156,4.7979,8.7935,8.125,0.0556,-0.0551,-1.6573,-1.6124,2.5324,4.2189,6.8982,5.3782,5.143,5.8746,4.8473,4.8498,5.8841,3.5834,-1.3474,-2.4583
1.1255,-0.0992,0.1929,3.7259,4.059,1.084,5.1067,3.5627,2.8219,5.6233,5.7065,4.4673,8.3092,7.805,0.0244,-0.1628,-1.7086,-1.6483,2.4851,4.0834,6.6856,5.2711,5.0466,5.573,4.6663,4.715,5.6034,3.4656,-1.2916,-2.2298
1.1261,-0.2599,-0.115,3.496,3.7688,0.8367,4.7664,3.4204,2.8033,5.4444,5.4528,4.2455,7.9549,7.5917,0.1096,-0.1609,-1.6289,-1.5289,2.5826,4.055,6.5714,5.3108,5.0537,5.4134,4.5036,4.6046,5.4276,3.397,-1.2496,-2.0696
1.2482,-0.3462,-0.3795,3.3256,3.5354,0.5975,4.5054,3.2669,2.7301,5.3176,5.2744,4.1542,7.7366,7.4868,0.3033,-0.0523,-1.4289,-1.2705,2.8222,4.134,6.5561,5.4984,5.1671,5.3898,4.3664,4.5179,5.3599,3.382,-1.2316,-1.9919
1.4815,-0.3556,-0.5847,3.2195,3.3531,0.3697,4.3233,3.1023,2.603,5.2332,5.1835,4.1984,7.6421,7.477,0.5915,0.1501,-1.1285,-0.9043,3.1851,4.3076,6.6272,5.814,5.3766,5.4769,4.2541,4.4493,5.3902,3.4199,-1.2412,-1.9996
1.8066,-0.2914,-0.7233,3.1771,3.2139,0.1596,4.2146,2.9323,2.4332,5.1816,5.1831,4.3664,7.6461,7.5391,0.9545,0.4257,-0.7541,-0.4719,3.6389,4.5535,6.7635,6.2202,5.6605,5.6366,4.1604,4.3913,5.4983,3.5057,-1.2749,-2.0844
2.1983,-0.1634,-0.7975,3.193,3.1122,-0.0255,4.1693,2.7668,2.2393,5.1548,5.2659,4.6316,7.716,7.6456,1.3673,0.7491,-0.336,-0.0193,4.1417,4.8437,6.9396,6.6689,5.988,5.827,4.0766,4.3369,5.6581,3.6304,-1.323,-2.2287
2.6272,0.0125,-0.8179,3.2563,3.0458,-0.1794,4.1738,2.6162,2.0425,5.1463,5.4144,4.9564,7.8176,7.7695,1.8006,1.0928,0.0939,0.4089,4.6477,5.1491,7.1308,7.108,6.3226,6.0085,3.9934,4.28,5.8399,3.7812,-1.3728,-2.4102
3.0615,0.2146,-0.8007,3.3514,3.0157,-0.2992,4.2109,2.489,1.8617,5.1504,5.6024,5.2967,7.919,7.8871,2.2223,1.4301,0.5041,0.7745,5.1117,5.4428,7.3155,7.4896,6.6272,6.1489,3.9026,4.2147,6.013,3.9405,-1.4112,-2.6065
3.4682,0.4171,-0.7646,3.4581,3.0226,-0.3856,4.2619,2.3893,1.71,5.1609,5.7991,5.6082,7.9939,7.9796,2.5998,1.7366,0.8647,1.0492,5.4947,5.7023,7.4767,7.7756,6.8675,6.2262,3.7977,4.1345,6.1474,4.0866,-1.4286,-2.7999
3.8139,0.5919,-0.7261,3.5537,3.065,-0.4432,4.3087,2.3159,1.5931,5.1711,5.9729,5.8515,8.0229,8.0335,2.9039,1.9918,1.1487,1.217,5.7671,5.9107,7.6019,7.942,7.0174,6.228,3.6735,4.0308,6.2161,4.1953,-1.4203,-2.98
4.0684,0.7121,-0.6977,3.6151,3.1361,-0.4788,4.3367,2.2633,1.509,5.1734,6.0965,5.9971,7.9941,8.0397,3.112,2.1795,1.3346,1.2744,5.9116,6.0564,7.6825,7.9806,7.0622,6.1508,3.5261,3.8935,6.1977,4.243,-1.3871,-3.1443
4.2086,0.7557,-0.6851,3.6222,3.2237,-0.5002,4.3367,2.2218,1.4489,5.1596,6.1493,6.0279,7.9027,7.9933,3.2122,2.2891,1.4092,1.231,5.9245,6.1334,7.7127,7.8975,7.0004,5.9984,3.3524,3.7121,6.0784,4.2103,-1.3346,-3.2962
4.2229,0.7101,-0.6886,3.5621,3.3117,-0.514,4.3051,2.18,1.3992,5.1206,6.1195,5.9402,7.7509,7.8942,3.2051,2.3167,1.3713,1.1084,5.816,6.1415,7.6902,7.7112,6.8451,5.7805,3.1509,3.4787,5.8547,4.0858,-1.2713,-3.4429
4.1151,0.5758,-0.7038,3.4321,3.3825,-0.5246,4.2419,2.1256,1.3435,5.048,6.0034,5.7425,7.5459,7.7472,3.105,2.2669,1.2344,0.9385,5.6096,6.0867,7.6171,7.4493,6.6226,5.5115,2.9225,3.1907,5.5346,3.8685,-1.2069,-3.5916
3.9059,0.368,-0.7242,3.242,3.4201,-0.5329,4.1475,2.047,1.2653,4.9335,5.8041,5.4527,7.2991,7.5629,2.9379,2.1528,1.0269,0.7602,5.3395,5.9816,7.5009,7.1458,6.3701,5.2098,2.6721,2.8532,5.1366,3.5683,-1.1503,-3.7473
3.6299,0.1148,-0.7431,3.0126,3.4119,-0.5374,4.0196,1.9346,1.1503,4.771,5.529,5.0938,7.0236,7.356,2.7382,1.9955,0.7889,0.6143,5.0463,5.8438,7.3542,6.8368,6.1299,4.8954,2.4088,2.4802,4.687,3.2041,-1.109,-3.9121
3.3295,-0.1486,-0.7548,2.7713,3.3495,-0.5368,3.8523,1.7817,0.989,4.5565,5.1889,4.6901,6.7322,7.1427,2.5425,1.8201,0.5647,0.5356,4.7703,5.6925,7.1922,6.5561,5.9416,4.5881,2.1462,2.0929,4.2165,2.8009,-1.0881,-4.0842
3.0455,-0.3878,-0.7564,2.5445,3.2282,-0.5329,3.6368,1.5848,0.7785,4.29,4.7965,4.2634,6.4353,6.9363,2.3818,1.65,0.3926,0.5456,4.5436,5.5437,7.0282,6.3291,5.8323,4.304,1.9003,1.7173,3.7541,2.3852,-1.0896,-4.2593
2.8076,-0.5777,-0.7477,2.3499,3.0459,-0.5341,3.3647,1.3445,0.5239,3.9762,4.3671,3.8321,6.1396,6.7435,2.2746,1.5014,0.2958,0.6467,4.3832,5.4052,6.8693,6.1675,5.8099,4.0532,1.6875,1.3794,3.3235,1.9813,-1.1121,-4.4305
2.6268,-0.7091,-0.7331,2.1914,2.802,-0.5556,3.032,1.0659,0.2375,3.6252,3.9196,3.4109,5.847,6.5617,2.2225,1.3783,0.2758,0.8198,4.2866,5.2736,6.7131,6.0663,5.8596,3.838,1.521,1.101,2.9402,1.6085,-1.1514,-4.5904
2.4934,-0.79,-0.7217,2.0579,2.4979,-0.6167,2.6428,0.7585,-0.0618,3.2532,3.4768,3.0128,5.5564,6.38,2.2105,1.2718,0.3121,1.0278,4.2325,5.1344,6.5479,6.0042,5.9472,3.6529,1.4088,0.8956,2.6105,1.2798,-1.2003,-4.7324
2.3798,-0.8436,-0.7277,1.9267,2.138,-0.7363,2.212,0.4361,-0.3521,2.8811,3.0657,2.651,5.2654,6.1823,2.2109,1.1616,0.3674,1.2225,4.1862,4.966,6.3555,5.9483,6.0271,3.4868,1.3525,0.7673,2.3335,1.0026,-1.2505,-4.853
2.2485,-0.902,-0.7685,1.7709,1.7309,-0.9263,1.7646,0.1154,-0.6122,2.5325,2.7156,2.3404,4.9732,5.9533,2.1906,1.0218,0.3961,1.355,4.1079,4.7455,6.1174,5.862,6.0537,3.3269,1.347,0.7103,2.1047,0.7805,-1.2937,-4.953
2.0623,-0.9981,-0.862,1.5669,1.2902,-1.1876,1.3338,-0.1857,-0.8249,2.2307,2.4551,2.0972,4.6838,5.6837,2.1193,0.8276,0.3561,1.3858,3.9628,4.4551,5.8211,5.7143,5.9922,3.1632,1.3821,0.712,1.9195,0.6153,-1.3235,-5.0384
1.7941,-1.1579,-1.0219,1.302,0.8339,-1.5084,0.9551,-0.4504,-0.98,1.9961,2.3064,1.9368,4.4077,5.3754,1.9768,0.5617,0.218,1.2936,3.7295,4.0883,5.4657,5.4879,5.8275,2.993,1.4453,0.7566,1.7773,0.5088,-1.3364,-5.1185
1.4351,-1.3943,-1.2537,0.9781,0.3838,-1.8656,0.6601,-0.6657,-1.0762,1.8426,2.2802,1.8701,4.1613,5.0431,1.7577,0.2202,-0.0272,1.0797,3.4062,3.6533,5.0649,5.1848,5.5684,2.8232,1.5237,0.8288,1.682,0.4626,-1.3329,-5.2046
0.9986,-1.7029,-1.5505,0.6129,-0.037,-2.2291,0.4705,-0.8243,-1.1212,1.7762,2.3715,1.8986,3.9654,4.7133,1.4741,-0.1846,-0.3651,0.7688,3.0123,3.1738,4.6471,4.8281,5.247,2.6711,1.6072,0.9172,1.6416,0.4773,-1.3169,-5.3073
0.5199,-2.0617,-1.8912,0.2373,-0.4051,-2.5663,0.3938,-0.9258,-1.1298,1.7929,2.5573,2.0114,3.8408,4.4204,1.1554,-0.6231,-0.7585,0.4057,2.5868,2.6874,4.252,4.4586,4.912,2.5609,1.6895,1.0151,1.6646,0.5494,-1.2948,-5.4345
0.0507,-2.433,-2.2404,-0.1099,-0.6986,-2.8476,0.4226,-0.9769,-1.1212,1.8791,2.799,2.1839,3.8041,4.2008,0.8449,-1.0518,-1.1534,0.0485,2.1822,2.2407,3.924,4.128,4.62,2.5188,1.7684,1.1198,1.7558,0.6689,-1.2742,-5.5899
-0.3497,-2.7696,-2.5532,-0.3889,-0.8984,-3.0497,0.536,-0.9893,-1.1156,2.0126,3.0473,2.3798,3.8629,4.0855,0.5941,-1.4196,-1.4876,-0.2413,1.8559,1.8823,3.7049,3.8889,4.4231,2.5662,1.8442,1.23,1.9121,0.8182,-1.2618,-5.7721
-0.6242,-3.0218,-2.7823,-0.5651,-0.9897,-3.1586,0.7044,-0.9778,-1.1304,2.1654,3.2508,2.5562,4.0127,4.0936,0.4538,-1.6752,-1.7016,-0.4095,1.6598,1.6549,3.6255,3.7836,4.3596,2.713,1.9182,1.3431,2.1197,0.9723,-1.2624,-5.9747
-0.7276,-3.1454,-2.8876,-0.6154,-0.9636,-3.1696,0.8945,-0.9574,-1.1776,2.3072,3.3656,2.6716,4.2359,4.2269,0.4651,-1.7771,-1.7501,-0.4187,1.6309,1.5878,3.6995,3.836,4.4459,2.9537,1.9911,1.4536,2.3546,1.1023,-1.2772,-6.1879
-0.6339,-3.1091,-2.8446,-0.5304,-0.8191,-3.087,1.0755,-0.941,-1.2617,2.4105,3.3637,2.6933,4.5035,4.4693,0.6509,-1.7,-1.6099,-0.2559,1.7839,1.6909,3.9211,4.0458,4.6744,3.2656,2.061,1.5519,2.585,1.1804,-1.3032,-6.3998
-0.3405,-2.8989,-2.6497,-0.3154,-0.5639,-2.9219,1.2235,-0.9366,-1.38,2.4551,3.2385,2.6041,4.779,4.7885,1.0102,-1.4401,-1.2853,0.0653,2.1072,1.9532,4.2648,4.3884,5.0144,3.6122,2.1238,1.6258,2.7766,1.185,-1.3342,-6.599
0.1299,-2.5216,-2.3213,0.0099,-0.2161,-2.6916,1.3244,-0.9475,-1.523,2.4313,3.006,2.4052,5.0243,5.1414,1.5164,-1.0169,-0.8075,0.5064,2.5644,2.3434,4.6893,4.8192,5.4179,3.9484,2.1728,1.6624,2.8992,1.1062,-1.3616,-6.7761
0.732,-2.0043,-1.8957,0.4144,0.1964,-2.4181,1.3741,-0.973,-1.6781,2.341,2.701,2.1161,5.2059,5.4812,2.1212,-0.4702,-0.2288,1.0113,3.0998,2.8155,5.1445,5.281,5.8276,4.2288,2.2002,1.6508,2.9316,0.9476,-1.3768,-6.9251
1.4042,-1.3909,-1.4198,0.8588,0.6375,-2.1275,1.3772,-1.0098,-1.8319,2.1961,2.3698,1.7707,5.301,5.7661,2.7625,0.1453,0.3864,1.5169,3.6486,3.3159,5.5795,5.7147,6.187,4.4162,2.1993,1.5849,2.8667,0.727,-1.3734,-7.0443
2.0784,-0.7364,-0.9427,1.3016,1.0663,-1.8482,1.3433,-1.0546,-1.9736,2.0152,2.0616,1.4115,5.3013,5.9652,3.3755,0.7693,0.9739,1.9659,4.1483,3.7931,5.9507,6.0694,6.4505,4.4885,2.1663,1.4662,2.7129,0.4738,-1.3484,-7.1356
2.6916,-0.0977,-0.508,1.7046,1.4437,-1.6078,1.2831,-1.105,-2.0958,1.8202,1.8191,1.0833,5.2142,6.0638,3.9034,1.345,1.4801,2.3167,4.5496,4.2054,6.2281,6.3104,6.5908,4.4419,2.1018,1.3039,2.4926,0.2249,-1.3033,-7.2027
3.1955,0.4735,-0.1479,2.0386,1.7376,-1.4283,1.2055,-1.16,-2.1952,1.6312,1.6719,0.8265,5.0612,6.0634,4.3054,1.8272,1.8702,2.5502,4.824,4.5263,6.3983,6.4229,6.6026,4.2904,2.0108,1.1135,2.2375,0.0179,-1.2438,-7.2488
3.5631,0.9382,0.1203,2.2869,1.9289,-1.3218,1.1155,-1.2192,-2.2722,1.464,1.632,0.6706,4.8726,5.9797,4.5605,2.1869,2.1308,2.6697,4.9656,4.7453,6.4638,6.4114,6.5007,4.0614,1.9009,0.9141,1.9818,-0.1155,-1.1789,-7.2736
3.7901,1.2742,0.2952,2.4455,2.0146,-1.2885,1.0143,-1.2828,-2.3295,1.3267,1.6932,0.6304,4.6814,5.8372,4.668,2.4134,2.2683,2.6961,4.9887,4.8662,6.4388,6.2956,6.3148,3.7893,1.7812,0.7251,1.756,-0.1548,-1.1193,-7.2729
3.8921,1.477,0.3898,2.5214,2.0076,-1.3171,0.9011,-1.3501,-2.3716,1.2195,1.8341,0.7038,4.5166,5.6635,4.644,2.5123,2.3048,2.6607,4.9218,4.9026,6.3448,6.1043,6.0815,3.5088,1.6603,0.5623,1.581,-0.0952,-1.0753,-7.2393
3.8971,1.5588,0.4282,2.5291,1.9332,-1.388,0.7742,-1.4201,-2.4034,1.1356,2.022,0.8721,4.3981,5.4847,4.5173,2.5032,2.2708,2.5967,4.7998,4.8736,6.205,5.8693,5.8372,3.2495,1.5453,0.4369,1.467,0.0524,-1.0549,-7.1648
3.8381,1.5441,0.4395,2.4862,1.8223,-1.4792,0.6331,-1.4913,-2.4302,1.064,2.2205,1.1036,4.3337,5.3211,4.3233,2.4151,2.1995,2.5324,4.6569,4.8001,6.0409,5.6212,5.6128,3.0331,1.4414,0.3541,1.4127,0.2631,-1.0617,-7.0446
3.7455,1.4635,0.4524,2.41,1.7039,-1.5718,0.48,-1.5622,-2.4561,0.9938,2.3954,1.3599,4.3201,5.1862,4.0992,2.282,2.1204,2.4873,4.5214,4.7026,5.8706,5.3857,5.4303,2.8726,1.3523,0.3146,1.4095,0.5042,-1.0948,-6.88
3.6429,1.3484,0.4888,2.3148,1.5994,-1.6542,0.3196,-1.6311,-2.4843,0.9188,2.5218,1.6031,4.3449,5.0867,3.8787,2.138,2.0557,2.4703,4.4123,4.5998,5.7085,5.1823,5.3021,2.7735,1.28,0.3152,1.4448,0.7415,-1.1478,-6.6802
3.5459,1.2258,0.5606,2.2116,1.5192,-1.7225,0.1597,-1.6958,-2.5151,0.8405,2.5891,1.803,4.3925,5.0249,3.6886,2.0131,2.018,2.4801,4.3386,4.5081,5.5659,5.0231,5.2301,2.7359,1.2248,0.3498,1.5065,0.9467,-1.2105,-6.4619
3.4641,1.1162,0.6679,2.1088,1.4645,-1.7793,0.0103,-1.7526,-2.5461,0.7701,2.6035,1.9427,4.4491,5.0007,3.5467,1.9295,2.0113,2.5091,4.3006,4.4414,5.4527,4.9136,5.2083,2.7572,1.185,0.4106,1.5863,1.1024,-1.2706,-6.2473
3.4041,1.0337,0.8019,2.0147,1.4303,-1.8292,-0.1162,-1.7959,-2.5717,0.7268,2.5874,2.0206,4.5076,5.0139,3.4624,1.8999,2.0334,2.5473,4.2939,4.4104,5.3778,4.8532,5.2248,2.8333,1.1563,0.4872,1.6807,1.2041,-1.3162,-6.0601
3.3718,0.9863,0.9484,1.9381,1.41,-1.8749,-0.2059,-1.8187,-2.5847,0.7331,2.5748,2.0501,4.5694,5.0651,3.4382,1.9269,2.0796,2.587,4.3126,4.4221,5.3491,4.8377,5.2663,2.9593,1.1317,0.5671,1.7904,1.2592,-1.3386,-5.9226
3.3734,0.9776,1.0928,1.8885,1.3991,-1.9145,-0.246,-1.814,-2.5781,0.8078,2.6033,2.0552,4.6436,5.155,3.4721,2.0045,2.1469,2.6269,4.3525,4.4787,5.3718,4.8608,5.3216,3.1281,1.1017,0.6356,1.9173,1.2826,-1.3347,-5.8527
3.4142,1.0072,1.2249,1.8747,1.3962,-1.9411,-0.2271,-1.7775,-2.5483,0.9595,2.7042,2.0645,4.7428,5.2827,3.5597,2.12,2.2353,2.6731,4.4126,4.5772,5.4466,4.9163,5.3849,3.3292,1.056,0.6773,2.0606,1.291,-1.3077,-5.8627
3.4975,1.0715,1.3407,1.9017,1.4038,-1.9443,-0.1473,-1.7108,-2.4982,1.1812,2.8935,2.1041,4.8772,5.4431,3.6956,2.2576,2.3481,2.738,4.4949,4.7087,5.5678,4.9983,5.456,3.5475,0.9851,0.6778,2.214,1.2977,-1.2662,-5.9583
3.6236,1.1641,1.443,1.9687,1.4254,-1.9144,-0.0144,-1.623,-2.4381,1.4489,3.1653,2.1905,5.0493,5.6249,3.8734,2.401,2.4892,2.8362,4.6025,4.8596,5.7225,5.1015,5.5394,3.7629,0.8822,0.626,2.3629,1.3088,-1.2227,-6.1392
3.7882,1.2759,1.5383,2.0665,1.4639,-1.8465,0.152,-1.5313,-2.3856,1.7238,3.491,2.3257,5.25,5.8098,4.0853,2.5355,2.6596,2.9783,4.7353,5.0124,5.8901,5.2194,5.6403,3.9516,0.7446,0.5159,2.4853,1.3207,-1.1898,-6.3994
3.9816,1.394,1.6333,2.1769,1.5176,-1.7441,0.3221,-1.4589,-2.3622,1.9584,3.8233,2.4958,5.4574,5.9728,4.3195,2.648,2.8529,3.1655,4.8873,5.147,6.0445,5.3425,5.7609,4.0883,0.5748,0.3473,2.5542,1.322,-1.1781,-6.7275
4.1879,1.5018,1.7304,2.274,1.579,-1.6197,0.4597,-1.4306,-2.3882,2.1046,4.1057,2.6723,5.6395,6.0849,4.5595,2.7257,3.0532,3.3856,5.0429,5.2414,6.156,5.4564,5.8969,4.1502,0.3799,0.1257,2.542,1.2959,-1.1938,-7.1087
4.3843,1.5782,1.8247,2.3282,1.6347,-1.4938,0.5282,-1.4672,-2.4768,2.1228,4.2844,2.8179,5.76,6.1179,4.7836,2.7548,3.2353,3.6128,5.1773,5.2734,6.1959,5.542,6.0364,4.1206,0.1706,-0.1385,2.4264,1.225,-1.2379,-7.5249
4.5426,1.5992,1.9023,2.3109,1.6675,-1.3897,0.4976,-1.5805,-2.6303,1.9896,4.3201,2.8947,5.7853,6.0493,4.9661,2.72,3.3679,3.8124,5.2592,5.2224,6.1402,5.577,6.161,3.993,-0.0398,-0.4312,2.1962,1.096,-1.3065,-7.9555
4.6323,1.5409,1.9424,2.201,1.6596,-1.3285,0.3508,-1.7699,-2.8378,1.7019,4.1959,2.8728,5.6921,5.8669,5.0806,2.6055,3.4197,3.9478,5.2567,5.0713,5.9734,5.54,6.2493,3.7727,-0.2372,-0.7354,1.8548,0.9043,-1.3926,-8.3775
4.6254,1.3832,1.9207,1.9884,1.5965,-1.3247,0.0873,-2.0218,-3.077,1.2778,3.9206,2.7377,5.473,5.5724,5.1044,2.3983,3.3668,3.9899,5.1448,4.8101,5.6916,5.4148,6.2822,3.4772,-0.4076,-1.0326,1.423,0.656,-1.4876,-8.7652
4.5029,1.1159,1.8161,1.6773,1.4695,-1.383,-0.2756,-2.312,-3.3184,0.7538,3.5271,2.4953,5.1391,5.1816,5.0239,2.0934,3.1993,3.9245,4.9128,4.4393,5.3041,5.1953,6.2486,3.1346,-0.5381,-1.3032,0.9372,0.3696,-1.5828,-9.0916
4.2601,0.7425,1.617,1.286,1.2779,-1.4984,-0.7043,-2.6095,-3.5311,0.1801,3.0659,2.1714,4.7202,4.7232,4.8385,1.697,2.9253,3.7556,4.5687,3.9724,4.8334,4.889,6.1485,2.7798,-0.6177,-1.528,0.4457,0.0732,-1.671,-9.3301
3.9098,0.2834,1.3268,0.8445,1.0292,-1.6575,-1.1537,-2.8824,-3.6883,-0.3853,2.5969,1.8087,4.2604,4.2351,4.5612,1.2297,2.5702,3.504,4.1394,3.4368,4.3128,4.516,5.9944,2.4492,-0.6387,-1.6901,0.0017,-0.1987,-1.7463,-9.4581
3.4816,-0.2259,0.9666,0.3895,0.7385,-1.8428,-1.5735,-3.102,-3.7718,-0.8836,2.1792,1.4581,3.8116,3.7588,4.2165,0.7246,2.1719,3.2013,3.6653,2.8709,3.7828,4.1066,5.808,2.1757,-0.5988,-1.7772,-0.3446,-0.4117,-1.8044,-9.4609
3.0168,-0.74,0.5724,-0.0415,0.4258,-2.0358,-1.9155,-3.2472,-3.7739,-1.2623,1.8628,1.1699,3.4253,3.3334,3.8343,0.2226,1.7721,2.8811,3.1921,2.3188,3.2847,3.6944,5.6146,1.983,-0.5018,-1.7835,-0.555,-0.5371,-1.8415,-9.3351
2.5609,-1.2121,0.1894,-0.4171,0.1132,-2.2211,-2.1408,-3.3065,-3.6976,-1.4824,1.6804,0.984,3.1432,2.9903,3.4444,-0.2354,1.4075,2.5717,2.7604,1.8227,2.8545,3.3102,5.437,1.8822,-0.3588,-1.7118,-0.6093,-0.5582,-1.8543,-9.0906
2.1547,-1.6029,-0.1381,-0.7164,-0.1779,-2.3869,-2.2262,-3.279,-3.5543,-1.5242,1.6432,0.9229,2.9906,2.7488,3.0715,-0.6158,1.1025,2.2903,2.3988,1.4152,2.5176,2.9771,5.2907,1.8707,-0.1873,-1.5734,-0.509,-0.4734,-1.8406,-8.7509
1.8282,-1.8875,-0.3758,-0.9307,-0.4291,-2.5254,-2.1682,-3.1732,-3.3614,-1.3911,1.7402,0.9877,2.9726,2.6143,2.7332,-0.8983,0.8659,2.0423,2.1207,1.1149,2.2855,2.7084,5.1829,1.9329,-0.0084,-1.3877,-0.2776,-0.2974,-1.8001,-8.3514
1.596,-2.0586,-0.5071,-1.0627,-0.626,-2.6311,-1.9833,-3.0055,-3.1387,-1.1087,1.9411,1.1582,3.0741,2.579,2.441,-1.0783,0.6925,1.8251,1.925,0.9244,2.1556,2.5083,5.1133,2.0441,0.1559,-1.1797,0.0436,-0.0589,-1.7356,-7.9357
1.4574,-2.126,-0.5364,-1.1229,-0.7589,-2.6995,-1.7046,-2.7968,-2.9059,-0.7208,2.2029,1.398,3.2638,2.6249,2.2031,-1.1656,0.5679,1.6336,1.8006,0.833,2.1141,2.3751,5.0771,2.1752,0.2873,-0.9766,0.4022,0.2042,-1.6532,-7.5506
1.3993,-2.1121,-0.486,-1.1265,-0.8228,-2.7262,-1.3749,-2.5693,-2.6797,-0.2813,2.4792,1.6615,3.5016,2.7285,2.0264,-1.1805,0.4753,1.4655,1.7322,0.8205,2.1401,2.3039,5.0678,2.2981,0.3733,-0.8045,0.743,0.4508,-1.5614,-7.2396
1.401,-2.0459,-0.3896,-1.0895,-0.8174,-2.7066,-1.0385,-2.3434,-2.4725,0.1552,2.728,1.9021,3.7455,2.8658,1.9175,-1.1478,0.4016,1.3247,1.7044,0.8638,2.2106,2.2886,5.0801,2.39,0.4097,-0.6841,1.0164,0.6434,-1.4694,-7.0374
1.4414,-1.9556,-0.2841,-1.0267,-0.7474,-2.6377,-0.7329,-2.1351,-2.2916,0.5419,2.9183,2.0808,3.9592,3.0161,1.8827,-1.0902,0.3407,1.2212,1.7061,0.9423,2.3051,2.323,5.1111,2.437,0.4006,-0.6286,1.1861,0.754,-1.3847,-6.9635
1.5039,-1.8639,-0.2007,-0.9506,-0.6228,-2.5198,-0.4832,-1.9555,-2.1406,0.8456,3.0333,2.1714,4.1175,3.1649,1.9254,-1.0241,0.2943,1.1668,1.7307,1.0404,2.4083,2.3998,5.1609,2.4343,0.3568,-0.6416,1.2335,0.7674,-1.3121,-7.02
1.5796,-1.7844,-0.1608,-0.8715,-0.458,-2.3596,-0.3008,-1.8109,-2.0203,1.0491,3.0697,2.1637,4.2083,3.303,2.0432,-0.9578,0.269,1.1709,1.7752,1.1486,2.51,2.5093,5.2309,2.3855,0.2931,-0.7182,1.1598,0.6835,-1.2525,-7.1904
1.6664,-1.7227,-0.1728,-0.7988,-0.2721,-2.1716,-0.1844,-1.705,-1.9313,1.1496,3.0346,2.0634,4.2323,3.425,2.2255,-0.8929,0.2726,1.2355,1.8381,1.2613,2.6043,2.6385,5.3213,2.2997,0.2251,-0.846,0.9835,0.5158,-1.204,-7.4429
1.7663,-1.678,-0.2337,-0.7407,-0.0867,-1.9788,-0.1252,-1.6408,-1.876,1.1548,2.941,1.8884,4.2003,3.5275,2.4528,-0.8265,0.3099,1.354,1.9165,1.3742,2.6876,2.7707,5.428,2.1892,0.1662,-1.0079,0.7367,0.2892,-1.1633,-7.7358
1.8817,-1.6464,-0.3315,-0.7042,0.0763,-1.8105,-0.1124,-1.6226,-1.8597,1.078,2.8034,1.6647,4.1298,3.6072,2.6992,-0.7549,0.3809,1.5123,2.0062,1.483,2.7574,2.8885,5.5412,2.0672,0.1258,-1.1841,0.4587,0.0354,-1.1277,-8.0254
2.0125,-1.6233,-0.4498,-0.6942,0.1978,-1.698,-0.1382,-1.6566,-1.8911,0.9342,2.6342,1.4209,4.0406,3.6616,2.9371,-0.6753,0.4812,1.6933,2.1017,1.583,2.8124,2.9772,5.6453,1.9469,0.1091,-1.3547,0.1896,-0.2124,-1.0969,-8.2741
2.155,-1.605,-0.5718,-0.7122,0.2646,-1.6698,-0.2009,-1.7498,-1.9798,0.738,2.4434,1.1839,3.9519,3.6899,3.1428,-0.5868,0.6035,1.8798,2.1983,1.6704,2.8529,3.0278,5.7223,1.841,0.1179,-1.5009,-0.0354,-0.4233,-1.0731,-8.4573
2.3027,-1.5897,-0.6842,-0.756,0.2714,-1.7455,-0.3039,-1.907,-2.1325,0.5047,2.2396,0.9764,3.8799,3.6945,3.3011,-0.4901,0.7392,2.0576,2.2931,1.7435,2.8818,3.0404,5.7567,1.762,0.1522,-1.6062,-0.1901,-0.5736,-1.0608,-8.567
2.447,-1.5771,-0.7802,-0.8205,0.2224,-1.931,-0.4514,-2.1261,-2.3486,0.2513,2.0331,0.8159,3.8359,3.682,3.4074,-0.3872,0.8797,2.2158,2.3852,1.8039,2.904,3.0233,5.7404,1.7207,0.2112,-1.6582,-0.2596,-0.6481,-1.0648,-8.611
2.5789,-1.5688,-0.8603,-0.8986,0.1294,-2.2153,-0.6428,-2.3952,-2.616,-0.0014,1.8386,0.715,3.8256,3.6619,3.4659,-0.2816,1.0162,2.3461,2.4749,1.8555,2.926,2.9907,5.6762,1.7254,0.294,-1.6494,-0.2408,-0.6414,-1.0881,-8.608
2.6902,-1.5676,-0.9311,-0.983,0.0098,-2.5702,-0.8672,-2.6903,-2.9096,-0.2297,1.6765,0.6827,3.8483,3.6446,3.4859,-0.1786,1.139,2.4413,2.5616,1.9031,2.9534,2.9588,5.5788,1.7795,0.3984,-1.5788,-0.1417,-0.557,-1.1303,-8.5802
2.7743,-1.578,-1.0008,-1.0672,-0.1176,-2.9536,-1.1018,-2.9776,-3.1936,-0.4094,1.5708,0.724,3.8972,3.6387,3.4774,-0.0859,1.2377,2.4949,2.6428,1.9502,2.9894,2.9414,5.4727,1.8797,0.5203,-1.453,0.0199,-0.406,-1.1863,-8.5464
2.8274,-1.6045,-1.0743,-1.1463,-0.2363,-3.3166,-1.3151,-3.2181,-3.4265,-0.52,1.5446,0.8401,3.9602,3.6488,3.4475,-0.0121,1.3014,2.5006,2.7134,1.9982,3.0337,2.9468,5.3867,2.0147,0.6522,-1.2854,0.2196,-0.2054,-1.248,-8.5169
2.8497,-1.6513,-1.1489,-1.2175,-0.3349,-3.6123,-1.4731,-3.3754,-3.5696,-0.5487,1.6151,1.0269,4.022,3.6743,3.3992,0.0343,1.321,2.4538,2.7668,2.0462,3.0828,2.9769,5.3485,2.1671,0.7837,-1.0949,0.4298,0.0244,-1.3051,-8.4921
2.8453,-1.7211,-1.2147,-1.2792,-0.4076,-3.8047,-1.5479,-3.4235,-3.5948,-0.4938,1.7892,1.2753,4.067,3.7102,3.332,0.0482,1.2916,2.3527,2.7975,2.092,3.1311,3.0282,5.3782,2.3163,0.903,-0.9026,0.6243,0.2625,-1.3487,-8.4633
2.8222,-1.8132,-1.2587,-1.3311,-0.4542,-3.8768,-1.5252,-3.3525,-3.4912,-0.3641,2.0611,1.5719,4.0833,3.7496,3.2442,0.0286,1.2138,2.2,2.8025,2.1335,3.1731,3.094,5.4853,2.4442,1.0005,-0.7262,0.7841,0.4915,-1.3728,-8.4183
2.7895,-1.9245,-1.2719,-1.3742,-0.4788,-3.8335,-1.4082,-3.1718,-3.2685,-0.1766,2.4137,1.9014,4.066,3.7863,3.1352,-0.02,1.0948,2.0036,2.7835,2.1701,3.2058,3.1674,5.6657,2.5406,1.0719,-0.5764,0.9006,0.7008,-1.376,-8.3473
2.7554,-2.0492,-1.255,-1.4112,-0.4885,-3.7011,-1.2176,-2.9087,-2.9559,0.0469,2.8215,2.2489,4.0186,3.8172,3.0086,-0.0889,0.9469,1.7767,2.7462,2.2026,3.2291,3.2426,5.9035,2.6057,1.1203,-0.4537,0.9778,0.8886,-1.3614,-8.2488
2.7244,-2.1805,-1.2206,-1.4461,-0.4917,-3.5212,-0.9864,-2.603,-2.5965,0.2841,3.2547,2.6011,3.9523,3.843,2.8725,-0.1673,0.7859,1.5362,2.6997,2.2329,3.2464,3.3162,6.1731,2.6499,1.1555,-0.3496,1.0302,1.0609,-1.336,-8.1313
