FP1,F3,F7,FC3,C3,C5,P3,P7,PO7,PO3,O1,Oz,Pz,CPz,FP2,Fz,F4,F8,FC4,FCz,Cz,C4,C6,P4,P8,PO8,PO4,O2,HEOG_left,HEOG_right
2.3337,2.9479,3.2709,1.9987,1.4853,1.3064,0.3554,0.2236,-0.1177,-0.3124,-1.3789,0.9603,0.0042,0.7688,1.9951,2.2026,2.7267,0.4775,1.8059,2.2991,1.539,0.7404,-2.1839,0.4939,-2.1076,-4.5746,-0.26,-1.8047,3.3144,0.3877
2.5651,2.6282,2.9334,1.853,1.0855,0.9237,0.0001,0.106,-0.2285,-0.0984,-0.8257,0.5626,-0.6623,0.0462,1.7442,2.0079,2.1768,0.2463,1.0034,1.9497,1.0579,0.1658,-1.7743,-0.8601,-2.55,-4.1347,-1.3607,-1.9171,2.6997,0.8857
2.7561,2.3405,2.6123,1.7395,0.7581,0.6053,-0.2653,0.0429,-0.2395,0.1972,-0.2771,0.2704,-1.1868,-0.5449,1.544,1.8512,1.7058,0.0897,0.3297,1.6622,0.6707,-0.2925,-1.3375,-1.9712,-2.8727,-3.6675,-2.2723,-1.9641,2.1436,1.3366
2.8668,2.0953,2.321,1.6659,0.5453,0.3917,-0.3786,0.0743,-0.0821,0.6166,0.2619,0.1652,-1.4627,-0.9116,1.4219,1.7453,1.3697,0.0527,-0.1185,1.47,0.4354,-0.5521,-0.8765,-2.658,-2.9804,-3.1345,-2.8515,-1.8789,1.6841,1.6892
2.8601,1.8894,2.0556,1.6268,0.4647,0.3023,-0.3069,0.2205,0.2752,1.1691,0.782,0.2963,-1.4263,-1.0035,1.3833,1.6836,1.1914,0.1523,-0.2885,1.38,0.3753,-0.5691,-0.4075,-2.816,-2.8185,-2.5096,-3.0106,-1.6197,1.3291,1.8963
2.7079,1.7066,1.7949,1.6034,0.5055,0.3311,-0.0531,0.4783,0.8186,1.826,1.2713,0.6737,-1.0672,-0.8207,1.4095,1.6405,1.1554,0.3731,-0.1825,1.3708,0.4744,-0.3467,0.0424,-2.4322,-2.3803,-1.7849,-2.7275,-1.1762,1.0574,1.921
2.3987,1.5225,1.5081,1.568,0.6323,0.448,0.3467,0.8223,1.4909,2.5263,1.7176,1.2674,-0.4286,-0.4112,1.4631,1.5781,1.2124,0.6725,0.145,1.399,0.6832,0.066,0.4404,-1.5813,-1.7031,-0.9717,-2.0437,-0.5696,0.8291,1.7442
1.9442,1.3116,1.169,1.4906,0.7936,0.6061,0.8303,1.2108,2.2034,3.1889,2.1114,2.0138,0.4024,0.1414,1.4987,1.4566,1.2916,0.9902,0.5991,1.4118,0.9323,0.5852,0.7565,-0.4053,-0.8571,-0.0982,-1.0521,0.154,0.6017,1.3716
1.3806,1.0548,0.7692,1.3471,0.9334,0.7524,1.3214,1.5942,2.8545,3.7302,2.4464,2.8247,1.3099,0.7357,1.4735,1.2469,1.3185,1.2623,1.0647,1.3607,1.1485,1.1087,0.9694,0.9155,0.0701,0.7957,0.1208,0.9321,0.3454,0.8367
0.7645,0.7451,0.3247,1.1253,1.0039,0.8408,1.7423,1.9228,3.351,4.0819,2.718,3.6,2.1695,1.2717,1.3576,0.9393,1.2312,1.4332,1.4297,1.214,1.271,1.5356,1.0709,2.1953,0.9876,1.664,1.3347,1.6952,0.0525,0.1983
0.1612,0.3912,-0.1273,0.8302,0.9754,0.8416,2.0265,2.1553,3.6259,4.2035,2.9204,4.24,2.867,1.668,1.1395,0.5482,0.9929,1.4662,1.6058,0.9644,1.2631,1.7843,1.066,3.2712,1.8143,2.459,2.4548,2.3744,-0.2613,-0.4688
-0.3681,0.0172,-0.5398,0.4848,0.8425,0.7477,2.1291,2.2645,3.6492,4.0896,3.0436,4.6586,3.3161,1.8738,0.828,0.1104,0.5993,1.3488,1.5445,0.6302,1.1182,1.8067,0.9708,4.0256,2.4862,3.1336,3.3678,2.9072,-0.5624,-1.0852
-0.7775,-0.3395,-0.8685,0.1281,0.6254,0.5755,2.033,2.2397,3.4285,3.7678,3.0722,4.7946,3.4698,1.8753,0.4504,-0.3211,0.0794,1.0947,1.2454,0.2514,0.8603,1.5961,0.8094,4.3985,2.9613,3.642,3.9952,3.2411,-0.8089,-1.5805
-1.0424,-0.6347,-1.0819,-0.1914,0.3642,0.3599,1.7505,2.0878,3.0027,3.2905,2.9858,4.6193,3.3246,1.6937,0.0487,-0.6869,-0.5079,0.7411,0.7554,-0.1183,0.5368,1.1882,0.61,4.3898,3.2192,3.941,4.299,3.3385,-0.9613,-1.9033
-1.1593,-0.8259,-1.1652,-0.426,0.1088,0.1461,1.3198,1.8297,2.4294,2.7212,2.7633,4.1402,2.9164,1.3769,-0.3278,-0.9332,-1.0829,0.3418,0.159,-0.424,0.2074,0.6534,0.4022,4.0496,3.2595,3.9943,4.2802,3.1812,-0.9898,-2.0272
-1.1415,-0.8824,-1.1199,-0.5406,-0.094,-0.0228,0.7961,1.4964,1.7731,2.1195,2.3878,3.3979,2.3088,0.9849,-0.6312,-1.0239,-1.5593,-0.0433,-0.4398,-0.6219,-0.0711,0.0815,0.2125,3.4601,3.0977,3.781,3.9705,2.7756,-0.8797,-1.9519
-1.0149,-0.7946,-0.9596,-0.5226,-0.2141,-0.1157,0.2402,1.1219,1.0956,1.5298,1.8526,2.4597,1.5781,0.5754,-0.826,-0.9494,-1.8621,-0.3614,-0.9414,-0.6907,-0.2598,-0.4388,0.0609,2.7126,2.7611,3.3053,3.4195,2.1546,-0.6332,-1.7004
-0.8125,-0.5786,-0.7071,-0.3872,-0.2448,-0.1213,-0.2925,0.7381,0.4511,0.9756,1.1667,1.4094,0.7981,0.1906,-0.8976,-0.7305,-1.9452,-0.5778,-1.2734,-0.6375,-0.3473,-0.8399,-0.0424,1.8875,2.2847,2.6026,2.6828,1.3762,-0.2684,-1.3126
-0.5711,-0.2746,-0.3924,-0.1738,-0.2042,-0.0502,-0.7606,0.3699,-0.1156,0.462,0.3568,0.335,0.0293,-0.1489,-0.8568,-0.415,-1.8041,-0.6834,-1.4059,-0.4958,-0.3516,-1.089,-0.0976,1.0406,1.7077,1.7372,1.8138,0.5163,0.1829,-0.8371
-0.3288,0.0615,-0.0523,0.063,-0.1279,0.0686,-1.1393,0.0341,-0.5697,-0.0168,-0.5345,-0.6826,-0.6861,-0.4427,-0.7372,-0.0677,-1.4772,-0.6941,-1.3548,-0.3175,-0.3141,-1.1921,-0.1148,0.2014,1.0695,0.7908,0.86,-0.3438,0.6781,-0.3244
-0.1219,0.3698,0.2709,0.2675,-0.058,0.1957,-1.4195,-0.2599,-0.8892,-0.4679,-1.4538,-1.5795,-1.3238,-0.7041,-0.5857,0.2438,-1.0349,-0.6446,-1.1728,-0.1593,-0.2864,-1.1869,-0.1127,-0.6211,0.4069,-0.1556,-0.1357,-1.1306,1.1665,0.1788
0.0185,0.5993,0.5332,0.3953,-0.0308,0.2909,-1.6029,-0.507,-1.0673,-0.8915,-2.3441,-2.3154,-1.8723,-0.9506,-0.4515,0.4627,-0.5619,-0.5776,-0.9313,-0.0691,-0.3157,-1.1282,-0.1156,-1.4255,-0.2492,-1.0386,-1.133,-1.7902,1.5945,0.6331
0.0703,0.7163,0.696,0.4214,-0.0686,0.3223,-1.6971,-0.7032,-1.1154,-1.2766,-3.151,-2.8737,-2.3263,-1.1946,-0.3738,0.5541,-0.1385,-0.5334,-0.7014,-0.0754,-0.4328,-1.07,-0.1493,-2.2054,-0.8748,-1.8228,-2.0906,-2.2941,1.9106,1.0078
0.0248,0.7086,0.7337,0.3425,-0.1746,0.273,-1.7101,-0.8436,-1.0605,-1.6021,-3.8252,-3.2566,-2.6791,-1.4364,-0.3743,0.5098,0.1741,-0.5405,-0.5374,-0.1829,-0.6436,-1.051,-0.2351,-2.9393,-1.4523,-2.4988,-2.9622,-2.6386,2.073,1.2823
-0.1104,0.5847,0.6409,0.1743,-0.3343,0.145,-1.6468,-0.9227,-0.939,-1.8394,-4.323,-3.475,-2.9168,-1.6612,-0.4538,0.3472,0.3399,-0.6107,-0.4674,-0.3735,-0.9274,-1.0847,-0.3827,-3.5853,-1.9675,-3.0721,-3.6942,-2.8368,2.0575,1.4476
-0.3118,0.3684,0.4354,-0.0545,-0.5191,-0.0418,-1.5064,-0.9353,-0.7854,-1.9577,-4.6052,-3.5374,-3.0163,-1.8399,-0.5939,0.1026,0.3493,-0.7368,-0.4921,-0.6127,-1.2405,-1.1588,-0.5833,-4.0834,-2.4054,-3.5472,-4.2241,-2.9075,1.8623,1.5059
-0.544,0.0927,0.1557,-0.3099,-0.6938,-0.2547,-1.2838,-0.8788,-0.6214,-1.9304,-4.6376,-3.4429,-2.9485,-1.9351,-0.7626,-0.1794,0.2145,-0.8955,-0.5896,-0.8592,-1.5265,-1.2408,-0.8084,-4.3648,-2.747,-3.9145,-4.4857,-2.8652,1.5098,1.4687
-0.7677,-0.208,-0.1474,-0.5599,-0.8256,-0.4565,-0.9738,-0.7552,-0.4509,-1.7425,-4.396,-3.1823,-2.6869,-1.9107,-0.9238,-0.4573,-0.0362,-1.0531,-0.725,-1.0753,-1.7295,-1.2901,-1.0142,-4.3667,-2.9678,-4.1457,-4.4192,-2.7153,1.0422,1.3523
-0.9491,-0.5051,-0.4228,-0.7814,-0.8928,-0.616,-0.5787,-0.5737,-0.2626,-1.3972,-3.8743,-2.7469,-2.2194,-1.7431,-1.0458,-0.7025,-0.3653,-1.1747,-0.8607,-1.2364,-1.8087,-1.2714,-1.1549,-4.0497,-3.0414,-4.1992,-3.9875,-2.4557,0.5123,1.1712
-1.0689,-0.7801,-0.6325,-0.9633,-0.8912,-0.7162,-0.1154,-0.3514,-0.0398,-0.9214,-3.0945,-2.1423,-1.5593,-1.4309,-1.1098,-0.9042,-0.7311,-1.2337,-0.9657,-1.3348,-1.7488,-1.1661,-1.1971,-3.413,-2.9456,-4.0325,-3.1917,-2.0843,-0.0266,0.933
-1.1262,-1.0249,-0.7599,-1.1071,-0.8342,-0.758,0.3814,-0.1128,0.2282,-0.3657,-2.1119,-1.3997,-0.7513,-0.9985,-1.1125,-1.0671,-1.0919,-1.2174,-1.0205,-1.379,-1.5628,-0.977,-1.131,-2.5022,-2.67,-3.6175,-2.0817,-1.6073,-0.5303,0.6368
-1.1374,-1.2388,-0.8109,-1.2214,-0.7483,-0.7571,0.8618,0.1129,0.5352,0.2012,-1.0142,-0.58,0.1317,-0.4925,-1.0646,-1.2044,-1.4078,-1.1284,-1.0177,-1.3865,-1.2872,-0.727,-0.9719,-1.4059,-2.2226,-2.9528,-0.7564,-1.0453,-0.969,0.277
-1.1275,-1.4219,-0.8072,-1.316,-0.663,-0.7368,1.2702,0.2976,0.8545,0.703,0.0883,0.2314,0.9984,0.0281,-0.9831,-1.3261,-1.641,-0.9796,-0.9581,-1.3741,-0.9692,-0.4498,-0.7528,-0.2419,-1.6323,-2.0707,0.6479,-0.4345,-1.3271,-0.1471
-1.1185,-1.5693,-0.7747,-1.3942,-0.6003,-0.7173,1.5568,0.4196,1.1401,1.0696,1.0795,0.9395,1.7557,0.5054,-0.8832,-1.4298,-1.7573,-0.7873,-0.8453,-1.3484,-0.6522,-0.1784,-0.5093,0.8636,-0.9465,-1.0353,1.9791,0.1776,-1.5989,-0.6209
-1.1183,-1.6674,-0.7322,-1.4491,-0.5673,-0.7083,1.6892,0.468,1.3343,1.2487,1.8574,1.458,2.3255,0.8948,-0.7718,-1.4965,-1.7301,-0.5647,-0.6819,-1.3012,-0.3648,0.0646,-0.2653,1.7992,-0.2243,0.0653,3.094,0.7395,-1.7829,-1.1062
-1.1159,-1.6958,-0.6863,-1.464,-0.5545,-0.7064,1.6587,0.4421,1.3803,1.2139,2.3523,1.7264,2.6579,1.1722,-0.6456,-1.4946,-1.5463,-0.3191,-0.4695,-1.2117,-0.1157,0.2719,-0.0247,2.4857,0.473,1.1322,3.8824,1.2062,-1.8765,-1.5417
-1.0845,-1.6321,-0.6321,-1.4172,-0.5398,-0.6975,1.4802,0.3471,1.2355,0.9657,2.5382,1.7223,2.7379,1.3357,-0.4942,-1.3905,-1.2122,-0.0528,-0.2106,-1.0549,0.1032,0.4505,0.227,2.8877,1.0913,2.0707,4.283,1.547,-1.8749,-1.8527
-0.9912,-1.4606,-0.5585,-1.2895,-0.4965,-0.663,1.1881,0.1886,0.8838,0.5301,2.435,1.4638,2.5854,1.402,-0.3071,-1.1619,-0.7561,0.2325,0.0879,-0.8119,0.3093,0.6153,0.5124,3.0139,1.592,2.8039,4.2902,1.7502,-1.7742,-1.9685
-0.8108,-1.1794,-0.4568,-1.0714,-0.4021,-0.5864,0.8278,-0.0288,0.3414,-0.0471,2.1009,1.0041,2.2479,1.3985,-0.08,-0.8091,-0.2247,0.5312,0.4124,-0.4802,0.5185,0.7814,0.8471,2.9092,1.956,3.2836,3.95,1.8226,-1.5766,-1.8442
-0.5371,-0.8061,-0.3266,-0.7689,-0.2466,-0.4598,0.4472,-0.3003,-0.3447,-0.7069,1.6173,0.4179,1.7886,1.3536,0.1793,-0.3608,0.3235,0.8293,0.7417,-0.0786,0.7373,0.9552,1.2256,2.6405,2.1827,3.495,3.3463,1.7841,-1.296,-1.4772
-0.1896,-0.3779,-0.1791,-0.4069,-0.037,-0.2885,0.0873,-0.6161,-1.1041,-1.3853,1.0709,-0.2144,1.2717,1.2881,0.4491,0.1285,0.8278,1.1029,1.0478,0.3526,0.9569,1.1297,1.6149,2.2775,2.2847,3.4545,2.581,1.6604,-0.9601,-0.9153
0.1877,0.0513,-0.0368,-0.0272,0.2012,-0.0917,-0.2239,-0.9569,-1.8562,-2.021,0.536,-0.8218,0.7488,1.2081,0.6947,0.5872,1.233,1.3199,1.2982,0.7578,1.1524,1.2827,1.9575,1.877,2.281,3.2021,1.7529,1.4754,-0.6093,-0.2506
0.5343,0.4197,0.0706,0.3163,0.4283,0.0999,-0.4747,-1.2931,-2.5226,-2.5626,0.0641,-1.3526,0.2513,1.1035,0.8745,0.9407,1.4962,1.4441,1.4595,1.0761,1.2873,1.3812,2.1841,1.4721,2.1893,2.7906,0.941,1.2465,-0.2907,0.3977
0.7857,0.6676,0.1135,0.5671,0.5981,0.251,-0.6669,-1.5857,-3.0393,-2.9728,-0.3176,-1.7758,-0.2102,0.9522,0.9467,1.1263,1.589,1.4423,1.5021,1.2534,1.3219,1.3887,2.2311,1.0702,2.0226,2.2758,0.1959,0.9839,-0.0507,0.9098
0.8875,0.7499,0.0707,0.678,0.6699,0.3294,-0.8093,-1.7924,-3.3643,-3.2285,-0.5992,-2.0764,-0.6384,0.7298,0.879,1.1066,1.4993,1.292,1.4043,1.254,1.2242,1.2765,2.0582,0.6613,1.7893,1.7106,-0.4583,0.6951,0.0734,1.1912
0.8077,0.6459,-0.0641,0.6226,0.6194,0.3155,-0.9085,-1.875,-3.4808,-3.3184,-0.7765,-2.2477,-1.0365,0.4222,0.6572,0.8775,1.2316,0.9886,1.1573,1.0693,0.9814,1.034,1.6614,0.2319,1.4979,1.1434,-1.0147,0.3914,0.06,1.1934
0.545,0.3655,-0.2783,0.4033,0.4468,0.2078,-0.9619,-1.8082,-3.3949,-3.2392,-0.8414,-2.2853,-1.3953,0.0369,0.2916,0.4707,0.8071,0.5515,0.7702,0.7219,0.6073,0.6764,1.0786,-0.2187,1.1609,0.6173,-1.4697,0.0929,-0.0922,0.9228
0.1302,-0.0508,-0.5427,0.0539,0.1794,0.0251,-0.956,-1.5877,-3.1303,-2.9937,-0.7785,-2.186,-1.6871,-0.3922,-0.1802,-0.0518,0.2654,0.0241,0.273,0.2624,0.1444,0.2462,0.3839,-0.6684,0.7987,0.171,-1.813,-0.1701,-0.363,0.4369
-0.3794,-0.5387,-0.8174,-0.3655,-0.1334,-0.197,-0.8705,-1.2339,-2.7213,-2.5917,-0.5694,-1.9507,-1.8666,-0.8078,-0.6972,-0.6093,-0.336,-0.5294,-0.2833,-0.2385,-0.3424,-0.1932,-0.3275,-1.0711,0.4387,-0.1636,-2.0245,-0.3602,-0.7137,-0.1709
-0.9115,-1.021,-1.0604,-0.7801,-0.4296,-0.4135,-0.6866,-0.7888,-2.2071,-2.0517,-0.2023,-1.589,-1.8813,-1.1403,-1.1848,-1.1167,-0.9256,-1.0347,-0.831,-0.7028,-0.7772,-0.5691,-0.9582,-1.3647,0.1123,-0.3641,-2.0777,-0.4407,-1.0931,-0.7917
-1.3933,-1.4213,-1.2354,-1.1143,-0.647,-0.5784,-0.3953,-0.3072,-1.6295,-1.4026,0.3184,-1.1236,-1.6857,-1.3222,-1.5672,-1.4997,-1.4248,-1.4187,-1.2947,-1.0592,-1.0872,-0.8133,-1.427,-1.4852,-0.1496,-0.4221,-1.9488,-0.3844,-1.4456,-1.3233
-1.7637,-1.6775,-1.3172,-1.3067,-0.7356,-0.6536,-0.0036,0.1565,-1.0321,-0.6828,0.9665,-0.5901,-1.2554,-1.3027,-1.7818,-1.7055,-1.7602,-1.622,-1.6038,-1.2544,-1.2169,-0.8752,-1.6793,-1.3814,-0.3198,-0.3444,-1.6255,-0.1808,-1.7207,-1.6872
-1.982,-1.7516,-1.2932,-1.3217,-0.6668,-0.6155,0.4649,0.56,-0.46,0.0624,1.6931,-0.0336,-0.5966,-1.0586,-1.7897,-1.7095,-1.8767,-1.6083,-1.7059,-1.2607,-1.1369,-0.7308,-1.69,-1.0274,-0.3784,-0.1513,-1.1136,0.1596,-1.8808,-1.839
-2.0299,-1.6355,-1.1628,-1.155,-0.4389,-0.4591,0.9723,0.8794,0.0422,0.7853,2.4337,0.4983,0.2499,-0.5993,-1.5832,-1.5159,-1.7497,-1.3706,-1.578,-1.0786,-0.8494,-0.3861,-1.4607,-0.4299,-0.3131,0.1294,-0.4404,0.6065,-1.9059,-1.7713
-1.9112,-1.3512,-0.9374,-0.8341,-0.0773,-0.2001,1.4724,1.1084,0.4348,1.4395,3.1178,0.964,1.2128,0.0344,-1.1861,-1.1539,-1.3925,-0.932,-1.2315,-0.7347,-0.3869,0.1233,-1.0152,0.3693,-0.121,0.4711,0.3465,1.1153,-1.7966,-1.5093
-1.648,-0.9452,-0.6406,-0.411,0.3709,0.1265,1.9166,1.2524,0.6889,1.9838,3.681,1.3338,2.1989,0.7762,-0.6486,-0.6707,-0.8542,-0.3426,-0.7112,-0.2754,0.1935,0.7392,-0.3975,1.2974,0.1911,0.8568,1.1828,1.6364,-1.5723,-1.102
-1.2766,-0.4786,-0.3094,0.0497,0.8456,0.4724,2.2614,1.3218,0.791,2.3866,4.0753,1.5942,3.107,1.5445,-0.0378,-0.1226,-0.2094,0.3293,-0.0854,0.2418,0.8196,1.3892,0.3307,2.2604,0.6058,1.2822,1.9953,2.1238,-1.268,-0.6113
-0.8422,-0.0149,0.0089,0.4847,1.2861,0.7852,2.4752,1.3283,0.7461,2.63,4.2748,1.7471,3.8425,2.2551,0.5753,0.434,0.4581,1.0084,0.5674,0.7585,1.416,1.9993,1.0934,3.1563,1.0953,1.7538,2.7106,2.5419,-0.9273,-0.1
-0.3932,0.3938,0.2644,0.8456,1.6428,1.0211,2.5435,1.284,0.5758,2.7134,4.277,1.8062,4.332,2.8344,1.1279,0.9507,1.0739,1.6249,1.1733,1.2248,1.9163,2.5055,1.8091,3.8927,1.623,2.2809,3.2663,2.8682,-0.5942,0.3774
0.0262,0.7162,0.418,1.1085,1.8867,1.1553,2.4722,1.2026,0.3142,2.6547,4.0995,1.7916,4.5343,3.231,1.5765,1.3934,1.5879,2.1271,1.6766,1.6071,2.2742,2.8642,2.4043,4.4013,2.1479,2.8667,3.62,3.0927,-0.3039,0.7821
0.3822,0.9474,0.4538,1.2761,2.0139,1.1886,2.2861,1.099,0.0006,2.4869,3.7732,1.7242,4.4464,3.4237,1.9017,1.7464,1.9823,2.4891,2.0485,1.8925,2.47,3.0591,2.8272,4.6504,2.6313,3.5009,3.7566,3.2145,-0.0754,1.0944
0.6567,1.106,0.3876,1.3739,2.0448,1.1473,2.0248,0.9873,-0.3277,2.2513,3.3349,1.6206,4.1032,3.4233,2.1094,2.0133,2.27,2.7129,2.2901,2.0887,2.513,3.1026,3.0595,4.6493,3.044,4.1571,3.6916,3.2384,0.0924,1.3128
0.849,1.2268,0.2644,1.4404,2.017,1.0764,1.7349,0.8785,-0.6409,1.9885,2.8219,1.4912,3.5705,3.2694,2.2254,2.2138,2.4865,2.8256,2.4292,2.2206,2.4381,3.0324,3.1198,4.4461,3.3714,4.7946,3.4685,3.1713,0.2191,1.4513
0.9745,1.348,0.1475,1.5155,1.9762,1.0276,1.4622,0.7776,-0.9179,1.7292,2.2686,1.3405,2.9326,3.0208,2.2877,2.3782,2.6765,2.8702,2.5112,2.3225,2.2965,2.9035,3.058,4.1173,3.6153,5.3654,3.1518,3.0225,0.3363,1.5332
1.0584,1.4996,0.1007,1.629,1.9643,1.0457,1.2437,0.6838,-1.1438,1.4897,1.7046,1.1702,2.2773,2.7421,2.3355,2.5382,2.8795,2.8937,2.5869,2.4285,2.1429,2.7757,2.943,3.7511,3.7915,5.8243,2.8152,2.8048,0.477,1.5841
1.1276,1.6925,0.1703,1.792,2.0089,1.1561,1.1025,0.5918,-1.306,1.2718,1.1544,0.9829,1.6805,2.4899,2.3988,2.7171,3.1171,2.9352,2.6963,2.5617,2.0221,2.6991,2.8444,3.4285,3.9228,6.139,2.5273,2.5368,0.6643,1.6238
1.2006,1.9129,0.3711,1.9926,2.1162,1.357,1.0464,0.4975,-1.3901,1.0693,0.6377,0.7866,1.1941,2.2996,2.4889,2.9195,3.3834,3.0142,2.8555,2.7252,1.9562,2.7005,2.8156,3.2062,4.0315,6.2966,2.3391,2.245,0.9024,1.6586
1.279,2.1229,0.6803,2.1969,2.2686,1.6177,1.069,0.404,-1.3795,0.8771,0.1708,0.5971,0.8399,2.179,2.5928,3.1258,3.6431,3.1239,3.0476,2.8977,1.9387,2.7736,2.8787,3.1062,4.131,6.3053,2.2762,1.9616,1.1725,1.6775
1.3434,2.2676,1.0419,2.3558,2.4284,1.8837,1.1531,0.325,-1.2572,0.6995,-0.2304,0.4385,0.6101,2.108,2.6748,3.2928,3.8356,3.2318,3.2237,3.0349,1.9354,2.8786,3.0181,3.1135,4.2219,6.1911,2.3362,1.7217,1.435,1.6534
1.3552,2.2888,1.3792,2.4157,2.5459,2.0882,1.2743,0.2834,-1.0092,0.5533,-0.5477,0.34,0.4741,2.0458,2.6836,3.3619,3.8892,3.2861,3.3137,3.0791,1.8929,2.95,3.1811,3.1832,4.2915,5.9917,2.4922,1.5573,1.6371,1.5484
1.266,2.1393,1.6121,2.3312,2.5707,2.1658,1.4053,0.3048,-0.6307,0.4652,-0.7604,0.3309,0.389,1.9428,2.5654,3.273,3.7387,3.2287,3.2452,2.9731,1.7538,2.9129,3.29,3.2536,4.3173,5.7478,2.7014,1.4917,1.7239,1.3251
1.0307,1.7972,1.6747,2.0766,2.464,2.069,1.5182,0.41,-0.1307,0.4627,-0.8478,0.433,0.312,1.7548,2.2788,2.9821,3.3432,3.0112,2.9631,2.6764,1.4723,2.7028,3.2616,3.2622,4.274,5.4965,2.9149,1.5345,1.6527,0.9571
0.6232,1.2735,1.5307,1.6529,2.2076,1.7794,1.5877,0.6071,0.4629,0.5636,-0.7961,0.6537,0.21,1.4554,1.8082,2.475,2.6998,2.6089,2.4481,2.1779,1.0289,2.2844,3.0298,3.1616,4.1403,5.2654,3.0881,1.6793,1.4047,0.4386
0.0486,0.613,1.1832,1.0893,1.8091,1.3145,1.5923,0.8868,1.1031,0.767,-0.606,0.9819,0.0665,1.0437,1.172,1.7761,1.8499,2.0307,1.7258,1.5036,0.4377,1.6625,2.5655,2.9296,3.9054,5.0706,3.1875,1.9042,0.9921,-0.2124
-0.6517,-0.1146,0.6752,0.4379,1.3003,0.7238,1.5154,1.2214,1.7278,1.0481,-0.2985,1.3881,-0.1179,0.5454,0.4219,0.9461,0.8752,1.3198,0.8642,0.7137,-0.2541,0.8836,1.8864,2.574,3.572,4.9164,3.1946,2.1765,0.4592,-0.9556
-1.4055,-0.8282,0.0809,-0.2373,0.7303,0.0778,1.3459,1.5664,2.2697,1.3605,0.0855,1.8307,-0.3275,0.0072,-0.3652,0.0711,-0.1167,0.5463,-0.0387,-0.1079,-0.9751,0.0261,1.0533,2.129,3.1565,4.7962,3.1056,2.4579,-0.1254,-1.7367
-2.1229,-1.4518,-0.5104,-0.8716,0.1562,-0.5481,1.0796,1.8675,2.6685,1.644,0.4922,2.2655,-0.5377,-0.5125,-1.1024,-0.7538,-1.0125,-0.2071,-0.8756,-0.8698,-1.6436,-0.816,0.1567,1.6478,2.6859,4.6934,2.9295,2.711,-0.6821,-2.4957
-2.7145,-1.9267,-1.0138,-1.4093,-0.3664,-1.0881,0.7224,2.0715,2.8835,1.8387,0.8669,2.6565,-0.7192,-0.9539,-1.7088,-1.4418,-1.7153,-0.861,-1.55,-1.4887,-2.182,-1.5517,-0.7024,1.192,2.1927,4.5836,2.685,2.9041,-1.1355,-3.1759
-3.1076,-2.2174,-1.3637,-1.8081,-0.7883,-1.4953,0.2937,2.1385,2.9007,1.8997,1.1676,2.9856,-0.8417,-1.2634,-2.1225,-1.9268,-2.1598,-1.3517,-1.9921,-1.9012,-2.5276,-2.1066,-1.4304,0.8217,1.7101,4.436,2.3969,3.0151,-1.4276,-3.7279
-3.258,-2.3111,-1.5231,-2.0395,-1.0699,-1.7438,-0.1706,2.0528,2.7342,1.8095,1.3745,3.2563,-0.8756,-1.3988,-2.3075,-2.1697,-2.3191,-1.6383,-2.1663,-2.0693,-2.6384,-2.4313,-1.9528,0.586,1.2672,4.2196,2.0923,3.0328,-1.5263,-4.1128
-3.1541,-2.2127,-1.4849,-2.0865,-1.181,-1.8252,-0.619,1.8279,2.4194,1.5841,1.4919,3.4916,-0.7929,-1.3317,-2.2545,-2.1584,-2.2029,-1.7038,-2.0718,-1.9804,-2.4958,-2.5037,-2.221,0.5155,0.8867,3.9109,1.7962,2.9576,-1.4274,-4.3028
-2.8143,-1.9387,-1.2659,-1.9421,-1.1023,-1.7431,-0.9904,1.5038,2.0022,1.2693,1.5434,3.7248,-0.5709,-1.0494,-1.9783,-1.9034,-1.8486,-1.5535,-1.7366,-1.6439,-2.1027,-2.3262,-2.2138,0.6166,0.5829,3.502,1.5264,2.8009,-1.1514,-4.2833
-2.2798,-1.5121,-0.8985,-1.6092,-0.8277,-1.5092,-1.2241,1.1364,1.5279,0.9298,1.5616,3.9877,-0.1959,-0.5562,-1.5116,-1.4317,-1.3104,-1.21,-1.2089,-1.087,-1.4824,-1.9225,-1.9366,0.87,0.3623,3.0051,1.29,2.5824,-0.7378,-4.055
-1.6066,-0.9586,-0.4209,-1.1013,-0.3666,-1.1414,-1.2721,0.785,1.032,0.6327,1.5764,4.297,0.332,0.1255,-0.8984,-0.7813,-0.6465,-0.7082,-0.5463,-0.3492,-0.6752,-1.3308,-1.4183,1.2343,0.2234,2.4494,1.0829,2.3254,-0.2368,-3.6343
-0.8557,-0.3045,0.129,-0.4427,0.2558,-0.663,-1.108,0.4988,0.5374,0.4324,1.6052,4.6461,0.9968,0.9577,-0.186,0.0054,0.0923,-0.0884,0.1963,0.5225,0.2667,-0.5974,-0.7051,1.6553,0.1589,1.8736,0.894,2.0524,0.2999,-3.0514
-0.0844,0.4252,0.7181,0.3331,1.001,-0.1023,-0.7327,0.3088,0.0551,0.3588,1.6489,5.0033,1.7673,1.8912,0.582,0.8861,0.8711,0.6111,0.9757,1.4797,1.2859,0.2313,0.1474,2.0793,0.1583,1.3163,0.7119,1.7815,0.827,-2.3443
0.6623,1.2075,1.3206,1.1861,1.8222,0.5089,-0.1731,0.2236,-0.4107,0.4129,1.6941,5.3173,2.6015,2.8725,1.3721,1.8225,1.6752,1.3589,1.7659,2.4772,2.327,1.1137,1.0822,2.4652,0.2124,0.8115,0.5326,1.5256,1.3132,-1.5519
1.3573,2.0205,1.9195,2.0723,2.6707,1.137,0.5221,0.2303,-0.8576,0.5695,1.7194,5.5291,3.4531,3.8507,2.163,2.7812,2.5058,2.1327,2.5575,3.476,3.3423,2.016,2.0476,2.7924,0.3161,0.3875,0.3632,1.2943,1.7448,-0.7082
1.9921,2.8413,2.507,2.9457,3.5,1.7492,1.2909,0.2984,-1.2806,0.7862,1.7047,5.5868,4.2775,4.7817,2.9427,3.7332,3.3708,2.9168,3.3495,4.4439,4.2956,2.9107,3.0003,3.0623,0.4698,0.0701,0.2226,1.0971,2.1241,0.161
2.5727,3.6429,3.0811,3.7614,4.2704,2.3165,2.0682,0.3879,-1.6701,1.017,1.641,5.4609,5.0388,5.632,3.7038,4.6504,4.271,3.6978,4.1401,5.354,5.1622,3.7743,3.9065,3.2946,0.6778,-0.1148,0.1387,0.9455,2.4643,1.0368
3.1132,4.3949,3.6409,4.4798,4.9524,2.8171,2.7968,0.46,-2.0115,1.2268,1.5381,5.1567,5.7158,6.3806,4.4386,5.5053,5.1907,4.4603,4.9191,6.1838,5.9289,4.5863,4.7422,3.5229,0.9459,-0.141,0.1464,0.8549,2.7816,1.9038
3.6278,5.0662,4.1807,5.0737,5.5307,3.2398,3.438,0.4886,-2.2852,1.4033,1.4276,4.7211,6.3071,7.0209,5.1371,6.2714,6.0955,5.1872,5.6667,6.9163,6.5932,5.3313,5.4919,3.7891,1.2784,0.0138,0.2858,0.8442,3.0888,2.7464
4.126,5.6317,4.6863,5.5335,6.0061,3.5866,3.9768,0.468,-2.4689,1.5604,1.3601,4.2389,6.8317,7.5616,5.7894,6.9278,6.9393,5.8622,6.3588,7.5415,7.1628,6.003,6.149,4.1388,1.6765,0.3619,0.6006,0.9341,3.3918,3.5461
4.6089,6.0782,5.1348,5.8695,6.3944,3.871,4.4214,0.414,-2.5405,1.7334,1.3932,3.8192,7.3245,8.0243,6.3877,7.4624,7.6762,6.4739,6.974,8.0584,7.6534,6.6065,6.7144,4.6141,2.1365,0.9005,1.1325,1.144,3.6887,4.2812
5.0683,6.408,5.4991,6.1087,6.7209,4.1148,4.7958,0.3578,-2.4834,1.9644,1.5753,3.5714,7.8258,8.4371,6.9282,7.8748,8.2718,7.0181,7.4991,8.4748,8.0845,7.1569,7.1961,5.2451,2.6492,1.6086,1.9121,1.4877,3.9714,4.9287
5.4882,6.6361,5.7573,6.2853,7.0116,4.3408,5.1281,0.3353,-2.2911,2.2869,1.929,3.5793,8.3673,8.8255,7.4094,8.1742,8.7096,7.496,7.9296,8.8041,8.4732,7.6731,7.6061,6.039,3.198,2.4489,2.9457,1.9687,4.2275,5.4666
5.8484,6.7843,5.9013,6.4296,7.2839,4.5655,5.4396,0.3759,-1.9705,2.7128,2.4418,3.8802,8.96,9.2037,7.8286,8.3764,8.9906,7.9099,8.2664,9.0599,8.8279,8.1687,7.9572,6.9726,3.7595,3.3728,4.2051,2.5781,4.4422,5.876
6.1293,6.8732,5.9431,6.5586,7.5408,4.7938,5.7371,0.4935,-1.5421,3.228,3.0659,4.4557,9.5874,9.5693,8.1791,8.4985,9.1275,8.2592,8.5111,9.2522,9.1451,8.6453,8.2595,7.9911,4.3042,4.3271,5.6226,3.2935,4.6001,6.1436
6.3163,6.9157,5.9128,6.672,7.7689,5.0161,6.0119,0.683,-1.0368,3.7961,3.7284,5.2363,10.2068,9.9036,8.4491,8.5548,9.1376,8.5367,8.662,9.3834,9.4094,9.0884,8.5172,9.0137,4.8001,5.2618,7.0968,4.0805,4.6866,6.2628
6.4036,6.9137,5.8505,6.7534,7.9433,5.2103,6.2428,0.9213,-0.4906,4.3685,4.3476,6.117,10.7589,10.1769,8.6238,8.5547,9.0372,8.73,8.7147,9.4495,9.5978,9.4708,8.7272,9.949,5.2177,6.1346,8.509,4.896,4.6906,6.2353
6.396,6.8591,5.792,6.7772,8.0347,5.3461,6.4035,1.1742,0.06,4.8963,4.8502,6.9804,11.1808,10.358,8.6907,8.5026,8.8406,8.825,8.6652,9.4424,9.6867,9.7592,8.8777,10.7128,5.5365,6.9133,9.7451,5.6918,4.6075,6.0711
6.308,6.7376,5.7551,6.717,8.0182,5.3914,6.47,1.4043,0.5817,5.3407,5.184,7.7179,11.4216,10.4227,8.6455,8.3992,8.5624,8.8117,8.515,9.3541,9.6589,9.9239,8.95,11.2461,5.7494,7.575,10.718,6.4187,4.4421,5.7883
6.1608,6.5358,5.7314,6.5541,7.8799,5.3195,6.427,1.5798,1.0442,5.6784,5.324,8.2476,11.4524,10.3603,8.4958,8.2444,8.2206,8.6895,8.2747,9.1815,9.5084,9.947,8.923,11.5265,5.8641,8.1041,11.3836,7.0315,4.2093,5.4118
5.9785,6.2472,5.6886,6.2834,7.6213,5.1151,6.2713,1.6798,1.4187,5.9019,5.272,8.5238,11.272,10.1759,8.2612,8.0384,7.8374,8.4692,7.9637,8.9281,9.242,9.8271,8.7797,11.5701,5.9015,8.4926,11.7463,7.494,3.9328,4.9712
5.7842,5.8777,5.5829,5.9151,7.2587,4.7792,6.012,1.6959,1.6771,6.0165,5.0527,8.5394,10.9051,9.8884,7.9698,7.7833,7.4371,8.1723,7.6076,8.6047,8.8777,9.5802,8.5143,11.4251,5.8916,8.7422,11.8524,7.7859,3.6412,4.4992
5.597,5.4468,5.3773,5.4727,6.8198,4.3308,5.6674,1.6302,1.7938,6.0337,4.7052,8.3216,10.3965,9.5255,7.6523,7.483,7.0429,7.8272,7.233,8.2275,8.4413,9.2353,8.1377,11.1583,5.8677,8.8681,11.7763,7.9073,3.3636,4.0291
5.4321,4.9841,5.0571,4.9868,6.338,3.8039,5.2602,1.4912,1.7508,5.9658,4.2757,7.9217,9.8011,9.1181,7.3364,7.143,6.6741,7.4643,6.8634,7.815,7.9615,8.8285,7.6776,10.8402,5.8615,8.8992,11.6025,7.8798,3.1251,3.5934
5.3013,4.5234,4.6374,4.4891,5.8462,3.2426,4.8132,1.2905,1.5432,5.8229,3.8081,7.403,9.175,8.6951,7.0431,6.7704,6.3429,7.1121,6.5157,7.385,7.4661,8.3954,7.176,10.5321,5.8998,8.8743,11.4094,7.7431,2.9442,3.2225
5.214,4.0956,4.1602,4.0066,5.3732,2.6934,4.3478,1.0413,1.1834,5.613,3.3384,6.8295,8.5682,8.2804,6.7857,6.3739,6.0549,6.7933,6.2012,6.953,6.9798,7.9663,6.6822,10.2791,6.0017,8.8335,11.2586,7.5463,2.8325,2.9435
5.1777,3.7242,3.6846,3.5601,4.9417,2.1989,3.8844,0.76,0.7026,5.3457,2.8914,6.2581,8.0214,7.8932,6.571,5.9661,5.811,6.5247,5.9282,6.5324,6.5238,7.5649,6.2446,10.1084,6.1771,8.807,11.1888,7.3384,2.7938,2.7791
5.1973,3.4238,3.2724,3.1648,4.5692,1.7934,3.4455,0.4682,0.1487,5.0368,2.481,5.7352,7.5652,7.5492,6.403,5.5651,5.6127,6.3183,5.7068,6.1378,6.1175,7.2099,5.9027,10.0312,6.4256,8.8096,11.2165,7.1598,2.8253,2.7447
5.2733,3.2023,2.9754,2.8335,4.27,1.5001,3.0566,0.1939,-0.4192,4.712,2.1128,5.2969,7.221,7.2632,6.2861,5.1959,5.4663,6.1829,5.5513,5.7867,5.7805,6.918,5.6815,10.0465,6.7369,8.8404,11.3394,7.0374,2.9167,2.8451
5.4014,3.0634,2.8265,2.5788,4.057,1.3317,2.7459,-0.0304,-0.9369,4.408,1.7888,4.9701,7.0034,7.0509,6.2265,4.8888,5.3827,6.1253,5.4786,5.5004,5.5332,6.706,5.591,10.1444,7.0921,8.891,11.5415,6.9843,3.0514,3.071
5.5734,3.0087,2.8371,2.4131,3.9411,1.2925,2.5408,-0.1728,-1.3432,4.1683,1.5118,4.7735,6.9207,6.9281,6.2306,4.6736,5.3735,6.1496,5.5022,5.301,5.3943,6.5898,5.6281,10.3087,7.4665,8.9551,11.7998,7.0025,3.2073,3.3982
5.7784,3.0372,2.9987,2.3455,3.93,1.379,2.462,-0.2091,-1.5889,4.0374,1.2882,4.7169,6.9752,6.9078,6.302,4.5727,5.4435,6.2545,5.6244,5.2053,5.377,6.5804,5.7808,10.5189,7.8331,9.0356,12.0887,7.0869,3.3596,3.7893
6.0037,3.1434,3.2867,2.3773,4.0246,1.5801,2.5199,-0.1287,-1.6451,4.0512,1.129,4.7993,7.1626,6.9964,6.437,4.5929,5.5845,6.4307,5.83,5.2188,5.4833,6.6792,6.0305,10.7513,8.1658,9.1454,12.3841,7.2283,3.4844,4.1982
6.2327,3.3144,3.663,2.4987,4.2166,1.8763,2.7113,0.0615,-1.5082,4.2303,1.0487,5.0089,7.4714,7.1909,6.6217,4.7199,5.7729,6.6597,6.0864,5.3307,5.7003,6.8746,6.3539,10.9813,8.4423,9.302,12.6652,7.4159,3.5624,4.576
6.4439,3.5284,4.0786,2.6871,4.4873,2.239,3.0214,0.3389,-1.2006,4.5753,1.0644,5.3245,7.8838,7.4775,6.8322,4.9188,5.9726,6.9151,6.3485,5.5136,5.9994,7.1419,6.7226,11.1867,8.6463,9.518,12.9162,7.6378,3.5812,4.8767
6.609,3.7555,4.4775,2.9094,4.8091,2.6325,3.4265,0.6706,-0.7644,5.068,1.1944,5.7194,8.3771,7.8332,7.0371,5.1391,6.1429,7.1664,6.5692,5.7278,6.3404,7.447,7.1041,11.3517,8.7689,9.7919,13.1281,7.8812,3.5362,5.0617
6.6959,3.961,4.8035,3.1276,5.1486,3.0179,3.899,1.0207,-0.2524,5.6752,1.456,6.1672,8.926,8.2292,7.2035,5.3255,6.2474,7.3836,6.7096,5.9291,6.6782,7.753,7.4634,11.4708,8.8101,10.1024,13.299,8.1325,3.4279,5.1037
6.6737,4.1106,5.0096,3.3046,5.4716,3.3586,4.4103,1.3589,0.2831,6.3555,1.862,6.6467,9.5045,8.6347,7.3027,5.4293,6.2618,7.5425,6.7475,6.0781,6.9709,8.0266,7.7656,11.5503,8.7776,10.4092,13.4334,8.3776,3.2598,4.9893
6.5189,4.176,5.0653,3.4107,5.7471,3.6245,4.9328,1.6649,0.7988,7.0654,2.4161,7.1443,10.0859,9.0202,7.3149,5.4179,6.1774,7.6265,6.68,6.1467,7.1855,8.2423,7.978,11.6046,8.6852,10.6618,13.5382,8.603,3.0348,4.721
6.22,4.1391,4.9592,3.4271,5.9501,3.795,5.44,1.931,1.2657,7.7641,3.1074,7.6541,10.6425,9.359,7.2308,5.2801,5.9996,7.6266,6.5206,6.1212,7.3016,8.3826,8.072,11.6499,8.5487,10.8126,13.6189,8.7985,2.7543,4.3158
5.779,3.9942,4.6977,3.3473,6.0633,3.8593,5.906,2.1613,1.6711,8.4168,3.9078,8.1738,11.1446,9.6274,7.0504,5.0245,5.7436,7.5402,6.2924,6.0017,7.3108,8.4369,8.026,11.6963,8.3831,10.8314,13.6765,8.9584,2.4172,3.8025
5.2101,3.7483,4.3009,3.1767,6.0776,3.8166,6.3076,2.3692,2.0182,8.9964,4.7733,8.6997,11.5622,9.8064,6.7819,4.6757,5.4299,7.3707,6.0218,5.7988,7.2152,8.3995,7.8298,11.743,8.2007,10.7168,13.7074,9.0829,2.0223,3.2165
4.5396,3.4199,3.7998,2.9316,5.9939,3.6766,6.6265,2.5742,2.3234,9.485,5.6485,9.2213,11.8688,9.8838,6.4399,4.2677,5.0807,7.1273,5.7327,5.5299,7.0262,8.2697,7.4886,11.7791,8.0113,10.4989,13.7074,9.1766,1.5699,2.595
3.8049,3.0359,3.2356,2.6361,5.8234,3.4591,6.8547,2.7969,2.6127,9.8756,6.4756,9.7187,12.0466,9.8569,6.0444,3.8369,4.7169,6.8256,5.4437,5.217,6.7629,8.0528,7.0261,11.7885,7.824,10.2334,13.6761,9.2473,1.0651,1.9723
3.0538,2.6286,2.6589,2.32,5.5887,3.1938,6.9977,3.0546,2.9155,10.1726,7.2022,10.1638,12.0915,9.7354,5.6204,3.4182,4.3556,6.4863,5.1662,4.8849,6.452,7.7612,6.4842,11.7573,7.6495,9.9889,13.6202,9.3027,0.5199,1.378
2.3409,2.2324,2.1273,2.0158,5.3233,2.919,7.076,3.3576,3.2577,10.392,7.7887,10.5256,12.0162,9.5421,5.1951,3.0414,4.0067,6.1337,4.9052,4.5607,6.1258,7.4159,5.9187,11.6796,7.5012,9.83,13.5534,9.3496,-0.0467,0.8357
1.7201,1.8823,1.6987,1.7572,5.0697,2.6778,7.1232,3.7074,3.6544,10.5584,8.2116,10.7774,11.8503,9.3121,4.7951,2.7309,3.6728,5.7927,4.6616,4.2742,5.8212,7.0461,5.3925,11.5612,7.3937,9.8018,13.4928,9.3921,-0.6104,0.3625
1.2344,1.6125,1.4205,1.5778,4.8751,2.5135,7.1809,4.0978,4.1039,10.7017,8.4654,10.9031,11.6365,9.089,4.445,2.507,3.3529,5.4877,4.437,4.0574,5.5768,6.688,4.9653,11.419,7.3393,9.9186,13.4542,9.4303,-1.1448,-0.0306
0.9065,1.4552,1.319,1.5096,4.7864,2.4638,7.2907,4.5172,4.5864,10.8504,8.5613,10.9013,11.425,8.9192,4.1661,2.3877,3.0513,5.2417,4.2405,3.9434,5.4295,6.3829,4.6841,11.2775,7.3436,10.1598,13.4471,9.4596,-1.6257,-0.3405
0.734,1.4384,1.3925,1.5803,4.8425,2.5556,7.4869,4.9511,5.068,11.0272,8.5255,10.7844,11.2662,8.8453,3.9774,2.3906,2.7857,5.0771,4.0929,3.9645,5.4109,6.1734,4.5754,11.164,7.4016,10.4724,13.4709,9.4698,-2.0357,-0.5735
0.6916,1.5816,1.6132,1.8096,5.0683,2.8005,7.7897,5.3843,5.5086,11.2446,8.3952,10.5754,11.2029,8.8995,3.8954,2.5315,2.5918,5.0151,4.0284,4.1474,5.5442,6.0986,4.6412,11.1028,7.4972,10.7815,13.5151,9.4463,-2.3657,-0.7454
0.7397,1.8925,1.9363,2.2047,5.4689,3.1922,8.2012,5.8016,5.8716,11.5039,8.2137,10.3023,11.2647,9.0991,3.9338,2.8229,2.5186,5.0731,4.0894,4.5089,5.841,6.1883,4.8597,11.1115,7.606,11.0061,13.5632,9.3734,-2.616,-0.8798
0.8356,2.3639,2.3126,2.7573,6.0282,3.7059,8.7056,6.1896,6.1322,11.7965,8.0265,9.9944,11.4645,9.4436,4.1005,3.2688,2.6163,5.2609,4.3162,5.0507,6.2992,6.4561,5.1897,11.1987,7.7023,11.0794,13.5992,9.2402,-2.7941,-1.0022
0.9438,2.9729,2.6981,3.4413,6.7098,4.3003,9.2723,6.5372,6.2819,12.106,7.8776,9.6787,11.7973,9.9152,4.3943,3.8608,2.9198,5.576,4.733,5.756,6.9018,6.895,5.5796,11.3635,7.7672,10.9669,13.6147,9.0466,-2.9118,-1.1327
1.0423,3.6834,3.0608,4.2152,7.4628,4.9219,9.8616,6.8364,6.3283,12.4123,7.8072,9.3796,12.2418,10.4817,4.8012,4.5753,3.4339,6.0014,5.3356,6.5888,7.6169,7.4752,5.9771,11.5971,7.7952,10.6772,13.6129,8.8081,-2.9805,-1.279
1.1247,4.4499,3.3809,5.0262,8.2289,5.5134,10.432,7.0824,6.2928,12.6955,7.848,9.1187,12.7645,11.1017,5.2936,5.3739,4.125,6.5047,6.085,7.4974,8.4007,8.1469,6.3396,11.8846,7.796,10.2615,13.6092,8.5566,-3.0081,-1.4337
1.1975,5.2229,3.6503,5.8169,8.9517,6.024,10.9471,7.2735,6.2048,12.9395,8.0191,8.9148,13.3255,11.7309,5.8331,6.2074,4.9238,7.0435,6.9108,8.4206,9.202,8.8482,6.6422,12.2086,7.7915,9.8027,13.6269,8.335,-2.9965,-1.5773
1.276,5.9536,3.8703,6.5336,9.5847,6.42,11.3814,7.4107,6.0972,13.1342,8.3207,8.7833,13.8856,12.3285,6.3758,7.0222,5.7387,7.572,7.7241,9.2964,9.9688,9.5164,6.8821,12.5526,7.8084,9.3949,13.6917,8.1888,-2.9432,-1.6854
1.3767,6.5997,4.0499,7.1338,10.0979,6.6915,11.7236,7.4986,6.0005,13.2774,8.7308,8.7364,14.4131,12.863,6.8799,7.7686,6.4763,8.0502,8.4365,10.071,10.655,10.0999,7.0778,12.9038,7.8699,9.1236,13.8256,8.1561,-2.843,-1.7381
1.5104,7.1292,4.2037,7.591,10.4798,6.8545,11.9771,7.5453,5.9396,13.3749,9.2086,8.7825,14.8879,13.3153,7.3122,8.4071,7.0612,8.4509,8.9795,10.7054,11.2267,10.567,7.2619,13.2538,7.9884,9.0484,14.0411,8.2596,-2.693,-1.7275
1.6758,7.5235,4.3481,7.8974,10.7369,6.9446,12.1574,7.5632,5.9317,13.4394,9.7033,8.9265,15.3029,13.6787,7.6522,8.9124,7.4519,8.7624,9.3176,11.1793,11.6647,10.909,7.4683,13.5964,8.1622,9.1939,14.3384,8.5031,-2.4961,-1.6615
1.8577,7.7787,4.4974,8.0625,10.8883,7.0073,12.2869,7.5673,5.9854,13.4887,10.165,9.1689,15.6611,13.9565,7.8924,9.2746,7.6453,8.987,9.4533,11.4905,11.9646,11.1372,7.7177,13.925,8.3748,9.5463,14.7033,8.8698,-2.2638,-1.5632
2.0289,7.9055,4.6583,8.1096,10.9602,7.0857,12.3883,7.5745,6.101,13.543,10.5541,9.5025,15.9709,14.1571,8.0366,9.4967,7.6726,9.1353,9.4217,11.6513,12.1342,11.2753,8.0065,14.2303,8.5985,10.0556,15.1096,9.3239,-2.0161,-1.4661
2.1569,7.9269,4.8273,8.0706,10.9792,7.2099,12.4779,7.6003,6.2706,13.6198,10.8459,9.9101,16.2389,14.2904,8.0966,9.5917,7.5866,9.2206,9.2784,11.6837,12.1887,11.3498,8.3044,14.4999,8.7996,10.6432,15.5219,9.8144,-1.7783,-1.4051
2.2129,7.8739,4.9912,7.9802,10.9676,7.3912,12.5617,7.6573,6.4797,13.7295,11.0312,10.3619,16.4657,14.3635,8.0881,9.5785,7.4471,9.2539,9.0842,11.6137,12.1472,11.3817,8.5605,14.7193,8.9448,11.2134,15.9002,10.282,-1.5741,-1.4068
2.1808,7.7802,5.1299,7.8698,10.9405,7.6205,12.6346,7.752,6.709,13.8711,11.1125,10.8168,16.643,14.3794,8.0277,9.4786,7.3067,9.2408,8.89,11.4671,12.028,11.3812,8.7159,14.8743,9.008,11.6696,16.2045,10.6678,-1.4197,-1.482
2.0624,7.6754,5.2231,7.7623,10.9045,7.8725,12.6833,7.8837,6.9374,14.0319,11.0991,11.2258,16.7549,14.3362,7.9307,9.3134,7.2013,9.1819,8.7267,11.2664,11.8466,11.3465,8.7197,14.9515,8.9743,11.931,16.3991,10.9214,-1.3194,-1.6225
1.8779,7.5799,5.2558,7.6692,10.8588,8.1127,12.6931,8.0451,7.1451,14.1895,11.0028,11.5385,16.7816,14.2288,7.8091,9.1018,7.1456,9.075,8.6019,11.0286,11.6144,11.2668,8.543,14.9402,8.842,11.948,16.4563,11.0086,-1.2659,-1.8052
1.6606,7.5024,5.2237,7.5897,10.7971,8.306,12.6541,8.2248,7.3173,14.3173,10.8364,11.712,16.7062,14.0515,7.6717,8.8598,7.1347,8.9182,8.5032,10.7658,11.3392,11.1285,8.1882,14.8328,8.6224,11.7111,16.3603,10.9159,-1.2448,-2
1.4478,7.4409,5.1357,7.5141,10.7113,8.4246,12.5663,8.4116,7.4476,14.3914,10.6153,11.7188,16.5205,13.8024,7.5233,8.6001,7.15,8.7137,8.4073,10.4855,11.0273,10.922,7.6905,14.6268,8.3375,11.2532,16.1092,10.6516,-1.241,-2.179
1.2725,7.3866,5.0126,7.4282,10.5953,8.4535,12.4404,8.5971,7.5388,14.3958,10.36,11.5539,16.2288,13.4856,7.3665,8.333,7.1674,8.47,8.2912,10.1931,10.6862,10.6479,7.111,14.3267,8.0162,10.6418,15.7172,10.245,-1.2443,-2.3237
1.1566,7.329,4.8835,7.3191,10.4477,8.3929,12.2946,8.7786,7.5997,14.3261,10.0964,11.2371,15.8492,13.1138,7.2026,8.0675,7.1645,8.2016,8.1408,9.8933,10.3262,10.3196,6.5238,13.9462,7.6911,9.964,15.2134,9.7403,-1.2524,-2.4284
1.1077,7.2596,4.7795,7.1785,10.2726,8.2567,12.1488,8.9574,7.6403,14.1898,9.8515,10.81,15.4095,12.7066,7.0323,7.8108,7.1254,7.9264,7.9552,9.5906,9.9601,9.9623,6.0011,13.5076,7.3933,9.3078,14.6373,9.1899,-1.2695,-2.498
1.1177,7.1736,4.7274,7.0043,10.0776,8.0674,12.0166,9.135,7.6665,14.0038,9.6468,10.3273,14.941,12.287,6.8556,7.5682,7.0424,7.6625,7.7443,9.2887,9.6014,9.6076,5.5999,13.0394,7.1474,8.7448,14.0323,8.6453,-1.3027,-2.5434
1.1669,7.0696,4.7437,6.8,9.8707,7.8503,11.8994,9.3069,7.6772,13.7876,9.4904,9.8451,14.4706,11.8764,6.6718,7.3419,6.9164,7.4239,7.5233,8.9899,9.2608,9.2859,5.3533,12.5701,6.9672,8.319,13.4377,8.1491,-1.3566,-2.5747
1.2292,6.948,4.8303,6.573,9.6567,7.6271,11.7846,9.4579,7.6645,13.5561,9.3724,9.4072,14.015,11.4898,6.4809,7.1317,6.7565,7.2195,7.3076,8.6944,8.9441,9.0203,5.2669,12.1232,6.8543,8.0437,12.8829,7.7292,-1.4292,-2.5958
1.2821,6.8095,4.9747,6.333,9.437,7.4123,11.6482,9.5609,7.616,13.3131,9.2663,9.035,13.5786,11.1338,6.2861,6.9354,6.5811,7.0534,7.1098,8.402,8.6522,8.8226,5.3219,11.7136,6.8004,7.9055,12.3855,7.3966,-1.5087,-2.6005
1.315,6.6551,5.1533,6.0916,9.2111,7.2128,11.463,9.5821,7.5185,13.0487,9.1362,8.724,13.1567,10.8081,6.0967,6.7508,6.4167,6.928,6.9399,8.1148,8.3836,8.6944,5.483,11.3489,6.7919,7.873,11.9542,7.146,-1.5731,-2.5721
1.3339,6.486,5.3387,5.8614,8.9802,7.0301,11.208,9.4906,7.3617,12.7412,8.9492,8.4488,12.7414,10.5092,5.9289,6.5772,6.2957,6.8468,6.8066,7.838,8.1373,8.6301,5.7098,11.0334,6.8156,7.9054,11.5943,6.9601,-1.5924,-2.4868
1.3608,6.3048,5.5072,5.6554,8.7506,6.8643,10.8768,9.2713,7.1424,12.3645,8.6885,8.1755,12.3291,10.2354,5.8041,6.4155,6.2509,6.8156,6.7195,7.5812,7.9157,8.6211,5.9671,10.7733,6.8622,7.9629,11.3125,6.8159,-1.5342,-2.32
1.4255,6.1164,5.6438,5.4859,8.5353,6.7172,10.4834,8.9346,6.8659,11.899,8.362,7.8775,11.9256,9.9904,5.7436,6.2684,6.3082,6.8411,6.6887,7.3564,7.7252,8.6588,6.2316,10.5783,6.9273,8.0144,11.1181,6.6915,-1.3721,-2.0545
1.554,5.929,5.7441,5.3639,8.3536,6.5937,10.0609,8.5201,6.547,11.3423,8.0032,7.5477,11.5489,9.7846,5.7622,6.1392,6.479,6.9285,6.724,7.1757,7.5751,8.7361,6.4928,10.4609,7.0089,8.0443,11.0213,6.5732,-1.094,-1.687
1.7572,5.7547,5.8117,5.2975,8.2273,6.5016,9.6565,8.0903,6.2081,10.7158,7.6641,7.205,11.2273,9.6335,5.8632,6.0316,6.7559,7.0776,6.831,7.0492,7.4751,8.8459,6.7502,10.4322,7.104,8.056,11.0284,6.4592,-0.7094,-1.2305
2.0235,5.6085,5.854,5.2915,8.176,6.4486,9.3208,7.7164,5.8756,10.0654,7.4007,6.8908,10.9933,9.5535,6.0348,5.9489,7.1105,7.2795,7.0071,6.982,7.4315,8.9795,7.0074,10.4958,7.2062,8.0697,11.1368,6.3594,-0.2514,-0.7129
2.3189,5.506,5.8769,5.3454,8.2107,6.4383,9.0966,7.4613,5.5737,9.4549,7.2565,6.658,10.8749,9.5555,6.2514,5.8936,7.4969,7.5158,7.2384,6.972,7.4432,9.1234,7.264,10.6445,7.3038,8.1137,11.3325,6.2906,0.2273,-0.1716
2.5942,5.46,5.8836,5.4525,8.3295,6.4677,9.0082,7.3644,5.3176,8.9534,7.2484,6.5551,10.8875,9.6396,6.4776,5.8658,7.8607,7.7594,7.4988,7.0092,7.5002,9.2591,7.5113,10.8583,7.3815,8.2118,11.5896,6.2686,0.6642,0.3528
2.7975,5.4773,5.8759,5.5989,8.5158,6.526,9.0554,7.4335,5.1102,8.621,7.3601,6.6108,11.0283,9.7923,6.6763,5.863,8.1508,7.9794,7.7542,7.0766,7.5831,9.3649,7.7312,11.1074,7.4226,8.3704,11.873,6.3007,0.9994,0.8226
2.8892,5.5564,5.858,5.7641,8.7403,6.5962,9.2138,7.6447,4.9417,8.4955,7.5452,6.8238,11.2746,9.9873,6.8173,5.8804,8.3327,8.1485,7.9702,7.1533,7.667,9.4208,7.9018,11.358,7.4129,8.5707,12.143,6.3807,1.1894,1.208
2.8535,5.6865,5.8401,5.9234,8.9663,6.6586,9.4401,7.9505,4.7961,8.5851,7.7396,7.1609,11.588,10.1909,6.8849,5.9118,8.3977,8.2494,8.121,7.219,7.7268,9.4137,8.0053,11.5791,7.3442,8.7707,12.3599,6.489,1.2157,1.4896
2.7043,5.8475,5.8382,6.0507,9.157,6.6951,9.682,8.2909,4.6587,8.8652,7.8787,7.5625,11.92,10.3675,6.8801,5.9499,8.3629,8.2792,8.1944,7.2571,7.7422,9.3404,8.0355,11.7468,7.2165,8.9166,12.4877,6.5971,1.0889,1.6601
2.4809,6.0121,5.8687,6.1223,9.2815,6.692,9.8883,8.6061,4.5239,9.282,7.9146,7.9544,12.2195,10.4856,6.8176,5.9862,8.2631,8.2468,8.1919,7.2566,7.7008,9.2064,8.0008,11.8448,7.0373,8.9604,12.4964,6.674,0.8445,1.7244
2.2366,6.1494,5.9407,6.12,9.319,6.6417,10.0161,8.8466,4.3975,9.7588,7.827,8.2618,12.4379,10.5209,6.7179,6.0101,8.1369,8.1683,8.1236,7.2111,7.5985,9.0217,7.9218,11.8614,6.8198,8.8753,12.3632,6.6929,0.5343,1.6992
2.0238,6.2297,6.0486,6.0335,9.2608,6.5414,10.0363,8.9788,4.2938,10.2059,7.6261,8.4207,12.5333,10.4569,6.599,6.0091,8.0135,8.0596,8.0017,7.1175,7.4373,8.7971,7.8258,11.7866,6.5799,8.6648,12.0731,6.6345,0.2144,1.6123
1.8812,6.2293,6.1699,5.8615,9.1091,6.3921,9.9344,8.987,4.2281,10.5328,7.3462,8.387,12.4741,10.2859,6.471,5.9701,7.906,7.9315,7.8369,6.975,7.223,8.5415,7.7378,11.6103,6.3344,8.3616,11.6214,6.488,-0.0656,1.4996
1.8255,6.1353,6.2688,5.6109,8.8748,6.1968,9.7096,8.8719,4.2065,10.6617,7.0344,8.1408,12.2413,10.0076,6.3349,5.8827,7.8125,7.7885,7.6387,6.7846,6.9626,8.2629,7.6733,11.3259,6.1001,8.0185,11.0174,6.2504,-0.2701,1.4009
1.8511,5.9473,6.3063,5.2951,8.574,5.9594,9.3723,8.6478,4.2196,10.5395,6.7374,7.6874,11.8313,9.6297,6.1866,5.7427,7.7239,7.6307,7.4181,6.5507,6.664,7.9712,7.6336,10.9355,5.8942,7.6956,10.2889,5.9252,-0.3819,1.3528
1.9344,5.6775,6.2511,4.932,8.2258,5.6845,8.9416,8.338,4.2414,10.1484,6.4917,7.0556,11.2582,9.1682,6.0221,5.5545,7.6342,7.4585,7.1924,6.2816,6.3362,7.6811,7.6062,10.4574,5.7348,7.4466,9.4842,5.5222,-0.403,1.3818
2.0412,5.3486,6.0886,4.5432,7.8505,5.3783,8.4439,7.9712,4.2364,9.5118,6.3183,6.2944,10.5553,8.6478,5.8437,5.3323,7.5488,7.2774,6.9861,5.9914,5.991,7.4128,7.5697,9.9295,5.6411,7.3102,8.6714,5.0599,-0.3534,1.4985
2.135,4.9901,5.8251,4.1535,7.4702,5.0506,7.9119,7.5783,4.1723,8.6942,6.2232,5.4678,9.774,8.1016,5.662,5.0984,7.4861,7.1008,6.8284,5.6985,5.6438,7.1896,7.5033,9.4081,5.6318,7.3062,7.9318,4.5665,-0.2662,1.6955
2.1839,4.6334,5.4844,3.789,7.108,4.7151,7.3831,7.1904,4.0324,7.7918,6.1998,4.6483,8.9791,7.5681,5.4941,4.8786,7.4702,6.9489,6.7457,5.4231,5.3127,7.0323,7.3964,8.9595,5.7213,7.4355,7.3484,4.0807,-0.1825,1.9491
2.1663,4.306,5.1004,3.4733,6.7851,4.3893,6.8959,6.8367,3.8217,6.9164,6.2321,3.9084,8.2399,7.0854,5.3576,4.6953,7.5192,6.8424,6.7508,5.182,5.015,6.9514,7.2547,8.6467,5.9148,7.6826,6.9915,3.6473,-0.1446,2.2237
2.0734,4.0252,4.7096,3.2223,6.5172,4.0902,6.4832,6.5415,3.5642,6.1728,6.2971,3.3101,7.6189,6.6839,5.2635,4.5607,7.6322,6.7952,6.8347,4.9827,4.7623,6.9408,7.0996,8.5151,6.2037,8.0179,6.9045,3.3104,-0.1888,2.4777
1.9098,3.7954,4.3444,3.0404,6.3104,3.8311,6.1674,6.3209,3.2928,5.6382,6.3671,2.8957,7.161,6.3798,5.2099,4.4729,7.782,6.8066,6.9642,4.821,4.557,6.9756,6.9613,8.5816,6.5642,8.4025,7.0948,3.1051,-0.3397,2.6707
1.691,3.6087,4.0296,2.9198,6.1608,3.6187,5.9561,6.18,3.037,5.3484,6.4135,2.6803,6.8877,6.1726,5.1815,4.4166,7.9186,6.8595,7.0874,4.6822,4.3913,7.0166,6.8684,8.8307,6.9599,8.7937,7.5323,3.0497,-0.6043,2.7712
1.4379,3.4504,3.7807,2.8436,6.0557,3.4529,5.8424,6.1121,2.8142,5.2941,6.4133,2.6492,6.7952,6.0474,5.1529,4.3682,7.9811,6.9235,7.1472,4.5462,4.2508,7.0192,6.8374,9.219,7.348,9.1521,8.1564,3.1419,-0.9701,2.7615
1.1716,3.3052,3.6024,2.7906,5.9776,3.328,5.8085,6.0989,2.6267,5.4285,6.3553,2.7621,6.8589,5.98,5.0972,4.3034,7.9164,6.9634,7.0965,4.3943,4.1198,6.9449,6.868,9.685,7.6867,9.4477,8.8884,3.3587,-1.4069,2.6405
0.9076,3.1623,3.487,2.7408,5.9088,3.2347,5.8317,6.1142,2.4672,5.6827,6.2464,2.9616,7.0412,5.9447,4.9939,4.2038,7.6958,6.9502,6.9126,4.2158,3.9874,6.7718,6.942,10.163,7.9418,9.6635,9.6474,3.6607,-1.8723,2.4208
0.6547,3.0172,3.4147,2.6779,5.8344,3.162,5.8903,6.1288,2.3266,5.9846,6.1121,3.1874,7.3006,5.9212,4.8362,4.0607,7.3251,6.8692,6.6041,4.0097,3.8515,6.5002,7.0301,10.5959,8.0922,9.7958,10.3639,4.0007,-2.3215,2.1246
0.416,2.8697,3.3553,2.5906,5.7446,3.0983,5.9685,6.1173,2.2006,6.2751,5.9913,3.3903,7.6007,5.8997,4.6329,3.8753,6.8433,6.7241,6.2091,3.7847,3.7196,6.1538,7.0995,10.9456,8.1325,9.852,10.9899,4.3341,-2.7158,1.7776
0.1926,2.72,3.2746,2.4723,5.6347,3.0321,6.0575,6.0644,2.0913,6.518,5.9259,3.542,7.9149,5.8821,4.4057,3.6559,6.3119,6.5347,5.7856,3.555,3.6064,5.7745,7.1241,11.1963,8.0723,9.8463,11.5026,4.6278,-3.0297,1.4051
-0.0128,2.5656,3.1422,2.3195,5.5041,2.9524,6.1543,5.9689,2.004,6.7012,5.9479,3.6388,8.2288,5.8796,4.1828,3.4138,5.7982,6.3306,5.3968,3.3354,3.5283,5.4139,7.0904,11.3537,7.9337,9.7962,11.9014,4.865,-3.2539,1.0301
-0.1944,2.4008,2.9402,2.1322,5.3557,2.8507,6.2577,5.8423,1.9408,6.8303,6.0695,3.6971,8.5365,5.9072,3.991,3.1594,5.3595,6.1419,5.096,3.1373,3.4977,5.1233,7.0003,11.4369,7.7454,9.719,12.2,5.0459,-3.3942,0.672
-0.344,2.2176,2.6676,1.9138,5.1946,2.7219,6.3631,5.7033,1.897,6.917,6.278,3.7439,8.8344,5.9765,3.848,2.9005,5.0316,5.9915,4.9149,2.966,3.5181,4.9428,6.8683,11.4673,7.5373,9.629,12.4141,5.1816,-3.4671,0.3462
-0.4524,2.0096,2.3403,1.6717,5.0272,2.5669,6.4587,5.5696,1.86,6.9679,6.537,3.8041,9.1141,6.0889,3.7589,2.6419,4.8245,5.8892,4.8578,2.82,3.5813,4.8928,6.7158,11.458,7.3349,9.5352,12.55,5.2863,-3.4934,0.0641
-0.5116,1.7753,1.987,1.4179,4.8616,2.3927,6.5242,5.4502,1.8108,6.9772,6.7919,3.8889,9.3559,6.2311,3.7159,2.3868,4.725,5.8306,4.9018,2.6927,3.6683,4.9687,6.5646,11.4054,7.1549,9.4389,12.5963,5.3684,-3.4918,-0.1666
-0.516,1.5212,1.6427,1.1683,4.7064,2.212,6.5328,5.3417,1.7274,6.9253,6.9788,3.99,9.5266,6.3747,3.7018,2.139,4.7051,5.8002,5.0043,2.5746,3.7526,5.1407,6.4322,11.2881,7.0037,9.3318,12.5229,5.4241,-3.4746,-0.3412
-0.4635,1.2618,1.3422,0.94,4.5698,2.0402,6.4551,5.2287,1.587,6.7819,7.035,4.0784,9.5824,6.4801,3.6952,1.9041,4.7322,5.7765,5.1149,2.4562,3.8056,5.3597,6.3294,11.0719,6.8777,9.1969,12.2885,5.4357,-3.4461,-0.4574
-0.3552,1.0184,1.114,0.7481,4.4574,1.8915,6.2649,5.0879,1.3696,6.5136,6.9097,4.1119,9.4761,6.5035,3.6767,1.6896,4.778,5.7385,5.1884,2.3307,3.8025,5.567,6.2591,10.7198,6.7656,9.0121,11.852,5.375,-3.405,-0.5153
-0.1945,0.8145,0.9773,0.6026,4.3708,1.7754,5.9444,4.8937,1.0613,6.0907,6.5752,4.0459,9.168,6.4059,3.6329,1.5038,4.8238,5.6702,5.1954,2.1961,3.7269,5.7072,6.2162,10.2047,6.6532,8.7586,11.1884,5.2118,-3.3473,-0.5169
0.0158,0.6717,0.9407,0.5065,4.3062,1.6945,5.4876,4.6239,0.6571,5.4945,6.0335,3.8461,8.637,6.1632,3.5594,1.3553,4.861,5.5635,5.1271,2.0561,3.5742,5.7394,6.1896,9.52,6.5283,8.4291,10.3016,4.9246,-3.2693,-0.4647
0.2757,0.6051,1.005,0.456,4.2552,1.6446,4.9028,4.2646,0.1636,4.7227,5.3181,3.4978,7.8894,5.7723,3.4611,1.2519,4.8876,5.4185,4.9945,1.9212,3.3526,5.6458,6.1654,8.6872,6.3858,8.0343,9.2326,4.5091,-3.1687,-0.3601
0.5881,0.6208,1.165,0.4427,4.2076,1.6164,4.2137,3.815,-0.4002,3.7944,4.4887,3.0107,6.9626,5.2551,3.3513,1.2008,4.9053,5.2432,4.8222,1.8072,3.0822,5.4351,6.1322,7.7581,6.2297,7.6029,8.0597,3.9836,-3.0455,-0.2024
0.9563,0.7165,1.4124,0.4578,4.1548,1.5987,3.4592,3.2903,-1.0035,2.7527,3.6198,2.4171,5.9239,4.6571,3.2487,1.2087,4.9163,5.0527,4.6412,1.734,2.7925,5.1411,6.0862,6.8096,6.0728,7.1764,6.8898,3.3877,-2.902,0.0099
1.3767,0.8834,1.7338,0.497,4.0944,1.5829,2.6914,2.7222,-1.6062,1.6642,2.7875,1.7662,4.8619,4.0406,3.1744,1.2809,4.9246,4.8675,4.4823,1.7213,2.5186,4.8155,6.0323,5.9328,5.9334,6.8003,5.8422,2.7765,-2.7444,0.2744
1.8325,1.1092,2.1077,0.5625,4.0326,1.5648,1.9701,2.1548,-2.1624,0.6133,2.0574,1.1156,3.874,3.4752,3.1466,1.4198,4.9367,4.7106,4.3709,1.7851,2.2961,4.517,5.9812,5.2174,5.8304,6.515,5.0274,2.2117,-2.5846,0.5791
2.29,1.3789,2.5007,0.6618,3.9831,1.5452,1.3558,1.6379,-2.6256,-0.309,1.4766,0.5242,3.0515,3.0247,3.1767,1.6215,4.961,4.6032,4.3225,1.9319,2.155,4.2982,5.9437,4.7349,5.7785,6.3503,4.5281,1.7522,-2.4411,0.8969
2.7027,1.6739,2.869,0.8027,3.9636,1.528,0.9,1.218,-2.9543,-1.0194,1.0718,0.0456,2.4662,2.737,3.2656,1.8731,5.0045,4.56,4.3391,2.1558,2.1147,4.194,5.9262,4.5258,5.785,6.3242,4.3847,1.4465,-2.3376,1.1867
3.0223,1.9706,3.1666,0.9869,3.9907,1.5176,0.6388,0.9318,-3.1171,-1.4557,0.8514,-0.2751,2.1619,2.6368,3.4034,2.1526,5.0686,4.5853,4.409,2.438,2.1811,4.2158,5.9298,4.5942,5.849,6.4441,4.592,1.3274,-2.2989,1.4004
3.2117,2.241,3.3572,1.2068,4.0752,1.5172,0.5887,0.8023,-3.099,-1.5857,0.8088,-0.4042,2.1514,2.7248,3.5712,2.4319,5.1448,4.6725,4.509,2.7504,2.3473,4.3523,5.9537,4.9118,5.9633,6.7097,5.1041,1.409,-2.3438,1.4955
3.2569,2.4562,3.4259,1.4454,4.2199,1.5284,0.7462,0.8382,-2.9057,-1.4117,0.9272,-0.3218,2.4193,2.9821,3.746,2.682,5.2154,4.8066,4.6114,3.0627,2.5964,4.5764,5.9995,5.4273,6.117,7.112,5.8473,1.6859,-2.4799,1.4487
3.1716,2.5911,3.3833,1.6805,4.4197,1.5517,1.0902,1.0333,-2.5655,-0.9692,1.1817,-0.025,2.9275,3.3762,3.9069,2.8794,5.2577,4.9682,4.6924,3.3488,2.9067,4.8562,6.0733,6.0792,6.2988,7.6313,6.7347,2.1326,-2.6997,1.2655
2.9935,2.6308,3.2623,1.8901,4.6637,1.5879,1.5853,1.3664,-2.1273,-0.3225,1.5409,0.4705,3.6223,3.8687,4.0393,3.0104,5.2523,5.1385,4.7403,3.5926,3.255,5.1643,6.1834,6.8066,6.4978,8.2345,7.6797,2.7056,-2.9801,0.9813
2.7737,2.5742,3.1072,2.0574,4.938,1.6392,2.1863,1.8008,-1.6532,0.4441,1.9672,1.1298,4.4405,4.4201,4.1389,3.073,5.1918,5.3037,4.7605,3.7893,3.6205,5.4837,6.3349,7.5559,6.7039,8.8744,8.605,3.3477,-3.2855,0.6542
2.5623,2.435,2.9613,2.1742,5.2275,1.7096,2.8431,2.2877,-1.2075,1.2381,2.4187,1.9005,5.3153,4.9923,4.2104,3.0753,5.0867,5.456,4.774,3.9439,3.9848,5.8076,6.5228,8.2816,6.9061,9.4942,9.4477,3.9949,-3.5744,0.3505
2.3954,2.239,2.8555,2.2408,5.5181,1.8039,3.5049,2.7718,-0.8462,1.9705,2.852,2.7168,6.1797,5.5498,4.2643,3.0315,4.9648,5.5935,4.811,4.0661,4.3311,6.1343,6.7296,8.9437,7.0905,10.0343,10.1595,4.5856,-3.8078,0.1275
2.2855,2.0175,2.8011,2.2636,5.7962,1.9253,4.1248,3.2015,-0.6069,2.5678,3.2282,3.5062,6.9705,6.0589,4.3103,2.9571,4.8628,5.7161,4.8992,4.1643,4.6426,6.4591,6.9259,9.5039,7.2404,10.4421,10.7048,5.0686,-3.9579,0.0206
2.2198,1.8011,2.7883,2.2516,6.0485,2.0728,4.6625,3.5375,-0.5051,2.9795,3.5171,4.1971,7.6303,6.4863,4.3516,2.8636,4.8136,5.8216,5.0522,4.2408,4.9003,6.7672,7.0769,9.9227,7.3361,10.6787,11.0577,5.409,-4.0142,0.0364
2.1665,1.6125,2.7896,2.2132,6.2609,2.2392,5.0858,3.7597,-0.5339,3.1825,3.7004,4.7272,8.1104,6.8007,4.3804,2.7575,4.8327,5.9016,5.2616,4.2897,5.0839,7.0297,7.1501,10.1594,7.3574,10.7239,11.199,5.5899,-3.9848,0.1561
2.0864,1.4648,2.77,2.1547,6.4195,2.4109,5.3715,3.8671,-0.6684,3.1796,3.7694,5.0512,8.3727,6.9733,4.3793,2.6412,4.9115,5.9413,5.4958,4.299,5.1735,7.2059,7.1236,10.1758,7.2872,10.5767,11.114,5.6094,-3.893,0.3448
1.9468,1.3624,2.6993,2.0812,6.5115,2.57,5.5042,3.874,-0.8744,2.9935,3.7215,5.1447,8.3917,6.9818,4.3264,2.5171,5.0206,5.9227,5.708,4.256,5.1541,7.2508,6.9907,9.9408,7.1138,10.2516,10.7914,5.4755,-3.7696,0.5636
1.7332,1.3047,2.5645,1.9985,6.5276,2.6975,5.4753,3.8016,-1.1179,2.6573,3.5545,5.0049,8.1557,6.8127,4.2033,2.3908,5.1199,5.8294,5.8493,4.153,5.0196,7.1269,6.7611,9.437,6.8332,9.773,10.2236,5.1986,-3.6433,0.7806
1.4556,1.2901,2.3784,1.9133,6.4639,2.7779,5.2823,3.671,-1.3736,2.2048,3.2635,4.6471,7.6676,6.4639,4.0014,2.2726,5.1732,5.652,5.8823,3.9909,4.7742,6.8147,6.457,8.6644,6.4493,9.1678,9.4091,4.7869,-3.5324,0.9768
1.1479,1.3175,2.1798,1.8324,6.3228,2.8022,4.9291,3.4983,-1.6304,1.6645,2.8403,4.0992,6.945,5.9463,3.7263,2.1764,5.1586,5.3908,5.7893,3.7798,4.433,6.3197,6.1073,7.6446,5.9736,8.4602,8.3567,4.2434,-3.4406,1.1475
0.8606,1.3859,2.0243,1.7604,6.1126,2.7692,4.4285,3.2928,-1.891,1.0577,2.2771,3.3962,6.0209,5.2838,3.3965,2.1146,5.0719,5.0562,5.5748,3.5361,4.0188,5.6734,5.742,6.4221,5.4241,7.6696,7.0912,3.5686,-3.3577,1.2993
0.6503,1.4911,1.9689,1.697,5.8472,2.6848,3.8057,3.0581,-2.1658,0.4012,1.5743,2.5772,4.9442,4.5137,3.0406,2.0945,4.9233,4.6677,5.2608,3.2788,3.5595,4.9285,5.3898,5.0647,4.8247,6.8145,5.6593,2.7668,-3.2644,1.4457
0.566,1.6235,2.0537,1.637,5.5441,2.5604,3.1003,2.7953,-2.4648,-0.2863,0.7483,1.6844,3.7798,3.6853,2.6911,2.1147,4.7307,4.252,4.8805,3.0252,3.0853,4.1511,5.0791,3.6616,4.2059,5.9191,4.1344,1.8546,-3.1409,1.6005
0.6376,1.7668,2.2891,1.5713,5.2231,2.4103,2.3664,2.5078,-2.7903,-0.9796,-0.1619,0.7649,2.607,2.8583,2.3797,2.1655,4.514,3.8415,4.4727,2.7897,2.6266,3.4128,4.8389,2.3187,3.6044,5.0214,2.6167,0.8685,-2.9754,1.7729
0.867,1.9,2.6506,1.4914,4.9058,2.2506,1.669,2.2047,-3.1327,-1.6433,-1.0936,-0.1277,1.5156,2.0985,2.1337,2.232,4.2931,3.4721,4.0781,2.5838,2.214,2.7825,4.6978,1.1488,3.0624,4.1767,1.2272,-0.1313,-2.7699,1.9628
1.2258,2.0023,3.084,1.3939,4.614,2.0973,1.0754,1.9028,-3.4713,-2.2339,-1.9666,-0.9337,0.5976,1.4719,1.973,2.2991,4.0883,3.1801,3.7377,2.4174,1.8776,2.3192,4.6769,0.2589,2.6252,3.4557,0.0943,-1.0644,-2.5411,2.1593
1.6588,2.0583,3.5162,1.2844,4.3688,1.9654,0.6445,1.6242,-3.7785,-2.7051,-2.6947,-1.5898,-0.0635,1.0352,1.9087,2.3561,3.921,2.9963,3.4885,2.2997,1.6447,2.0646,4.7813,-0.266,2.3356,2.9344,-0.6655,-1.8398,-2.317,2.3413
2.0946,2.0615,3.8706,1.1764,4.1878,1.8668,0.4152,1.3921,-4.0266,-3.0162,-3.2013,-2.0367,-0.406,0.8269,1.9416,2.3991,3.8118,2.9402,3.3579,2.2383,1.5362,2.0364,4.9931,-0.3785,2.2275,2.6803,-0.9691,-2.3693,-2.1296,2.4815
2.4605,2.0151,4.0822,1.0883,4.0825,1.8085,0.3985,1.2254,-4.1957,-3.1402,-3.4353,-2.2286,-0.4005,0.8599,2.0623,2.4308,3.7767,3.0146,3.3572,2.2373,1.5618,2.2244,5.2716,-0.0788,2.3186,2.7379,-0.784,-2.5851,-2.006,2.5534
2.6985,1.929,4.1089,1.0367,4.056,1.7906,0.5758,1.1354,-4.2783,-3.0688,-3.3813,-2.1432,-0.0564,1.1188,2.2531,2.4586,3.8231,3.2049,3.4771,2.2961,1.7169,2.5919,5.5614,0.584,2.6051,3.1161,-0.1367,-2.4532,-1.9603,2.5373
2.7777,1.8164,3.9362,1.0317,4.1029,1.8054,0.9033,1.124,-4.2805,-2.814,-3.0619,-1.7881,0.5795,1.5632,2.4917,2.4919,3.9486,3.4823,3.6904,2.4083,1.9826,3.0828,5.8056,1.5207,3.0597,3.7824,0.8914,-1.9826,-1.9907,2.4244
2.7004,1.6894,3.5787,1.0733,4.2104,1.8374,1.3223,1.1836,-4.2185,-2.4053,-2.5321,-1.2013,1.4303,2.1356,2.7572,2.5389,4.1436,3.8121,3.9585,2.5633,2.3284,3.6323,5.961,2.6192,3.6335,4.6655,2.1796,-1.2246,-2.08,2.2183
2.4999,1.5574,3.0753,1.1522,4.3605,1.8671,1.7719,1.299,-4.1131,-1.8839,-1.8684,-0.4464,2.4013,2.7715,3.0331,2.605,4.3931,4.161,4.2412,2.7477,2.7175,4.1788,6.0098,3.7654,4.2639,5.6661,3.5908,-0.2643,-2.2023,1.9328
2.2306,1.4253,2.4837,1.2512,4.5331,1.8755,2.2003,1.4505,-3.9831,-1.2958,-1.1555,0.3981,3.3947,3.4091,3.3081,2.6899,4.6777,4.5026,4.503,2.9459,3.1117,4.6728,5.9647,4.8612,4.8849,6.6749,4.9946,0.795,-2.33,1.5882
1.9542,1.2945,1.8726,1.349,4.7076,1.8497,2.5719,1.617,-3.841,-0.6849,-0.473,1.2508,4.3211,3.9951,3.5726,2.786,4.9715,4.8175,4.7154,3.1404,3.4751,5.0802,5.8637,5.836,5.439,7.5928,6.2852,1.8488,-2.4419,1.2082
1.7241,1.1643,1.3123,1.4234,4.8641,1.7863,2.8685,1.7781,-3.6908,-0.0898,0.1157,2.0397,5.109,4.4879,3.814,2.877,5.2389,5.0899,4.8551,3.3107,3.7753,5.3815,5.7569,6.6476,5.8873,8.3476,7.3891,2.8075,-2.5289,0.8153
1.5725,1.0332,0.8636,1.4541,4.9842,1.6918,3.0858,1.9147,-3.53,0.4579,0.5718,2.7105,5.7084,4.8566,4.0119,2.9386,5.4354,5.3032,4.9024,3.4332,3.9833,5.5675,5.6899,7.2776,6.2125,8.9025,8.2638,3.605,-2.596,0.4278
1.5025,0.9001,0.566,1.4255,5.0512,1.5796,3.2265,2.008,-3.3542,0.9305,0.8826,3.2296,6.0905,5.0801,4.1388,2.9426,5.5132,5.4381,4.841,3.4828,4.0744,5.6355,5.6897,7.7226,6.4172,9.2547,8.8921,4.2006,-2.6601,0.0573
1.4883,0.7645,0.4296,1.3281,5.0506,1.4643,3.2937,2.0394,-3.1625,1.3022,1.0568,3.5822,6.245,5.1454,4.1637,2.8623,5.4316,5.4744,4.6607,3.4366,4.0299,5.5873,5.7568,7.985,6.5158,9.4279,9.2723,4.5762,-2.7443,-0.2922
1.4849,0.6268,0.4329,1.1607,4.972,1.3564,3.2882,1.993,-2.9609,1.5479,1.117,3.7685,6.1766,5.0481,4.0617,2.6808,5.1706,5.3964,4.3635,3.2802,3.8411,5.43,5.8668,8.0673,6.5266,9.4595,9.4108,4.732,-2.8696,-0.6227
1.4441,0.4892,0.5294,0.9318,4.8116,1.2593,3.208,1.8593,-2.7626,1.6454,1.0912,3.7995,5.9011,4.7933,3.8235,2.3987,4.7419,5.2004,3.9691,3.0141,3.5146,5.1779,5.9786,7.9689,6.4649,9.3888,9.317,4.6834,-3.0462,-0.9363
1.3332,0.3575,0.6621,0.6607,4.5749,1.1688,3.0517,1.641,-2.587,1.5788,1.0083,3.6951,5.4441,4.3978,3.4641,2.0383,4.1944,4.9002,3.5176,2.6581,3.0754,4.8548,6.0476,7.688,6.341,9.2471,9.0001,4.4597,-3.2679,-1.2283
1.1485,0.2431,0.7803,0.3772,4.2772,1.0753,2.8223,1.3563,-2.4553,1.3431,0.8956,3.4818,4.8376,3.8892,3.0238,1.6437,3.6079,4.5277,3.0675,2.2518,2.567,4.4938,6.0377,7.2241,6.1605,9.053,8.4685,4.1019,-3.5116,-1.4826
0.9196,0.1629,0.8544,0.1183,3.9424,0.968,2.5286,1.0389,-2.3885,0.9445,0.779,3.1913,4.117,3.3032,2.5617,1.2742,3.0782,4.1281,2.6865,1.8487,2.0463,4.1338,5.9299,6.5809,5.9269,8.8114,7.7302,3.6579,-3.7425,-1.6705
0.702,0.1372,0.883,-0.0789,3.5978,0.8367,2.1844,0.7309,-2.403,0.3995,0.6831,2.8572,3.3165,2.6776,2.1426,0.9918,2.6957,3.7491,2.4385,1.5055,1.5723,3.8118,5.724,5.7682,5.6437,8.5174,6.7931,3.1763,-3.9238,-1.7571
0.5601,0.1844,0.8902,-0.1856,3.268,0.6745,1.8051,0.4741,-2.5078,-0.2689,0.6295,2.5113,2.4654,2.0454,1.8213,0.8471,2.5243,3.4297,2.3692,1.2698,1.1947,3.5562,5.435,4.8018,5.3161,8.1621,5.6673,2.6988,-4.0265,-1.7108
0.5472,0.3149,0.9119,-0.1878,2.9692,0.4788,1.4049,0.2991,-2.7021,-1.0348,0.6336,2.1785,1.5846,1.4294,1.6298,0.8665,2.5879,3.1917,2.4956,1.1683,0.9419,3.3801,5.0864,3.703,4.951,7.7385,4.3685,2.2547,-4.037,-1.5148
0.6871,0.5258,0.979,-0.0907,2.7069,0.2512,0.9945,0.2168,-2.9741,-1.8707,0.6998,1.8733,0.6873,0.8394,1.5708,1.046,2.868,3.0363,2.8022,1.2007,0.8152,3.2801,4.7025,2.4987,4.5566,7.2476,2.9223,1.857,-3.9594,-1.1755
0.9652,0.7999,1.1022,0.0823,2.4757,-0.0019,0.5809,0.2152,-3.3016,-2.7487,0.818,1.5977,-0.2196,0.2735,1.6192,1.3514,3.3105,2.9469,3.2439,1.3398,0.7891,3.2379,4.3046,1.2212,4.1415,6.7003,1.3675,1.5029,-3.8134,-0.7248
1.3312,1.1076,1.2664,0.2954,2.2633,-0.2708,0.168,0.2624,-3.6554,-3.6404,0.9647,1.343,-1.1304,-0.2772,1.7301,1.7263,3.8399,2.8958,3.7558,1.5387,0.8191,3.226,3.9081,-0.0909,3.7151,6.1182,-0.2423,1.1771,-3.6291,-0.215
