FP1,F3,F7,FC3,C3,C5,P3,P7,PO7,PO3,O1,Oz,Pz,CPz,FP2,Fz,F4,F8,FC4,FCz,Cz,C4,C6,P4,P8,PO8,PO4,O2,HEOG_left,HEOG_right
2.18,0.6726,2.8778,2.2534,2.4617,2.704,4.0355,1.5186,0.7926,3.2903,0.3531,1.5134,3.967,3.3779,1.7633,2.0922,1.8712,0.2614,2.0153,3.098,3.3498,1.3796,0.6817,3.2614,1.8622,2.1451,3.181,2.2824,1.6582,2.1786
2.0603,0.6625,2.4789,2.195,2.5066,2.5714,4.2019,1.771,1.1708,3.5564,0.8795,1.7579,4.15,3.5193,1.7623,1.9446,1.8047,0.3221,1.9169,2.9264,3.2463,1.2293,0.287,3.0301,1.5195,2.0823,3.0388,2.4132,1.5611,1.6688
1.921,0.6206,2.1085,2.1278,2.5148,2.4254,4.3134,1.9896,1.5136,3.7557,1.3577,1.9694,4.2625,3.5991,1.7337,1.7759,1.7204,0.3721,1.7927,2.7278,3.1067,1.0587,-0.0886,2.7631,1.1753,1.9961,2.8586,2.5034,1.4596,1.1923
1.7374,0.5141,1.7821,2.0307,2.4444,2.2463,4.3104,2.1368,1.7815,3.8238,1.7384,2.1148,4.2376,3.5578,1.6448,1.5606,1.5907,0.3944,1.6125,2.4681,2.8901,0.8448,-0.4332,2.4281,0.8287,1.8646,2.6065,2.5157,1.3461,0.7708
1.4906,0.3222,1.5001,1.8822,2.2647,2.0177,4.1488,2.1836,1.9421,3.7161,1.9834,2.17,4.0299,3.3544,1.4715,1.2818,1.3941,0.3735,1.3555,2.1223,2.5685,0.5705,-0.7402,2.0072,0.4846,1.6784,2.2641,2.4277,1.2098,0.417
1.1684,0.0383,1.2455,1.6613,1.9585,1.7268,3.8051,2.1118,1.973,3.4129,2.0694,2.1216,3.6214,2.9706,1.2006,0.9325,1.1171,0.2955,1.013,1.6775,2.129,0.2272,-1.0083,1.5,0.155,1.4422,1.8318,2.2341,1.0382,0.1337
0.7657,-0.3331,0.9876,1.3484,1.5217,1.3644,3.2772,1.9148,1.8635,2.9205,1.9905,1.9681,3.0213,2.4123,0.8296,0.5152,0.7546,0.149,0.5887,1.1325,1.5736,-0.1838,-1.2405,0.9234,-0.144,1.1718,1.3275,1.9458,0.8197,-0.0865
0.2853,-0.7787,0.6913,0.9286,0.9628,0.9255,2.5841,1.5969,1.616,2.2678,1.758,1.7188,2.2636,1.7075,0.366,0.0396,0.3098,-0.0732,0.0972,0.4985,0.9176,-0.6504,-1.4408,0.308,-0.3961,0.8891,0.7813,1.5854,0.5481,-0.258
-0.2603,-1.2794,0.3301,0.3975,0.3029,0.4124,1.7633,1.1728,1.2466,1.5017,1.399,1.3921,1.4018,0.9043,-0.1729,-0.4776,-0.2057,-0.3719,-0.4372,-0.2012,0.1882,-1.1491,-1.611,-0.3067,-0.5882,0.6159,0.2299,1.1833,0.2258,-0.3975
-0.8468,-1.8102,-0.102,-0.2325,-0.423,-0.1607,0.8676,0.6676,0.785,0.6814,0.9535,1.0146,0.5031,0.0662,-0.7597,-1.0129,-0.7707,-0.7376,-0.9824,-0.9304,-0.5754,-1.6454,-1.7486,-0.8776,-0.7137,0.3699,-0.289,0.7727,-0.134,-0.5198
-1.4377,-2.34,-0.5846,-0.9272,-1.1655,-0.7648,-0.0383,0.1159,0.272,-0.1278,0.47,0.6178,-0.358,-0.7328,-1.3569,-1.535,-1.3529,-1.149,-1.4996,-1.6401,-1.3219,-2.0959,-1.8454,-1.3625,-0.7721,0.1631,-0.7409,0.3862,-0.5079,-0.6327
-1.9864,-2.8311,-1.0747,-1.6317,-1.8633,-1.3553,-0.884,-0.44,-0.2439,-0.8608,0.0003,0.2363,-1.1077,-1.416,-1.9191,-2.0058,-1.9104,-1.5736,-1.9466,-2.272,-1.9908,-2.4533,-1.8889,-1.7252,-0.7683,0.0023,-1.0974,0.0535,-0.8662,-0.7361
-2.443,-3.2421,-1.5169,-2.2765,-2.4496,-1.8769,-1.6008,-0.9539,-0.7128,-1.4594,-0.4062,-0.0965,-1.6823,-1.9156,-2.3978,-2.385,-2.3953,-1.9718,-2.2831,-2.7665,-2.5192,-2.6739,-1.8659,-1.9399,-0.7105,-0.1092,-1.3385,-0.2018,-1.1782,-0.8228
-2.7634,-3.5327,-1.8587,-2.7904,-2.8635,-2.2738,-2.1311,-1.3816,-1.0903,-1.8793,-0.7092,-0.3522,-2.0381,-2.1849,-2.7489,-2.6369,-2.7616,-2.3035,-2.4773,-3.0737,-2.8535,-2.7277,-1.7676,-1.9961,-0.6082,-0.1702,-1.4545,-0.3644,-1.4191,-0.883
-2.919,-3.672,-2.0645,-3.1157,-3.0625,-2.5009,-2.4383,-1.6874,-1.3446,-2.0966,-0.8834,-0.5119,-2.16,-2.2096,-2.9419,-2.7388,-2.9747,-2.5358,-2.5147,-3.1656,-2.9619,-2.6072,-1.595,-1.9013,-0.4725,-0.1821,-1.4477,-0.4294,-1.5754,-0.9095
-2.9046,-3.6453,-2.1248,-3.2214,-3.0333,-2.5357,-2.5139,-1.851,-1.4612,-2.1112,-0.9226,-0.5696,-2.0669,-2.0145,-2.9671,-2.6891,-3.0207,-2.6489,-2.4038,-3.0454,-2.8455,-2.3328,-1.3625,-1.6822,-0.3164,-0.1504,-1.3343,-0.4046,-1.6479,-0.9024
-2.7412,-3.4601,-2.0591,-3.1119,-2.7977,-2.3855,-2.3808,-1.8706,-1.4457,-1.9484,-0.8403,-0.5342,-1.8109,-1.6629,-2.8395,-2.5104,-2.9119,-2.64,-2.1779,-2.7515,-2.5433,-1.9528,-1.098,-1.383,-0.1569,-0.0875,-1.1434,-0.3105,-1.6508,-0.8719
-2.474,-3.1467,-1.9106,-2.8271,-2.4108,-2.0884,-2.0908,-1.7642,-1.3223,-1.6554,-0.6677,-0.4289,-1.47,-1.2477,-2.5976,-2.2477,-2.6857,-2.5246,-1.891,-2.3526,-2.1289,-1.5365,-0.8395,-1.0596,-0.0153,-0.0146,-0.9157,-0.1798,-1.6076,-0.8365
-2.163,-2.7547,-1.7352,-2.4353,-1.9513,-1.7077,-1.7156,-1.5657,-1.1289,-1.2943,-0.4476,-0.2875,-1.1353,-0.875,-2.2965,-1.9608,-2.3973,-2.3332,-1.6074,-1.9359,-1.6977,-1.1611,-0.627,-0.7709,0.0839,0.0395,-0.6982,-0.0532,-1.5445,-0.8163
-1.8708,-2.3429,-1.5868,-2.0187,-1.5055,-1.3195,-1.334,-1.3185,-0.9097,-0.9321,-0.2267,-0.1492,-0.8935,-0.6428,-1.9963,-1.711,-2.1067,-2.1047,-1.3874,-1.5883,-1.3476,-0.8953,-0.4932,-0.5691,0.1171,0.0415,-0.5369,0.0261,-1.4838,-0.826
-1.6479,-1.9674,-1.5026,-1.6551,-1.1492,-0.9968,-1.017,-1.0672,-0.7068,-0.6296,-0.047,-0.0508,-0.8093,-0.6204,-1.7487,-1.5464,-1.8644,-1.8768,-1.2722,-1.3773,-1.1563,-0.7831,-0.4545,-0.4887,0.0669,-0.0389,-0.4686,0.0199,-1.4383,-0.8667
-1.5203,-1.668,-1.4925,-1.4009,-0.9319,-0.7937,-0.8148,-0.8502,-0.5533,-0.4314,0.0601,-0.0194,-0.9117,-0.8315,-1.5839,-1.4892,-1.6978,-1.6755,-1.272,-1.3339,-1.1622,-0.833,-0.5048,-0.5396,-0.0716,-0.2206,-0.5128,-0.0962,-1.409,-0.9229
-1.4822,-1.4579,-1.5357,-1.278,-0.8663,-0.7333,-0.7485,-0.6932,-0.4692,-0.3585,0.0786,-0.0675,-1.1862,-1.2468,-1.5021,-1.5272,-1.6042,-1.506,-1.3614,-1.4437,-1.353,-1.0133,-0.6141,-0.7028,-0.2863,-0.5033,-0.6646,-0.3257,-1.3859,-0.9642
-1.4951,-1.3191,-1.5845,-1.2687,-0.9266,-0.8029,-0.8071,-0.6075,-0.46,-0.4057,0.0086,-0.1896,-1.5764,-1.7875,-1.4711,-1.6138,-1.5495,-1.3485,-1.4817,-1.6466,-1.6659,-1.2575,-0.7337,-0.9328,-0.5465,-0.8623,-0.8934,-0.6471,-1.351,-0.9512
-1.4959,-1.2046,-1.5753,-1.3197,-1.0545,-0.9563,-0.9517,-0.589,-0.5177,-0.5438,-0.1343,-0.3622,-1.9942,-2.3386,-1.4325,-1.6759,-1.4751,-1.1615,-1.5523,-1.8486,-1.9995,-1.476,-0.8044,-1.1632,-0.8058,-1.2487,-1.144,-1.0131,-1.2822,-0.8448
-1.41,-1.0495,-1.4439,-1.3544,-1.1725,-1.125,-1.1232,-0.621,-0.6229,-0.7244,-0.3216,-0.5474,-2.3356,-2.7721,-1.3139,-1.6293,-1.3116,-0.8917,-1.4868,-1.9412,-2.2351,-1.5737,-0.7687,-1.3181,-1.0085,-1.5944,-1.3448,-1.3569,-1.158,-0.6155
-1.1699,-0.7878,-1.1436,-1.292,-1.2015,-1.2335,-1.2547,-0.6783,-0.7472,-0.8891,-0.5162,-0.6984,-2.5012,-2.9719,-1.0472,-1.3979,-0.9969,-0.4899,-1.2141,-1.8268,-2.2638,-1.47,-0.5821,-1.325,-1.0983,-1.8228,-1.4191,-1.6011,-0.9607,-0.2516
-0.7339,-0.3716,-0.6597,-1.0688,-1.0796,-1.2174,-1.2849,-0.7326,-0.8578,-0.9799,-0.6773,-0.7674,-2.4155,-2.8583,-0.5879,-0.9349,-0.4937,0.072,-0.6964,-1.4427,-2.0116,-1.1159,-0.2231,-1.1285,-1.0297,-1.8618,-1.2989,-1.6716,-0.681,0.2357
-0.0999,0.2122,-0.0176,-0.6562,-0.7769,-1.0388,-1.1702,-0.7573,-0.9219,-0.9494,-0.7662,-0.7145,-2.0424,-2.4051,0.0699,-0.2377,0.1958,0.7869,0.0572,-0.7803,-1.4587,-0.5065,0.3014,-0.7023,-0.7767,-1.6585,-0.9397,-1.5121,-0.3219,0.8114
0.6889,0.9326,0.719,-0.072,-0.3048,-0.696,-0.8945,-0.7331,-0.9118,-0.7711,-0.7533,-0.5168,-1.3941,-1.646,0.886,0.6439,1.0249,1.6065,0.9869,0.1077,-0.646,0.3151,0.9548,-0.0561,-0.3411,-1.1926,-0.3322,-1.0975,0.0989,1.4193
1.5496,1.7176,1.4603,0.6215,0.2858,-0.2238,-0.4723,-0.6511,-0.8103,-0.4451,-0.6233,-0.175,-0.5301,-0.669,1.7775,1.6134,1.9074,2.4458,1.9897,1.115,0.3313,1.2638,1.675,0.7625,0.2457,-0.4841,0.4919,-0.4428,0.5485,1.989
2.3748,2.4683,2.1089,1.3298,0.9144,0.3136,0.0529,-0.5135,-0.6143,0.0006,-0.3797,0.2838,0.4523,0.4006,2.6334,2.5438,2.7326,3.1977,2.9373,2.1019,1.3428,2.2266,2.3835,1.6733,0.9245,0.4045,1.4603,0.3947,0.9818,2.4468
3.0548,3.0816,2.5805,1.9485,1.4888,0.8379,0.6176,-0.3328,-0.336,0.5145,-0.045,0.8085,1.4346,1.4236,3.3367,3.3033,3.3876,3.754,3.7007,2.9245,2.2499,3.0837,2.9985,2.5752,1.6176,1.3751,2.469,1.3217,1.3493,2.7276
3.5005,3.4752,2.8199,2.3881,1.9253,1.2741,1.1506,-0.128,-0.0012,1.0307,0.3417,1.3317,2.2987,2.2739,3.7891,3.7832,3.7811,4.0294,4.1749,3.4657,2.9335,3.7307,3.4489,3.3621,2.2409,2.3079,3.3974,2.2221,1.606,2.7878
3.6608,3.6075,2.8086,2.5942,2.1668,1.5658,1.5856,0.0801,0.3555,1.481,0.7319,1.7808,2.946,2.8593,3.9314,3.9207,3.8615,3.9814,4.2987,3.6584,3.3164,4.0969,3.6867,3.9395,2.7173,3.0801,4.1267,2.9749,1.7222,2.6144
3.5304,3.4857,2.5641,2.5581,2.1935,1.686,1.8718,0.2731,0.6958,1.8061,1.0749,2.0897,3.3119,3.1346,3.7543,3.7106,3.6267,3.6209,4.0636,3.4976,3.3746,4.1559,3.6944,4.238,2.9895,3.586,4.5579,3.4732,1.6904,2.2278
3.1466,3.1609,2.1317,2.3143,2.0236,1.6388,1.9793,0.4374,0.9839,1.9634,1.3257,2.2089,3.3714,3.1024,3.2983,3.2032,3.1212,3.0099,3.5123,3.0365,3.1357,3.9259,3.4851,4.2216,3.0264,3.7532,4.6256,3.6402,1.5272,1.6783
2.5766,2.711,1.5722,1.9271,1.7056,1.4543,1.8994,0.5647,1.1902,1.9304,1.4502,2.1115,3.1363,2.804,2.6403,2.4902,2.4246,2.2471,2.7261,2.3699,2.6666,3.4606,3.0967,3.8899,2.826,3.5523,4.306,3.4392,1.2687,1.036
1.9015,2.2192,0.9516,1.4715,1.3032,1.1781,1.6411,0.6506,1.2942,1.7042,1.428,1.7948,2.6466,2.3045,1.8757,1.6818,1.634,1.4451,1.8081,1.6109,2.0541,2.8344,2.5813,3.2732,2.4113,2.9999,3.6179,2.8772,0.9626,0.3771
1.1999,1.754,0.3317,1.0157,0.8795,0.8592,1.2257,0.6925,1.2848,1.2991,1.2531,1.2788,1.9589,1.6763,1.0981,0.8848,0.8452,0.7071,0.8642,0.8661,1.3856,2.1263,1.9932,2.4257,1.8246,2.1536,2.6182,2.0026,0.6562,-0.2291
0.5368,1.3586,-0.2339,0.6085,0.4844,0.5399,0.683,0.6881,1.1612,0.7434,0.9336,0.602,1.1361,0.9869,0.3845,0.1841,0.1392,0.108,-0.0119,0.2182,0.7342,1.4071,1.3803,1.4169,1.1196,1.1016,1.3937,0.8973,0.3871,-0.7311
-0.0404,1.0505,-0.7031,0.2765,0.1484,0.2504,0.049,0.6355,0.9326,0.0768,0.491,-0.1833,0.2405,0.2916,-0.2128,-0.3658,-0.427,-0.3134,-0.7484,-0.2838,0.1508,0.7317,0.7797,0.3241,0.3545,-0.0503,0.0509,-0.3341,0.1775,-1.1003
-0.5016,0.8289,-1.0449,0.0277,-0.1162,0.0087,-0.6337,0.5354,0.6178,-0.6511,-0.0413,-1.0161,-0.6687,-0.3673,-0.6655,-0.7417,-0.8216,-0.5541,-1.2995,-0.6231,-0.3361,0.1378,0.2184,-0.7731,-0.4127,-1.1926,-1.2953,-1.5763,0.0328,-1.3312
-0.8288,0.6876,-1.2403,-0.1394,-0.3084,-0.1757,-1.3159,0.3927,0.2447,-1.3834,-0.62,-1.8315,-1.5356,-0.9572,-0.9649,-0.9441,-1.0347,-0.637,-1.6445,-0.8074,-0.7144,-0.3514,-0.283,-1.7969,-1.1283,-2.2246,-2.5326,-2.7171,-0.053,-1.4367
-1.0114,0.625,-1.2824,-0.226,-0.4295,-0.2948,-1.9425,0.219,-0.1514,-2.0584,-1.1952,-2.566,-2.3061,-1.45,-1.1129,-0.9873,-1.0719,-0.5989,-1.7833,-0.8566,-0.9798,-0.7218,-0.705,-2.6748,-1.7455,-3.0647,-3.5614,-3.6587,-0.0899,-1.4394
-1.0418,0.6508,-1.1768,-0.2258,-0.4748,-0.337,-2.4549,0.0331,-0.5305,-2.6138,-1.7141,-3.1618,-2.9266,-1.8173,-1.1146,-0.8877,-0.9461,-0.4765,-1.7297,-0.7907,-1.1268,-0.9628,-1.0263,-3.3432,-2.2261,-3.6562,-4.3025,-4.3273,-0.0829,-1.3622
-0.9142,0.7852,-0.9395,-0.1233,-0.4297,-0.2842,-2.796,-0.1397,-0.8523,-2.9927,-2.1264,-3.5712,-3.3453,-2.0287,-0.9725,-0.6567,-0.6712,-0.2958,-1.5042,-0.6215,-1.1427,-1.0632,-1.2223,-3.7511,-2.5416,-3.9699,-4.7036,-4.6785,-0.0267,-1.2206
-0.6248,1.0527,-0.5948,0.1022,-0.2705,-0.1141,-2.9164,-0.27,-1.0799,-3.1492,-2.3893,-3.7602,-3.5155,-2.0528,-0.6849,-0.298,-0.2592,-0.0662,-1.1296,-0.3492,-1.0068,-1.0094,-1.2676,-3.8643,-2.6744,-4.0022,-4.7409,-4.6986,0.0944,-1.0193
-0.176,1.4712,-0.171,0.4679,0.0289,0.1939,-2.7821,-0.3286,-1.1849,-3.0549,-2.4718,-3.7114,-3.4026,-1.8628,-0.2497,0.1886,0.2785,0.2192,-0.6279,0.0343,-0.6955,-0.7877,-1.1404,-3.6684,-2.6181,-3.7713,-4.4205,-4.4022,0.3004,-0.7549
0.4192,2.0417,0.3027,0.977,0.4871,0.6494,-2.3817,-0.2918,-1.1512,-2.7038,-2.3597,-3.4265,-2.9924,-1.445,0.3298,0.7998,0.9267,0.5762,-0.0216,0.5365,-0.1922,-0.39,-0.8304,-3.1721,-2.3787,-3.3116,-3.7762,-3.8269,0.6059,-0.4231
1.1332,2.7401,0.7988,1.6106,1.1056,1.2431,-1.7311,-0.1461,-0.9777,-2.1158,-2.0577,-2.9277,-2.2988,-0.8078,1.0368,1.5194,1.6604,1.0181,0.6626,1.1545,0.5003,0.1789,-0.3448,-2.4083,-1.9748,-2.6688,-2.8665,-3.0275,1.0107,-0.0272
1.9215,3.516,1.2923,2.3252,1.8608,1.9421,-0.8752,0.1073,-0.679,-1.3365,-1.5905,-2.257,-1.3687,0.0119,1.8355,2.3123,2.4409,1.5442,1.391,1.8664,1.3505,0.8943,0.2863,-1.4333,-1.4384,-1.8961,-1.7707,-2.0709,1.4941,0.414
2.7256,4.2987,1.7598,3.0565,2.7028,2.6914,0.1153,0.452,-0.2844,-0.4331,-1.0007,-1.473,-0.2804,0.9474,2.6707,3.1234,3.2165,2.1323,2.1209,2.6277,2.2953,1.7093,1.0102,-0.3242,-0.8137,-1.0506,-0.5823,-1.0305,2.0142,0.8639
3.4788,5.0091,2.1787,3.7298,3.5606,3.4218,1.1526,0.8584,0.167,0.5139,-0.343,-0.6452,0.8654,1.9095,3.4728,3.8833,3.9271,2.7376,2.8032,3.3763,3.2466,2.5578,1.7569,0.8286,-0.1541,-0.1916,0.5985,0.018,2.5136,1.2714
4.116,5.5748,2.5268,4.2732,4.3531,4.062,2.1435,1.2884,0.6321,1.422,0.3238,0.1551,1.9608,2.7996,4.1684,4.5198,4.5124,3.2983,3.3875,4.0419,4.1054,3.3634,2.4498,1.9307,0.4822,0.6218,1.6748,1.0017,2.9298,1.5795
4.5833,5.9437,2.782,4.6305,5.0031,4.5521,3.0032,1.7027,1.072,2.219,0.9462,0.864,2.9085,3.5273,4.6911,4.9709,4.9217,3.7458,3.8292,4.5592,4.7801,4.0521,3.0184,2.896,1.0394,1.3343,2.5628,1.8553,3.207,1.7363
4.8458,6.0918,2.9243,4.7703,5.4505,4.8542,3.6673,2.0673,1.4578,2.8536,1.4843,1.4343,3.6384,4.0273,4.9932,5.1958,5.1208,4.0181,4.0963,4.8798,5.204,4.5653,3.4121,3.6586,1.4714,1.8979,3.2022,2.5277,3.3072,1.7069
4.892,6.0238,2.9381,4.6885,5.6617,4.9576,4.1002,2.359,1.7746,3.3016,1.9169,1.842,4.1184,4.2715,5.0532,5.1822,5.0982,4.0723,4.1749,4.9802,5.3467,4.8703,3.6088,4.1819,1.7497,2.278,3.5637,2.9872,3.217,1.4811
4.7341,5.7679,2.8164,4.4059,5.6325,4.8767,4.2978,2.5668,2.0208,3.5659,2.2424,2.0882,4.3569,4.2729,4.879,4.9471,4.8659,3.8957,4.0714,4.864,5.2173,4.965,3.6192,4.464,1.8679,2.4575,3.6525,3.2251,2.9499,1.0763
4.404,5.3658,2.5632,3.9612,5.3846,4.6435,4.2835,2.6909,2.2043,3.6712,2.4737,2.1955,4.3963,4.0797,4.5059,4.5319,4.4583,3.5103,3.8116,4.559,4.8595,4.8763,3.4821,4.534,1.8422,2.4404,3.5057,3.256,2.5413,0.5352
3.9464,4.8633,2.1945,3.4015,4.9574,4.2973,4.0983,2.7377,2.3344,3.6529,2.6293,2.199,4.2984,3.7614,3.9895,3.9931,3.9262,2.97,3.4361,4.1097,4.3394,4.6512,3.254,4.4442,1.7082,2.2508,3.1846,3.1135,2.0409,-0.0832
3.4104,4.3016,1.7363,2.7727,4.397,3.8727,3.7882,2.7137,2.4147,3.5445,2.7227,2.1347,4.1265,3.3899,3.3946,3.3915,3.3289,2.3487,2.9935,3.5672,3.7294,4.3445,2.9943,4.255,1.5126,1.9292,2.7608,2.843,1.5007,-0.7156
2.8404,3.7114,1.2205,2.1126,3.7455,3.3929,3.3904,2.6206,2.4379,3.3661,2.7538,2.027,3.9271,3.0208,2.7819,2.7811,2.7227,1.7235,2.531,2.9792,3.0935,4.0043,2.7495,4.0201,1.3027,1.5249,2.3021,2.4911,0.9651,-1.3067
2.2684,3.111,0.6786,1.4453,3.0334,2.8649,2.9237,2.4526,2.3848,3.1175,2.7059,1.881,3.7176,2.6796,2.1959,2.2001,2.1513,1.1566,2.0855,2.381,2.4744,3.6607,2.5417,3.7719,1.1168,1.0872,1.8574,2.0967,0.4609,-1.8209
1.7093,2.5062,0.1356,0.7802,2.2767,2.2821,2.3856,2.1988,2.2299,2.7787,2.5482,1.6804,3.4814,2.3563,1.6569,1.6653,1.6374,0.6816,1.6761,1.7904,1.8877,3.3193,2.3624,3.5144,0.9759,0.657,1.4477,1.6837,-0.0059,-2.2476
1.1593,1.893,-0.3962,0.1136,1.4776,1.6296,1.7558,1.8484,1.9501,2.3161,2.2458,1.3928,3.173,2.0096,1.159,1.1707,1.1796,0.2991,1.301,1.2062,1.3221,2.9622,2.176,3.2231,0.88,0.2607,1.0631,1.2588,-0.449,-2.6011
0.5985,1.2607,-0.92,-0.5672,0.6311,0.8928,1.0073,1.3973,1.5347,1.6954,1.7725,0.9811,2.7312,1.5799,0.674,0.6908,0.7539,-0.0191,0.9387,0.6116,0.7467,2.5546,1.93,2.8537,0.8103,-0.091,0.669,0.8138,-0.894,-2.9136
-0.0016,0.5979,-1.4526,-1.2762,-0.2675,0.0666,0.1205,0.8546,0.9937,0.8957,1.1233,0.418,2.0978,1.008,0.1625,0.1885,0.3216,-0.3176,0.5544,-0.0192,0.123,2.0576,1.571,2.3573,0.7361,-0.4,0.2187,0.3338,-1.3664,-3.2249
-0.667,-0.1018,-2.0165,-2.0211,-1.2137,-0.8371,-0.9029,0.2451,0.3617,-0.0772,0.3242,-0.3,1.2375,0.2538,-0.4128,-0.3733,-0.1587,-0.6411,0.1107,-0.7107,-0.5804,1.4423,1.0617,1.6986,0.6248,-0.6734,-0.3283,-0.1928,-1.8796,-3.5696
-1.4084,-0.832,-2.6268,-2.7952,-2.1871,-1.7848,-2.0312,-0.3914,-0.304,-1.1825,-0.5654,-1.1423,0.1541,-0.6873,-1.0711,-1.0181,-0.7162,-1.0184,-0.4197,-1.4746,-1.3748,0.7019,0.395,0.8716,0.4535,-0.9147,-0.9887,-0.7623,-2.4265,-3.9659
-2.209,-1.5678,-3.2773,-3.5708,-3.1478,-2.722,-3.1996,-1.0049,-0.9306,-2.343,-1.4563,-2.0402,-1.101,-1.7763,-1.8017,-1.743,-1.3535,-1.4507,-1.0415,-2.2997,-2.2409,-0.1387,-0.3982,-0.0887,0.2186,-1.115,-1.7411,-1.3459,-2.9763,-4.4086
-3.0183,-2.2617,-3.9318,-4.2972,-4.0375,-3.5778,-4.3156,-1.5418,-1.4402,-3.4508,-2.2388,-2.8906,-2.4302,-2.9304,-2.5575,-2.5107,-2.0364,-1.9067,-1.7276,-3.1451,-3.1255,-1.0214,-1.2492,-1.1049,-0.0578,-1.2476,-2.5202,-1.8846,-3.4782,-4.8666
-3.7539,-2.8458,-4.5237,-4.904,-4.785,-4.2736,-5.2719,-1.9533,-1.762,-4.3814,-2.7977,-3.568,-3.7013,-4.033,-3.2569,-3.2496,-2.6924,-2.3261,-2.4173,-3.9404,-3.9453,-1.86,-2.0605,-2.0644,-0.3279,-1.2672,-3.2216,-2.2913,-3.869,-5.2862
-4.3125,-3.2396,-4.967,-5.3108,-5.316,-4.736,-5.9625,-2.2024,-1.844,-5.0119,-3.0292,-3.9431,-4.7678,-4.9513,-3.7954,-3.8623,-3.219,-2.6302,-3.0217,-4.5938,-4.599,-2.5514,-2.7208,-2.8362,-0.5239,-1.1156,-3.7173,-2.4612,-4.0853,-5.599
-4.5896,-3.3642,-5.1744,-5.4419,-5.5658,-4.9089,-6.3015,-2.2704,-1.6623,-5.2423,-2.8582,-3.9054,-5.4936,-5.5581,-4.0646,-4.2432,-3.5014,-2.737,-3.4381,-5.0066,-4.9845,-2.9934,-3.1235,-3.2933,-0.5705,-0.7334,-3.8796,-2.2901,-4.074,-5.7327
-4.5014,-3.1602,-5.0789,-5.2429,-5.4908,-4.765,-6.2388,-2.1599,-1.2267,-5.0148,-2.2529,-3.3854,-5.7769,-5.7558,-3.9744,-4.2997,-3.4369,-2.5779,-3.5689,-5.0928,-5.0185,-3.1017,-3.1861,-3.3368,-0.4004,-0.0746,-3.608,-1.6966,-3.8024,-5.6232
-4.0047,-2.602,-4.6502,-4.6942,-5.0785,-4.3116,-5.771,-1.8954,-0.5803,-4.3268,-1.234,-2.3719,-5.5698,-5.4938,-3.4729,-3.9722,-2.9585,-2.1115,-3.3425,-4.7972,-4.6537,-2.8269,-2.8638,-2.9158,0.0291,0.8779,-2.8534,-0.6441,-3.2638,-5.2262
-3.1086,-1.7078,-3.9033,-3.8187,-4.3508,-3.5903,-4.9439,-1.5189,0.2063,-3.2349,0.1252,-0.9193,-4.887,-4.78,-2.5595,-3.2482,-2.0532,-1.3321,-2.7288,-4.1082,-3.8895,-2.1639,-2.1589,-2.0396,0.7239,2.1012,-1.6321,0.8445,-2.4788,-4.5261
-1.8754,-0.5393,-2.8958,-2.6803,-3.3619,-2.6706,-3.8461,-1.0832,1.0455,-1.8483,1.7063,0.8564,-3.8036,-3.6796,-1.289,-2.1671,-0.7689,-0.2727,-1.7483,-3.0626,-2.7736,-1.1544,-1.1205,-0.7774,1.6476,3.5284,-0.0289,2.6819,-1.4932,-3.5426
-0.4109,0.8065,-1.7157,-1.3747,-2.1905,-1.6381,-2.5953,-0.6422,1.8471,-0.3122,3.3627,2.7933,-2.4416,-2.3043,0.2361,-0.815,0.7897,0.9981,-0.4715,-1.741,-1.3954,0.1191,0.1619,0.7516,2.7244,5.0534,1.8154,4.7242,-0.3722,-2.3334
1.1523,2.2118,-0.4657,-0.0146,-0.9276,-0.5804,-1.3183,-0.2417,2.5318,1.2158,4.9407,4.7069,-0.9476,-0.7929,1.8801,0.6884,2.478,2.3836,0.9916,-0.2555,0.1279,1.5456,1.571,2.3979,3.8504,6.5448,3.7255,6.7899,0.8067,-0.9917
2.6759,3.5568,0.7526,1.2877,0.3353,0.425,-0.1309,0.0884,3.0439,2.5909,6.3026,6.419,0.5329,0.7126,3.4952,2.2076,4.1333,3.7706,2.5077,1.2677,1.6697,3.0022,2.9773,4.0058,4.9108,7.8666,5.5204,8.6872,1.9618,0.3624
4.0355,4.7375,1.8506,2.4368,1.5183,1.3205,0.8801,0.3383,3.3586,3.7038,7.3466,7.7833,1.8782,2.0896,4.9417,3.6109,5.6003,5.0425,3.9391,2.7059,3.1122,4.3696,4.2563,5.4363,5.7985,8.8994,7.0416,10.2429,3.0132,1.5962
5.1359,5.6791,2.7598,3.3653,2.5605,2.0723,1.668,0.518,3.4845,4.4954,8.0196,8.7062,3.0065,3.252,6.1073,4.7876,6.7522,6.0928,5.1627,3.9555,4.3612,5.5468,5.3028,6.586,6.4316,9.5603,8.1758,11.3278,3.8895,2.5821
5.9199,6.3438,3.435,4.0405,3.4245,2.67,2.2284,0.6536,3.4596,4.9609,8.3211,9.1561,3.8818,4.1576,6.9184,5.6603,7.5059,6.8377,6.0838,4.942,5.3557,6.4596,6.042,7.3973,6.764,9.8143,8.8672,11.8735,4.5329,3.2164
6.3711,6.7314,3.8549,4.4633,4.097,3.1224,2.5938,0.7804,3.3429,5.1438,8.2977,9.162,4.5095,4.8066,7.3464,6.1914,7.829,7.2245,6.646,5.6257,6.07,7.0658,6.4357,7.859,6.7899,9.6766,9.1183,11.8782,4.9042,3.4345
6.5094,6.8733,4.0201,4.6625,4.5855,3.4503,2.8211,0.9354,3.2032,5.1219,8.0299,8.8021,4.9258,5.2314,7.4055,6.3837,7.7392,7.2369,6.8342,6.001,6.511,7.3556,6.483,8.0005,6.5396,9.2064,8.9815,11.4007,4.9888,3.22
6.3833,6.8225,3.9507,4.6856,4.914,3.6793,2.9757,1.1492,3.1065,4.9885,7.6149,8.1852,5.1833,5.483,7.1462,6.276,7.2969,6.8946,6.6729,6.0929,6.7105,7.3487,6.2167,7.8791,6.0704,8.4929,8.5428,10.5467,4.7995,2.6066
6.0596,6.6425,3.6811,4.5883,5.1164,3.833,3.1166,1.4402,3.1051,4.834,7.149,7.4302,5.3373,5.6168,6.6443,5.9347,6.593,6.2504,6.2197,5.9505,6.7169,7.0898,5.6964,7.5673,5.4549,7.6382,7.9041,9.4494,4.376,1.6717
5.612,6.3963,3.256,4.4248,5.2293,3.9276,3.2843,1.8108,3.2299,4.7297,6.7128,6.6465,5.4357,5.6815,5.9894,5.4436,5.7342,5.3823,5.556,5.6384,6.5858,6.641,4.9993,7.14,4.7684,6.7416,7.1666,8.2488,3.7788,0.5232
5.1121,6.1387,2.7247,4.2412,5.285,3.9706,3.4945,2.2462,3.4863,4.7173,6.3614,5.9196,5.5123,5.7123,5.2725,4.8917,4.828,4.3852,4.7752,5.2286,6.372,6.0745,4.2107,6.6654,4.0802,5.8863,6.4182,7.0729,3.0784,-0.7177
4.6205,5.9102,2.1363,4.0707,5.3062,3.9617,3.7373,2.7175,3.8551,4.8055,6.1203,5.3028,5.584,5.7286,4.5752,4.3615,3.9701,3.3585,3.9711,4.7914,6.1229,5.4635,3.4141,6.1987,3.4469,5.1325,5.7257,6.0232,2.3438,-1.9344
4.1818,5.7349,1.5345,3.9325,5.3031,3.8962,3.9823,3.1866,4.2977,4.9724,5.9875,4.8152,5.6508,5.7346,3.9612,3.9197,3.234,2.3942,3.2263,4.3875,5.8741,4.8741,2.6825,5.7788,2.9085,4.5146,5.1313,5.1654,1.6315,-3.0308
3.8214,5.6212,0.9544,3.8331,5.2737,3.7692,4.1874,3.6133,4.7643,5.1732,5.939,4.4468,5.6984,5.7225,3.4705,3.6094,2.6657,1.5647,2.6031,4.0615,5.6472,4.3575,2.0712,5.4271,2.4881,4.0429,4.6522,4.5264,0.9799,-3.9414
3.5464,5.5641,0.4208,3.7684,5.207,3.5791,4.3085,3.9632,5.2036,5.3522,5.937,4.1657,5.7015,5.6765,3.1176,3.4479,2.2828,0.9138,2.1372,3.838,5.4506,3.9452,1.6127,5.1478,2.1914,3.7073,4.2823,4.0957,0.4078,-4.6362
3.3476,5.5497,-0.0519,3.7263,5.0885,3.3297,4.3085,4.213,5.5713,5.4539,5.9387,3.9282,5.6287,5.5766,2.8929,3.427,2.0761,0.4525,1.8361,3.7207,5.2808,3.6462,1.3144,4.9282,2.008,3.4827,3.9961,3.8323,-0.0828,-5.1196
3.2041,5.5581,-0.4592,3.6886,4.9054,3.0299,4.1646,4.3534,5.8362,5.4339,5.9036,3.6876,5.4484,5.4027,2.7673,3.5171,2.015,0.1617,1.6811,3.6935,5.1257,3.4479,1.1601,4.7417,1.9144,3.3343,3.7532,3.6745,-0.5027,-5.4252
3.0874,5.5668,-0.8052,3.6334,4.6509,2.6926,3.872,4.389,5.9817,5.2652,5.7991,3.4026,5.135,5.1385,2.6995,3.6737,2.0543,-0.0003,1.6336,3.7246,4.9674,3.3209,1.1153,4.5521,1.878,3.2239,3.506,3.5518,-0.8693,-5.6066
2.9661,5.5517,-1.1028,3.5364,4.3264,2.3321,3.4438,4.334,6.0053,4.9423,5.6037,3.0431,4.6753,4.7753,2.6442,3.8452,2.1423,-0.0856,1.6446,3.7731,4.7862,3.2268,1.135,4.3211,1.8635,3.1156,3.2086,3.3981,-1.2025,-5.727
2.8102,5.4877,-1.3714,3.3733,3.941,1.9613,2.9085,4.2074,5.9143,4.4797,5.3088,2.594,4.0726,4.3149,2.5603,3.9807,2.2297,-0.1444,1.6645,3.7953,4.5638,3.1273,1.1739,4.0169,1.8405,2.9826,2.8271,3.1636,-1.519,-5.8466
2.5952,5.3505,-1.6351,3.1227,3.5095,1.5897,2.3052,4.0276,5.7222,3.9094,4.9178,2.0571,3.3498,3.7709,2.4179,4.0379,2.2758,-0.2156,1.652,3.7529,4.2866,2.9927,1.1945,3.6232,1.7893,2.8125,2.348,2.8235,-1.8294,-6.0123
2.3054,5.1185,-1.9179,2.7698,3.0496,1.222,1.6779,3.809,5.4446,3.2746,4.4457,1.4503,2.5473,3.1683,2.2015,3.9888,2.2536,-0.3217,1.5801,3.6187,3.9478,2.8076,1.1736,3.1447,1.706,2.6097,1.7832,2.3814,-2.1347,-6.2505
1.9365,4.7776,-2.2393,2.3101,2.5792,0.8596,1.0698,3.5611,5.0979,2.6247,3.9164,0.8055,1.7198,2.5404,1.9116,3.8226,2.1518,-0.4688,1.4389,3.3808,3.5494,2.5725,1.1039,2.6085,1.6025,2.3949,1.1697,1.8678,-2.4262,-6.5642
1.4973,4.3254,-2.6092,1.7523,2.1147,0.5026,0.519,3.2903,4.699,2.0088,3.3606,0.1647,0.9286,1.9244,1.5623,3.5469,1.973,-0.6502,1.2333,3.0432,3.1019,2.302,0.9929,2.0608,1.5042,2.2015,0.5636,1.3334,-2.6862,-6.9344
1.0089,3.7751,-3.0248,1.119,1.6698,0.1525,0.0563,3.0024,4.2664,1.4712,2.8128,-0.4248,0.2343,1.3557,1.1777,3.1842,1.7317,-0.8511,0.9791,2.6234,2.6224,2.0198,0.8584,1.5592,1.4446,2.0684,0.0311,0.8399,-2.8907,-7.3248
0.502,3.1561,-3.4705,0.4442,1.2545,-0.1874,-0.297,2.704,3.8206,1.047,2.308,-0.9152,-0.3109,0.8629,0.7872,2.7663,1.4491,-1.0547,0.6964,2.1474,2.1312,1.7523,0.7229,1.1626,1.4579,2.0328,-0.3627,0.4498,-3.0148,-7.69
0.0112,2.5098,-3.9215,-0.2333,0.8744,-0.5127,-0.5291,2.4039,3.3838,0.7598,1.8785,-1.2631,-0.67,0.4641,0.4192,2.3261,1.1479,-1.2459,0.4034,1.6418,1.6472,1.5223,0.6077,0.9211,1.5732,2.1238,-0.5636,0.2173,-3.0387,-7.9846
-0.4319,1.8817,-4.3502,-0.8776,0.5292,-0.821,-0.6387,2.1115,2.9791,0.6198,1.5509,-1.4342,-0.825,0.1651,0.0953,1.8887,0.8467,-1.4157,0.1109,1.1273,1.1832,1.3437,0.5282,0.8672,1.8086,2.3586,-0.5358,0.1814,-2.9543,-8.1729
-0.8066,1.31,-4.7346,-1.4647,0.2125,-1.1155,-0.6344,1.8356,2.6281,0.6243,1.3448,-1.4069,-0.7775,-0.039,-0.1745,1.4643,0.5547,-1.5628,-0.1804,0.6126,0.7426,1.2184,0.4902,1.0116,2.1679,2.7403,-0.2663,0.3623,-2.7707,-8.2365
-1.1089,0.816,-5.0648,-1.9886,-0.0882,-1.407,-0.5339,1.5821,2.3491,0.7584,1.2707,-1.1757,-0.5472,-0.1618,-0.3961,1.0439,0.2674,-1.6959,-0.4812,0.0924,0.3188,1.1351,0.4885,1.3413,2.64,3.2582,0.2341,0.7593,-2.5164,-8.1798
-1.3538,0.3977,-5.3467,-2.462,-0.3891,-1.7131,-0.3619,1.3538,2.1556,0.9982,1.3307,-0.7523,-0.1684,-0.2216,-0.5905,0.6002,-0.0332,-1.833,-0.8109,-0.4512,-0.1032,1.0707,0.5073,1.8222,3.1988,3.8888,0.9314,1.3514,-2.2377,-8.03
-1.5726,0.0305,-5.6008,-2.9124,-0.7073,-2.0539,-0.147,1.1511,2.0548,1.3144,1.5181,-0.1649,0.316,-0.2368,-0.791,0.094,-0.3758,-1.9996,-1.1938,-1.0424,-0.5419,0.9944,0.5231,2.4049,3.8072,4.5979,1.7724,2.1001,-1.9923,-7.8347
-1.805,-0.3249,-5.8568,-3.3728,-1.0548,-2.4452,0.0833,0.974,2.0481,1.6756,1.8184,0.5441,0.8604,-0.222,-1.035,-0.5146,-0.7913,-2.2228,-1.6515,-1.7027,-1.0122,0.8749,0.5105,3.0333,4.4221,5.3445,2.692,2.9537,-1.8395,-7.6537
-2.0883,-0.7103,-6.1444,-3.8702,-1.4336,-2.8913,0.3068,0.8237,2.1298,2.0523,2.2092,1.3218,1.4227,-0.1848,-1.3535,-1.2528,-1.3026,-2.5235,-2.1947,-2.4406,-1.5181,0.6886,0.4489,3.6537,5.0014,6.0848,3.621,3.8521,-1.8288,-7.5478
-2.4464,-1.1562,-6.4853,-4.4145,-1.8323,-3.3805,0.5104,0.7037,2.2871,2.4182,2.6595,2.1092,1.9696,-0.1241,-1.7613,-2.1225,-1.9143,-2.9082,-2.8158,-3.2431,-2.0477,0.4288,0.3294,4.2231,5.5106,6.778,4.4959,4.7326,-1.9897,-7.5681
-2.8815,-1.6708,-6.8849,-4.9928,-2.2261,-3.8835,0.6906,0.6189,2.4992,2.751,3.1286,2.8443,2.479,-0.0304,-2.2505,-3.0933,-2.6071,-3.364,-3.4844,-4.0723,-2.5705,0.1101,0.1591,4.7145,5.9273,7.3889,5.2654,5.5339,-2.3259,-7.7462
-3.3715,-2.2357,-7.3293,-5.5688,-2.5794,-4.3581,0.8516,0.5733,2.737,3.0315,3.5669,3.4664,2.9413,0.1117,-2.7888,-4.1026,-3.3371,-3.8583,-4.1484,-4.8676,-3.0408,-0.2311,-0.0383,5.1188,6.2425,7.8897,5.895,6.1998,-2.8149,-8.0896
-3.8722,-2.8077,-7.7858,-6.0885,-2.8523,-4.7561,1.0021,0.5678,2.9657,3.244,3.9186,3.9204,3.3574,0.321,-3.3247,-5.0631,-4.0416,-4.3436,-4.7408,-5.5536,-3.403,-0.5423,-0.2268,5.442,6.4591,8.2592,6.3678,6.6822,-3.4131,-8.5814
-4.3258,-3.3271,-8.2086,-6.4912,-3.0072,-5.0322,1.1522,0.5986,3.1489,3.3774,4.1288,4.163,3.7364,0.6148,-3.7963,-5.8774,-4.6494,-4.7664,-5.1903,-6.053,-3.6012,-0.7643,-0.3647,5.7018,6.588,8.4824,6.6829,6.9452,-4.065,-9.1848
-4.6714,-3.7293,-8.5472,-6.7212,-3.0152,-5.152,1.3116,0.658,3.2563,3.4284,4.1544,4.1696,4.0925,1.0057,-4.143,-6.4558,-5.0928,-5.0776,-5.4342,-6.3001,-3.5883,-0.8429,-0.4126,5.9217,6.6443,8.5506,6.8533,6.9703,-4.7143,-9.8496
-4.8569,-3.9578,-8.757,-6.7393,-2.8603,-5.0974,1.4896,0.7367,3.2715,3.4055,3.9763,3.9419,4.4419,1.4979,-4.3165,-6.7338,-5.3201,-5.2418,-5.43,-6.254,-3.3357,-0.7396,-0.3414,6.1269,6.6449,8.4643,6.9035,6.7623,-5.312,-10.5198
-4.8497,-3.9756,-8.8095,-6.5308,-2.5424,-4.8694,1.6969,0.8276,3.1982,3.3317,3.6094,3.5134,4.8001,2.0841,-4.2907,-6.685,-5.3057,-5.2453,-5.1641,-5.9077,-2.8404,-0.4395,-0.1364,6.3404,6.6072,8.2377,6.8683,6.3544,-5.8231,-11.1421
-4.6427,-3.773,-8.6986,-6.1087,-2.0766,-4.4865,1.9457,0.9292,3.0632,3.2452,3.108,2.9498,5.1797,2.7449,-4.0661,-6.3269,-5.054,-5.0988,-4.6555,-5.2908,-2.1276,0.0456,0.1996,6.5815,6.5505,7.9025,6.7908,5.8105,-6.2277,-11.6735
-4.2564,-3.37,-8.4427,-5.5115,-1.4912,-3.9815,2.2506,1.048,2.9148,3.1963,2.5621,2.3448,5.59,3.4502,-3.6694,-5.7171,-4.5994,-4.8356,-3.9531,-4.4654,-1.249,0.6795,0.6487,6.8649,6.4965,7.5105,6.7205,5.221,-6.5216,-12.0871
-3.7336,-2.813,-8.0828,-4.7959,-0.8225,-3.3951,2.6269,1.1987,2.8168,3.2425,2.0872,1.8097,6.0367,4.1635,-3.1476,-4.9413,-3.9984,-4.504,-3.1265,-3.5154,-0.2744,1.409,1.181,7.2014,6.4698,7.1305,6.7095,4.6943,-6.7141,-12.3759
-3.131,-2.165,-7.6744,-4.0269,-0.1091,-2.7699,3.0891,1.4027,2.8383,3.4397,1.8055,1.4572,6.5236,4.8495,-2.5572,-4.0946,-3.3184,-4.1578,-2.2529,-2.5298,0.7202,2.1754,1.7617,7.5985,6.4954,6.8394,6.8072,4.3403,-6.8264,-12.5536
-2.5074,-1.4936,-7.278,-3.266,0.6143,-2.1445,3.647,1.6828,3.0402,3.8323,1.8243,1.3831,7.0534,5.4813,-1.9531,-3.2624,-2.6236,-3.8457,-1.401,-1.5859,1.6679,2.9258,2.3567,8.0604,6.5947,6.7089,7.0532,4.2523,-6.8896,-12.6509
-1.9119,-0.8581,-6.9469,-2.5623,1.3216,-1.5484,4.3029,2.0572,3.4619,4.4439,2.2139,1.648,7.6276,6.0468,-1.3776,-2.504,-1.9635,-3.6026,-0.6188,-0.7344,2.5221,3.6239,2.9389,8.5871,6.7809,6.79,7.4698,4.4884,-6.9395,-12.7093
-1.3764,-0.3,-6.7163,-1.9456,1.9979,-0.9998,5.0482,2.5337,4.1109,5.2702,2.992,2.2659,8.2465,6.5511,-0.8545,-1.8439,-1.3649,-3.4436,0.0749,0.0072,3.2647,4.2544,3.4923,9.1734,7.0547,7.1005,8.0573,5.0598,-7.0106,-12.7713
-0.9102,0.1624,-6.5958,-1.4234,2.64,-0.5039,5.8632,3.1042,4.9578,6.2774,4.1175,3.2007,8.9081,7.015,-0.3861,-1.2716,-0.8295,-3.3615,0.6908,0.6548,3.9064,4.8242,4.0135,9.8076,7.4032,7.6199,8.7917,5.9272,-7.1279,-12.8707
-0.5007,0.5354,-6.5663,-0.9814,3.2561,-0.0533,6.7189,3.7449,5.94,7.4059,5.4957,4.3725,9.6085,7.4705,0.0452,-0.7483,-0.3368,-3.3268,1.2626,1.2504,4.4827,5.3573,4.5107,10.472,7.8009,8.2919,9.6283,7.0084,-7.2997,-13.024
-0.1173,0.8473,-6.5836,-0.5872,3.8632,0.3707,7.5821,4.4189,6.9701,8.579,6.9925,5.6723,10.3424,7.9545,0.4722,-0.2193,0.1491,-3.2907,1.8368,1.8505,5.0447,5.8878,5.0009,11.1453,8.2143,9.0348,10.5089,8.1931,-7.5133,-13.2255
0.2805,1.1419,-6.5886,-0.1961,4.4844,0.7951,8.4204,5.0816,7.9501,9.7146,8.4542,6.9783,11.1041,8.5022,0.9353,0.3728,0.6699,-3.1932,2.4593,2.513,5.6479,6.4506,5.5047,11.8051,8.6072,9.7563,11.3714,9.3607,-7.7366,-13.448
0.7331,1.4689,-6.5219,0.2385,5.1429,1.2492,9.2056,5.6875,8.7852,10.736,9.729,8.1732,11.8871,9.1406,1.473,1.0744,1.2621,-2.9743,3.164,3.2846,6.3406,7.0729,6.0399,12.4311,8.9467,10.3688,12.1584,10.3982,-7.9259,-13.6497
1.2695,1.8722,-6.34,0.7548,5.855,1.7571,9.9159,6.1965,9.3964,11.5813,10.6878,9.1581,12.6832,9.8834,2.1109,1.9095,1.9473,-2.5892,3.9634,4.1912,7.1541,7.7671,6.6159,13.0071,9.2083,10.8031,12.8253,11.2146,-8.039,-13.7859
1.8979,2.3782,-6.0273,1.3716,6.6237,2.3292,10.535,6.5782,9.7312,12.2101,11.242,9.8633,13.4804,10.7266,2.8533,2.8728,2.7249,-2.0223,4.8446,5.2313,8.0956,8.5261,7.2289,13.5209,9.3781,11.0176,13.3442,11.7514,-8.0491,-13.8216
2.6014,2.9862,-5.6009,2.0817,7.4339,2.9573,11.0515,6.8161,9.7705,12.6074,11.3576,10.2552,14.2615,11.6471,3.6781,3.9277,3.5701,-1.2953,5.7704,6.3743,9.1448,9.3229,7.8596,13.9643,9.4536,11.0023,13.7058,11.9881,-7.9544,-13.7427
3.339,3.6654,-5.1061,2.85,8.2523,3.6133,11.4596,6.9102,9.5327,12.7852,11.0621,10.3409,15.0041,12.6045,4.5384,5.0101,4.4369,-0.4675,6.6854,7.5635,10.2555,10.1132,8.4741,14.3314,9.4412,10.7789,13.9188,11.9439,-7.7804,-13.5618
4.0531,4.3585,-4.6048,3.6186,9.0323,4.2545,11.7599,6.8786,9.0733,12.7817,10.4428,10.1675,15.6829,13.5456,5.3696,6.0389,5.2662,0.3743,7.5256,8.7243,11.3621,10.8421,9.0276,14.618,9.3532,10.3953,14.0064,11.6737,-7.5742,-13.3167
4.6811,4.9929,-4.1599,4.3174,9.7224,4.8327,11.9612,6.7568,8.48,12.6562,9.6353,9.8149,16.2725,14.4114,6.1022,6.9286,5.9958,1.1327,8.2286,9.7752,12.3887,11.4531,9.4709,14.8211,9.2046,9.918,14.0015,11.2597,-7.3917,-13.0637
5.1677,5.4953,-3.8207,4.8782,10.276,5.3049,12.0813,6.5937,7.8607,12.4809,8.8022,9.3844,16.7517,15.1458,6.6734,7.6045,6.5712,1.7186,8.7434,10.6405,13.261,11.8975,9.7586,14.9387,9.0098,9.4203,13.9409,10.7968,-7.2837,-12.8655
5.4745,5.8069,-3.6145,5.2475,10.6606,5.6425,12.1448,6.4444,7.3281,12.3296,8.1062,8.9811,17.1056,15.7026,7.0382,8.0139,6.9522,2.0671,9.037,11.2614,13.9172,12.1423,9.8584,14.9709,8.782,8.9719,13.8592,10.3767,-7.2837,-12.7775
5.5848,5.8936,-3.5452,5.396,10.8631,5.8362,12.1797,6.3611,6.9809,12.2649,7.6821,8.6966,17.3282,16.0521,7.1743,8.1334,7.1166,2.1464,9.0975,11.6031,14.3159,12.1761,9.758,14.9216,8.5336,8.6281,13.7853,10.0727,-7.4015,-12.8362
5.5034,5.7508,-3.5981,5.3224,10.8906,5.8957,12.2118,6.3834,6.8872,12.3283,7.6142,8.5937,17.4226,16.1837,7.0833,7.9693,7.0593,1.9597,8.9327,11.6579,14.4403,12.0107,9.4702,14.7997,8.2779,8.4243,13.7403,9.9292,-7.6231,-13.0521
5.2517,5.4002,-3.749,5.0505,10.7672,5.8458,12.26,6.5317,7.0732,12.5336,7.9232,8.6973,17.4004,16.1065,6.7864,7.5534,6.7901,1.5406,8.568,11.4421,14.2981,11.6787,9.0322,14.6209,8.0305,8.3735,13.7375,9.9582,-7.9176,-13.4079
4.8618,4.883,-3.9725,4.6222,10.528,5.7191,12.334,6.8034,7.52,12.8671,8.5654,8.9932,17.281,15.846,6.3193,6.9339,6.3306,0.944,8.0407,10.9907,13.9175,11.2279,8.5007,14.408,7.8094,8.4687,13.7851,10.1417,-8.246,-13.8643
4.3703,4.2511,-4.2464,4.0882,10.212,5.5495,12.4328,7.175,8.1686,13.2919,9.4441,9.4344,17.0899,15.4407,5.7261,6.1668,5.7125,0.2362,7.3961,10.3501,13.3425,10.7146,7.9427,14.1894,7.6341,8.6875,13.8873,10.4397,-8.5709,-14.3679
3.8151,3.5578,-4.5524,3.4993,9.8567,5.3663,12.5477,7.6069,8.9324,13.7574,10.4291,9.9528,16.8569,14.9368,5.0541,5.3079,4.9758,-0.5149,6.6825,9.5717,12.626,10.1955,7.4248,13.9963,7.5227,8.9979,14.0461,10.8005,-8.8631,-14.8616
3.2328,2.8517,-4.8723,2.9008,9.4936,5.1911,12.6658,8.052,9.7132,14.2096,11.3819,10.4735,16.6146,14.3837,4.3508,4.4083,4.168,-1.2474,5.9486,8.7069,11.825,9.7217,7.004,13.8597,7.4893,9.3639,14.2614,11.1712,-9.1043,-15.2933
2.6584,2.1721,-5.1853,2.3289,9.1477,5.0372,12.7753,8.4648,10.4188,14.6021,12.1808,10.9305,16.3964,13.8309,3.6609,3.5121,3.3415,-1.9102,5.2398,7.8052,10.9955,9.3347,6.7205,13.8062,7.5422,9.7516,14.5309,11.5081,-9.287,-15.6223
2.124,1.5479,-5.4672,1.8107,8.8372,4.9111,12.8697,8.8088,10.9779,14.9044,12.7407,11.2785,16.2337,13.3245,3.0243,2.657,2.55,-2.4651,4.5967,6.913,10.1892,9.0635,6.5955,13.8561,7.6829,10.1331,14.851,11.784,-9.4126,-15.8239
1.6576,0.997,-5.6933,1.365,8.5758,4.8153,12.9509,9.0621,11.3504,15.1073,13.0263,11.5009,16.1538,12.9047,2.4747,1.8741,1.8434,-2.8875,4.0523,6.0727,9.4507,8.9247,6.6304,14.0207,7.9077,10.4911,15.2166,11.9928,-9.4896,-15.8897
1.2803,0.5291,-5.8445,1.0044,8.3733,4.7509,13.0287,9.2184,11.5308,15.2228,13.0539,11.6114,16.1768,12.603,2.0374,1.1891,1.2619,-3.1666,3.6294,5.3218,8.815,8.9223,6.8102,14.301,8.2083,10.8199,15.6228,12.1502,-9.531,-15.8266
1.0052,0.1475,-5.913,0.7365,8.236,4.7192,13.1177,9.2853,11.5451,15.28,12.8837,11.6492,16.3121,12.4389,1.7275,0.6217,0.8317,-3.304,3.3383,4.6906,8.3053,9.0474,7.1061,14.6868,8.573,11.1254,16.0642,12.289,-9.5509,-15.6545
0.8352,-0.1478,-5.9049,0.5649,8.1668,4.7215,13.2317,9.2799,11.442,15.3173,12.6045,11.6686,16.5566,12.4171,1.5492,0.1847,0.5621,-3.3131,3.1757,4.1988,7.9323,9.2785,7.4793,15.1559,8.9874,11.4211,16.5341,12.4512,-9.562,-15.4017
0.7643,-0.3583,-5.8389,0.4895,8.1636,4.7584,13.3786,9.2233,11.2801,15.3728,12.3137,11.7252,16.8937,12.5264,1.4957,-0.1168,0.4458,-3.2161,3.1245,3.8538,7.6933,9.5825,7.8843,15.6754,9.4337,11.7225,17.0227,12.6769,-9.5723,-15.1014
0.7794,-0.486,-5.7395,0.5061,8.2193,4.8288,13.5559,9.1362,11.1149,15.4752,12.0961,11.8629,17.2943,12.7409,1.5511,-0.2863,0.4616,-3.0398,3.1573,3.6491,7.5741,9.9173,8.2733,16.2045,9.8901,12.0399,17.5144,12.9924,-9.5831,-14.7858
0.8635,-0.5332,-5.6284,0.6057,8.3216,4.9287,13.7501,9.0344,10.9872,15.6364,12.0074,12.1024,17.72,13.0233,1.6931,-0.3345,0.5793,-2.8111,3.2409,3.566,7.5514,10.2366,8.6012,16.6982,10.3308,12.3729,17.9864,13.4013,-9.5885,-14.4809
0.9992,-0.5034,-5.5174,0.7746,8.4538,5.0514,13.9377,8.9275,10.9166,15.8487,12.0644,12.4355,18.1274,13.33,1.8969,-0.2783,0.7663,-2.5527,3.3429,3.5764,7.596,10.4961,8.8314,17.1134,10.728,12.7075,18.4095,13.8806,-9.5746,-14.2016
1.1707,-0.4021,-5.4055,0.9944,8.5956,5.1879,14.0894,8.8183,10.8996,16.0857,12.2438,12.8258,18.4733,13.6168,2.138,-0.1389,0.9929,-2.2808,3.4366,3.6476,7.6766,10.6591,8.9408,17.414,11.0545,13.0167,18.7494,14.3821,-9.5216,-13.9482
1.3646,-0.2386,-5.2802,1.2426,8.7242,5.3272,14.1742,8.7041,10.9139,16.3066,12.4896,13.2147,18.719,13.8428,2.394,0.0604,1.2357,-2.006,3.5044,3.7459,7.7625,10.7021,8.9227,17.575,11.2872,13.2657,18.9713,14.84,-9.4062,-13.7075
1.5687,-0.0266,-5.1243,1.4935,8.8154,5.4561,14.164,8.5783,10.9248,16.4644,12.726,13.5326,18.8339,13.9739,2.6446,0.2954,1.4783,-1.7358,3.5372,3.8405,7.8251,10.6168,8.7872,17.5841,11.4094,13.4168,19.0439,15.1815,-9.2053,-13.4563
1.7705,0.215,-4.9236,1.7198,8.8454,5.5589,14.0374,8.4329,10.8953,16.5135,12.874,13.7108,18.7978,13.9848,2.8718,0.5423,1.7102,-1.478,3.5337,3.9057,7.8398,10.4103,8.5579,17.4416,11.413,13.4369,18.9439,15.3401,-8.9016,-13.1684
1.9565,0.4627,-4.6738,1.8953,8.7931,5.6187,13.7839,8.2613,10.7943,16.4194,12.8669,13.6954,18.6025,13.8608,3.06,0.7797,1.9252,-1.2411,3.4975,3.923,7.7878,10.1026,8.2671,17.1583,11.2991,13.3035,18.6611,15.2668,-8.4874,-12.8205
2.1123,0.6905,-4.3849,1.9974,8.6439,5.6201,13.4064,8.0601,10.6042,16.165,12.6639,13.4574,18.2537,13.6001,3.1981,0.9902,2.1201,-1.0336,3.4363,3.8826,7.6582,9.724,7.9507,16.7538,11.0772,13.0096,18.2012,14.9405,-7.9699,-12.3971
2.2249,0.8738,-4.0804,2.0103,8.3933,5.552,12.9232,7.8314,10.3252,15.7561,12.2581,12.9994,17.7717,13.215,3.2808,1.1628,2.2949,-0.8611,3.3608,3.7844,7.4512,9.311,7.6425,16.2545,10.7655,12.5663,17.5888,14.3721,-7.3725,-11.8934
2.2846,0.9932,-3.794,1.9276,8.05,5.4121,12.3669,7.5839,9.9754,15.2208,11.6778,12.3567,17.1905,12.7318,3.3106,1.2927,2.4526,-0.7236,3.2837,3.6363,7.1781,8.9025,7.3712,15.6922,10.389,12.003,16.8665,13.6053,-6.7342,-11.3155
2.2871,1.0377,-3.5618,1.7526,7.6349,5.2082,11.7801,7.3318,9.5867,14.6055,10.9813,11.5917,16.5546,12.1881,3.2969,1.38,2.5974,-0.6154,3.218,3.4516,6.8601,8.5357,7.1581,15.1029,9.9781,11.3645,16.0911,12.7103,-6.1039,-10.6805
2.2336,1.0059,-3.4147,1.4975,7.1779,4.9572,11.2081,7.0928,9.1973,13.9665,10.2454,10.7837,15.9128,11.6274,3.2529,1.4261,2.7327,-0.5259,3.1732,3.2439,6.5227,8.241,7.0158,14.5239,9.5657,10.7053,15.3271,11.7736,-5.5314,-10.0139
2.1295,0.9045,-3.3719,1.1818,6.7118,4.6821,10.6908,6.8845,8.8437,13.3598,9.5513,10.0148,15.311,11.0912,3.1916,1.4305,2.8567,-0.4424,3.1517,3.0227,6.1898,8.0372,6.9482,13.9905,9.1831,10.0821,14.6369,10.8847,-5.058,-9.3472
1.9823,0.7462,-3.4383,0.8288,6.2662,4.4069,10.2559,6.7202,8.5534,12.8309,8.9692,9.3563,14.7853,10.6128,3.122,1.3884,2.9605,-0.354,3.1464,2.7915,5.8774,7.9284,6.9499,13.5321,8.8563,9.546,14.0717,10.1214,-4.7095,-8.714
1.7995,0.5463,-3.6056,0.4633,5.8625,4.1522,9.9151,6.6058,8.34,12.4083,8.5467,8.8578,14.3572,10.2118,3.0462,1.2915,3.0275,-0.255,3.1407,2.5469,5.5908,7.9027,7.0064,13.1679,8.6023,9.1351,13.663,9.5389,-4.4953,-8.147
1.5863,0.3201,-3.8572,0.1085,5.5119,3.9316,9.6646,6.5371,8.2027,12.0997,8.3016,8.5405,14.032,9.8925,2.959,1.1297,3.0356,-0.148,3.1109,2.2812,5.325,7.9346,7.0951,12.9047,8.4278,8.8691,13.4191,9.1621,-4.411,-7.6754
1.3461,0.0814,-4.1728,-0.2165,5.2152,3.7495,9.4881,6.5004,8.1281,11.8931,8.2211,8.3971,13.8003,9.6462,2.8498,0.8964,2.9624,-0.0459,3.0318,1.9865,5.068,7.9905,7.1885,12.736,8.3289,8.7473,13.3246,8.9845,-4.4443,-7.3236
1.0822,-0.1577,-4.531,-0.4978,4.9662,3.6019,9.3622,6.4746,8.0937,11.7612,8.2658,8.3956,13.6424,9.4558,2.7065,0.5918,2.7925,0.0304,2.8831,1.6595,4.8071,8.0359,7.258,12.6446,8.2938,8.75,13.3454,8.9726,-4.5789,-7.1078
0.8002,-0.3869,-4.9093,-0.7269,4.7557,3.4793,9.2621,6.4354,8.0729,11.6683,8.3788,8.4878,13.5344,9.3026,2.5209,0.2273,2.5249,0.0567,2.656,1.3059,4.5354,8.043,7.2799,12.6065,8.3052,8.8427,13.4358,9.0742,-4.797,-7.034
0.511,-0.5965,-5.2832,-0.8994,4.5762,3.3697,9.1659,6.3601,8.0392,11.5777,8.496,8.6181,13.4543,9.1732,2.2938,-0.1738,2.1775,0.0137,2.3573,0.943,4.2566,7.9965,7.2401,12.5963,8.3439,8.9829,13.5476,9.2288,-5.0789,-7.0945
0.2319,-0.7773,-5.6258,-1.0143,4.4248,3.2632,9.0586,6.2322,7.9697,11.4584,8.557,8.7323,13.3873,9.0633,2.0381,-0.5777,1.7871,-0.1061,2.0099,0.5984,3.9871,7.8957,7.1366,12.5924,8.3914,9.1269,13.6379,9.3769,-5.4022,-7.2677
-0.0156,-0.9206,-5.9104,-1.0724,4.3047,3.1536,8.9337,6.0442,7.8476,11.2909,8.5147,8.7858,13.3281,8.9796,1.7774,-0.9453,1.4036,-0.2932,1.6488,0.3061,3.7529,7.7531,6.98,12.5806,8.4321,9.2364,13.6752,9.4685,-5.7409,-7.5207
-0.2099,-1.0192,-6.1147,-1.0768,4.223,3.0392,8.7926,5.7992,7.6645,11.0694,8.3425,8.748,13.2814,8.9372,1.5416,-1.2396,1.0786,-0.5227,1.3132,0.0983,3.5843,7.5892,6.7896,12.5549,8.4547,9.2834,13.6422,9.4686,-6.0665,-7.8158
-0.3345,-1.0691,-6.2271,-1.0329,4.1875,2.9225,8.644,5.5101,7.4218,10.8027,8.0378,8.6063,13.2591,8.9545,1.3587,-1.4339,0.853,-0.7603,1.0363,-0.0025,3.5073,7.4266,6.589,12.5167,8.4529,9.253,13.5368,9.3607,-6.3514,-8.117
-0.3836,-1.0711,-6.2507,-0.9488,4.2034,2.8091,8.501,5.1975,7.1312,10.5124,7.6226,8.3671,13.2764,9.0477,1.2472,-1.5188,0.7457,-0.9727,0.8371,0.0095,3.537,7.2839,6.4004,12.4722,8.4251,9.1444,13.3704,9.1474,-6.5725,-8.3968
-0.3637,-1.0307,-6.2042,-0.8336,4.2712,2.7065,8.3798,4.8868,6.8152,10.2291,7.1403,8.0544,13.348,9.2265,1.2109,-1.5037,0.7484,-1.1367,0.7162,0.121,3.6734,7.1724,6.2402,12.4305,8.3749,8.9696,13.1647,8.8496,-6.7153,-8.6392
-0.2917,-0.9569,-6.1172,-0.6958,4.3876,2.6245,8.2973,4.6054,6.5052,9.9891,6.6497,7.7072,13.4858,9.4921,1.2382,-1.4142,0.8283,-1.2451,0.6577,0.303,3.9023,7.0963,6.1179,12.4014,8.3094,8.7522,12.9482,8.5027,-6.7757,-8.8399
-0.1892,-0.8585,-6.0229,-0.5396,4.5476,2.5754,8.2705,4.3797,6.2389,9.8283,6.216,7.3735,13.6973,9.8384,1.3069,-1.2837,0.9377,-1.307,0.6353,0.5194,4.1997,7.0553,6.0363,12.3952,8.2392,8.5228,12.7526,8.1519,-6.7592,-9.0041
-0.076,-0.7403,-5.949,-0.3624,4.7478,2.5739,8.3147,4.2327,6.0548,9.7778,5.9015,7.104,13.9852,10.255,1.3916,-1.1432,1.0274,-1.343,0.6229,0.7371,4.5395,7.0482,5.9941,12.4227,8.1769,8.315,12.6084,7.8454,-6.6801,-9.1426
0.0361,-0.6014,-5.9112,-0.1545,4.9884,2.6357,8.4416,4.1809,5.9855,9.8581,5.7549,6.944,14.3468,10.7296,1.4714,-1.0126,1.0605,-1.3785,0.6026,0.9354,4.8996,7.0769,5.9889,12.4938,8.1354,8.1603,12.5417,7.6272,-6.559,-9.2686
0.1457,-0.4354,-5.9098,0.0979,5.2719,2.7747,8.6559,4.2325,6.0509,10.0747,5.8024,6.9269,14.7726,11.2495,1.5354,-0.895,1.0208,-1.4352,0.5714,1.1114,5.2667,7.1472,6.0201,12.6172,8.1264,8.0834,12.5709,7.5316,-6.4202,-9.3942
0.2607,-0.2348,-5.9307,0.4072,5.6006,2.9989,8.953,4.3847,6.2531,10.4158,6.0429,7.0677,15.2462,11.8025,1.5847,-0.7773,0.9163,-1.5251,0.5414,1.2786,5.6374,7.2688,6.0898,12.7983,8.1581,8.0978,12.7046,7.5777,-6.2886,-9.5284
0.3946,0.0041,-5.949,0.7784,5.9728,3.3072,9.3164,4.6231,6.5734,10.8521,6.4467,7.3605,15.7445,12.3753,1.6307,-0.6351,0.776,-1.6469,0.5368,1.4618,6.0159,7.4529,6.2032,13.0366,8.2333,8.2028,12.9399,7.7665,-6.185,-9.675
0.561,0.2759,-5.9345,1.2043,6.3801,3.6873,9.7179,4.9227,6.9736,11.3392,6.9591,7.7773,16.2384,12.9524,1.6915,-0.4404,0.6429,-1.7844,0.5873,1.6879,6.4092,7.7088,6.3682,13.3249,8.3479,8.3826,13.2615,8.0797,-6.121,-9.8302
0.7697,0.5651,-5.8572,1.6643,6.8067,4.1165,10.1195,5.2501,7.4015,11.8226,7.5081,8.2701,16.6955,13.5146,1.7871,-0.171,0.5647,-1.9078,0.7207,1.9774,6.822,8.0403,6.5921,13.6472,8.4898,8.6065,13.642,8.4808,-6.0944,-9.9814
1.0222,0.8477,-5.6939,2.1267,7.2296,4.5631,10.478,5.5683,7.7976,12.2435,8.0141,8.7767,17.0825,14.039,1.9342,0.1834,0.5838,-1.979,0.9559,2.3368,7.2516,8.4436,6.8792,13.9797,8.6402,8.8326,14.0431,8.9183,-6.0876,-10.1074
1.3105,1.0956,-5.4345,2.5531,7.6217,4.9902,10.7502,5.8406,8.1048,12.546,8.4013,9.2279,17.3669,14.4984,2.1413,0.6164,0.7291,-1.9608,1.2972,2.7554,7.6851,8.9043,7.2266,14.2921,8.7754,9.0139,14.4189,9.3323,-6.0712,-10.1829
1.6165,1.2823,-5.0862,2.9056,7.9537,5.3596,10.8989,6.0356,8.2763,12.6832,8.6072,9.557,17.5195,14.8635,2.4046,1.1047,1.0084,-1.8274,1.7315,3.2061,8.0994,9.398,7.6221,14.5508,8.8702,9.1055,14.7205,9.6613,-6.0114,-10.1846
1.9137,1.3884,-4.6754,3.1527,8.1982,5.636,10.8975,6.1302,8.2828,12.6241,8.5916,9.7094,17.5164,15.1054,2.7063,1.611,1.4049,-1.5742,2.2279,3.6498,8.4638,9.891,8.0435,14.7223,8.9021,9.0726,14.903,9.8515,-5.8795,-10.0993
2.1707,1.405,-4.2454,3.2749,8.3333,5.792,10.7338,6.112,8.1163,12.3579,8.3418,9.651,17.3419,15.1994,3.0155,2.0898,1.8783,-1.2225,2.7419,4.0421,8.7447,10.3442,8.4611,14.7782,8.8552,8.8965,14.9317,9.8636,-5.66,-9.9284
2.3562,1.3349,-3.8501,3.2685,8.3469,5.8129,10.4125,5.9807,7.7914,11.897,7.8745,9.3734,16.9918,15.1302,3.2933,2.495,2.371,-0.8167,3.2217,4.3419,8.9121,10.7186,8.8418,14.6993,8.7225,8.5789,14.7879,9.679,-5.3556,-9.6901
2.4449,1.1918,-3.5442,3.1457,8.2395,5.6994,9.9546,5.7469,7.3424,11.2766,7.2335,8.8959,16.4765,14.8961,3.5006,2.7882,2.8191,-0.415,3.6172,4.5188,8.9465,10.9818,9.1557,14.4801,8.5078,8.142,14.4731,9.3032,-4.9871,-9.4162
2.4224,0.997,-3.3728,2.933,8.0261,5.4691,9.3962,5.4317,6.8184,10.5506,6.4845,8.2623,15.8231,14.5119,3.6064,2.9458,3.1643,-0.0757,3.8887,4.5587,8.8442,11.1138,9.3807,14.131,8.2258,7.6259,14.0091,8.7649,-4.5885,-9.1464
2.2895,0.7764,-3.3613,2.6665,7.7355,5.1542,8.7848,5.0629,6.276,9.7857,5.7055,7.535,15.0753,14.0097,3.5957,2.9636,3.366,0.1556,4.0143,4.4671,8.62,11.1105,9.5068,13.6786,7.8992,7.0815,13.4358,8.1124,-4.2003,-8.9206
2.0637,0.5564,-3.5097,2.3858,7.4065,4.7969,8.1737,4.6724,5.7703,9.052,4.9761,6.7853,14.2903,13.4363,3.4731,2.8582,3.4085,0.2557,3.9935,4.2684,8.3063,10.9851,9.5364,13.1629,7.5564,6.5631,12.8058,7.407,-3.8616,-8.7706
1.7764,0.3607,-3.7919,2.1277,7.0815,4.4431,7.6156,4.2912,5.3477,8.4141,4.3662,6.084,13.5331,12.8476,3.2626,2.6633,3.3037,0.227,3.8466,4.0016,7.9484,10.7654,9.4832,12.6331,7.2268,6.1196,12.1782,6.7147,-3.6039,-8.7152
1.4676,0.207,-4.1618,1.92,6.7986,4.1338,7.1557,3.9452,5.0389,7.922,3.9259,5.4925,12.8677,12.301,3.002,2.4226,3.0863,0.094,3.6098,3.7131,7.5965,10.489,9.3688,12.1401,6.9378,5.7884,11.61,6.097,-3.4471,-8.7577
1.1774,0.1035,-4.5647,1.7768,6.5841,3.8979,6.8243,3.6506,4.855,7.6036,3.6786,5.0557,12.3484,11.8464,2.7343,2.1805,2.8065,-0.1042,3.3282,3.4478,7.2961,10.1974,9.2189,11.7307,6.7121,5.591,11.1498,5.6038,-3.3983,-8.8895
0.938,0.0473,-4.9502,1.6974,6.4471,3.7464,6.6322,3.4119,4.7868,7.4621,3.6187,4.7975,12.0119,11.5203,2.4999,1.9731,2.5192,-0.3235,3.0477,3.2416,7.0808,9.9303,9.0609,11.4413,6.5657,5.5323,10.8315,5.2673,-3.4522,-9.0936
0.7686,0.0255,-5.2819,1.6684,6.3802,3.6727,6.5698,3.2213,4.8075,7.4759,3.7147,4.7199,11.874,11.3423,2.3295,1.8244,2.2758,-0.5226,2.8098,3.1169,6.9682,9.7227,8.9226,11.295,6.5086,5.602,10.6722,5.0997,-3.5929,-9.349
0.6749,0.0201,-5.5421,1.6698,6.3648,3.6564,6.6104,3.062,4.8784,7.6051,3.9167,4.8048,11.9292,11.3162,2.2427,1.7454,2.1187,-0.6668,2.6487,3.0831,6.9613,9.6034,8.8333,11.3008,6.5447,5.7788,10.6722,5.0934,-3.7951,-9.6308
0.6533,0.0152,-5.7283,1.683,6.3796,3.6716,6.7167,2.9128,4.9566,7.7998,4.1663,5.0192,12.1546,11.4347,2.2489,1.7387,2.0784,-0.7299,2.5908,3.1397,7.0531,9.5944,8.8232,11.4544,6.6728,6.0346,10.8168,5.2243,-4.0252,-9.9094
0.697,0.0044,-5.8456,1.6972,6.4089,3.6968,6.8502,2.7549,5.0036,8.0104,4.4079,5.3212,12.5161,11.6833,2.3508,1.803,2.1733,-0.6931,2.6546,3.2811,7.2324,9.711,8.9212,11.7402,6.8862,6.3396,11.0803,5.4567,-4.2432,-10.1498
0.8017,-0.0049,-5.8971,1.7144,6.4489,3.7209,6.9787,2.5761,4.9914,8.1959,4.5975,5.6671,12.9739,12.0447,2.5469,1.9379,2.4107,-0.5454,2.8512,3.5007,7.4891,9.9598,9.1508,12.134,7.1735,6.6659,11.43,5.7495,-4.4051,-10.3128
0.9691,0.0087,-5.8773,1.7481,6.5082,3.7466,7.0815,2.3744,4.9054,8.3286,4.7071,6.0164,13.4875,12.4991,2.8335,2.1451,2.787,-0.2841,3.1834,3.7921,7.8152,10.3374,9.5247,12.6046,7.5178,6.9897,11.8292,6.0622,-4.4677,-10.3599
1.2055,0.0758,-5.7708,1.8202,6.604,3.7879,7.1503,2.1563,4.7438,8.3945,4.7256,6.3356,14.0183,13.0243,3.2036,2.427,3.2891,0.0834,3.6442,4.1491,8.2041,10.8285,10.0394,13.1165,7.8982,7.2928,12.2412,6.36,-4.3943,-10.2609
1.5177,0.2274,-5.5574,1.953,6.755,3.8644,7.1869,1.9344,4.5151,8.3903,4.6547,6.5993,14.5309,13.5937,3.6452,2.7829,3.894,0.5385,4.2141,4.5626,8.6471,11.4046,10.6721,13.6314,8.29,7.5617,12.6302,6.6174,-4.1619,-10.0017
1.9068,0.4856,-5.2201,2.1626,6.9734,3.9937,7.1983,1.7222,4.2332,8.3191,4.5035,6.7899,14.9932,14.1758,4.1388,3.2047,4.5689,1.0513,4.8599,5.018,9.1295,12.0253,11.3805,14.1106,8.6663,7.786,12.9635,6.8178,-3.7681,-9.5899
2.3627,0.8551,-4.7551,2.4518,7.2588,4.1847,7.1917,1.5308,3.9143,8.1856,4.2835,6.8968,15.3764,14.7348,4.6569,3.6731,5.2716,1.5843,5.5351,5.4932,9.6287,12.6402,12.1061,14.5164,8.9987,7.9564,13.2124,6.9526,-3.234,-9.0562
2.8616,1.3202,-4.1774,2.8074,7.5948,4.4334,7.1703,1.3659,3.5742,7.9941,4.0053,6.9145,15.6556,15.2332,5.1647,4.1571,5.9527,2.097,6.1836,5.9587,10.1142,13.1947,12.7816,14.8141,9.2585,8.0623,13.3526,7.0173,-2.6029,-8.4498
3.3668,1.8453,-3.5229,3.2004,7.9498,4.7222,7.1317,1.2286,3.2277,7.7477,3.6781,6.8421,15.8107,15.6344,5.6237,4.6165,6.5606,2.5525,6.7469,6.3804,10.5501,13.6358,13.34,14.9737,9.4185,8.0912,13.3655,7.0086,-1.9342,-7.8299
3.8334,2.3805,-2.8448,3.5912,8.2822,5.0222,7.0679,1.1165,2.889,7.4502,3.3118,6.6823,15.8275,15.9066,5.997,5.0076,7.0477,2.9227,7.1721,6.7229,10.8987,13.919,13.7249,14.9724,9.4552,8.0297,13.2394,6.9223,-1.2937,-7.2538
4.214,2.8691,-2.208,3.9351,8.5472,5.2986,6.9676,1.026,2.5731,7.1082,2.9197,6.4424,15.6981,16.0242,6.2536,5.2891,7.377,3.1904,7.4204,6.9544,11.1254,14.0135,13.8988,14.7966,9.3521,7.8661,12.9707,6.7543,-0.7424,-6.7666
4.4658,3.2556,-1.6791,4.1904,8.7043,5.517,6.8189,0.9554,2.2969,6.7327,2.5213,6.1345,15.4208,15.9695,6.3721,5.429,7.5272,3.3489,7.4722,7.049,11.201,13.9055,13.8481,14.4438,9.102,7.5943,12.5643,6.5024,-0.3273,-6.3942
4.5555,3.4924,-1.3171,4.3244,8.7242,5.6485,6.6116,0.9056,2.0791,6.3399,2.142,5.7767,14.9994,15.7322,6.3422,5.4082,7.4936,3.3998,7.328,6.989,11.1049,13.5987,13.5836,13.9233,8.71,7.2172,12.0344,6.1689,-0.0737,-6.1403
4.4637,3.5448,-1.1634,4.3168,8.5916,5.6735,6.3396,0.8804,1.9385,5.9487,1.8109,5.3914,14.4416,15.3094,6.1637,5.2219,7.287,3.3489,7.0061,6.7648,10.8255,13.112,13.1371,13.2558,8.1934,6.7487,11.4026,5.7633,0.0168,-5.9891
4.1865,3.3939,-1.2339,4.1607,8.305,5.5814,6.0002,0.8848,1.8899,5.5771,1.5553,5.0028,13.7576,14.7046,5.8448,4.8778,6.9288,3.2037,6.5368,6.3739,10.3611,12.4752,12.5539,12.4707,7.5808,6.2127,10.6964,5.3023,-0.0356,-5.9114
3.7352,3.038,-1.517,3.8602,7.8734,5.3694,5.5936,0.9212,1.9387,5.2373,1.3935,4.6329,12.9591,13.9279,5.3997,4.3934,6.4463,2.9718,5.9554,5.8207,9.719,11.7237,11.8841,11.6024,6.9085,5.6407,9.9454,4.8085,-0.1955,-5.8752
3.1347,2.4918,-1.975,3.4266,7.3118,5.04,5.1214,0.9867,2.0765,4.9323,1.3295,4.2973,12.0595,12.996,4.8461,3.7914,5.8673,2.6609,5.2957,5.1159,8.9155,10.8927,11.1733,10.6862,6.2163,5.0673,9.1785,4.307,-0.4213,-5.8543
2.4186,1.7836,-2.5525,2.8749,6.6368,4.5983,4.5855,1.0701,2.2786,4.6536,1.3496,4.0028,11.0739,11.932,4.2037,3.0966,5.2167,2.2795,4.5856,4.2768,7.9746,10.0136,10.4554,9.7548,5.5428,4.5248,8.421,3.8223,-0.6747,-5.8357
1.6243,0.9507,-3.1877,2.2202,5.8638,4.0511,3.9888,1.1523,2.5065,4.3836,1.4241,3.7473,10.0209,10.765,3.4925,2.3322,4.5148,1.8374,3.8445,3.3266,6.926,9.1106,9.7495,8.8361,4.9218,4.0396,7.693,3.3747,-0.9291,-5.8232
0.7874,0.0329,-3.8249,1.4766,5.0065,3.4065,3.3365,1.2085,2.7135,4.0998,1.5136,3.5228,8.9237,9.5293,2.7313,1.5177,3.777,1.3451,3.0829,2.2934,5.8025,8.2004,9.0599,7.9527,4.3794,3.63,7.0099,2.9795,-1.1744,-5.8347
-0.062,-0.9323,-4.4232,0.6583,4.0783,2.6754,2.6388,1.2132,2.8539,3.7814,1.5781,3.3195,7.811,8.2625,1.9376,0.6682,3.0148,0.8136,2.3051,1.2078,4.6377,7.2935,8.38,7.1221,3.9328,3.3062,6.383,2.6475,-1.4164,-5.8965
-0.9007,-1.9119,-4.9609,-0.2179,3.0956,1.8744,1.9125,1.1453,2.8926,3.416,1.5862,3.13,6.7175,7.0043,1.1285,-0.2042,2.2384,0.2545,1.5123,0.1021,3.4646,6.3965,7.6996,6.358,3.5894,3.0712,5.8219,2.3858,-1.6711,-6.0333
-1.7105,-2.8758,-5.4344,-1.1284,2.0818,1.0286,1.1815,0.9939,2.8125,3.0041,1.5219,2.952,5.6826,5.7948,0.3222,-1.0869,1.4605,-0.3194,0.7083,-0.991,2.3156,5.5168,7.0119,5.6716,3.3472,2.9218,5.3349,2.1985,-1.9556,-6.2583
-2.4749,-3.794,-5.8519,-2.0403,1.0693,0.1735,0.4753,0.7607,2.6176,2.5598,1.3871,2.7877,4.7466,4.6726,-0.4594,-1.9624,0.6989,-0.8924,-0.0968,-2.038,1.2231,4.6643,6.3189,5.0712,3.1948,2.8485,4.9289,2.086,-2.2787,-6.5669
-3.1763,-4.6344,-6.2255,-2.9123,0.0998,-0.6461,-0.1756,0.4599,2.3303,2.1071,1.1977,2.6415,3.9459,3.6718,-1.1911,-2.8062,-0.0225,-1.4463,-0.8839,-3.0047,0.2193,3.8532,5.6327,4.5612,3.113,2.8351,4.6079,2.0434,-2.6343,-6.9355
-3.7945,-5.3637,-6.5611,-3.6983,-0.7807,-1.3811,-0.7451,0.1147,1.9846,1.6741,0.9768,2.5168,3.306,2.8188,-1.8458,-3.5877,-0.6756,-1.9615,-1.6261,-3.8586,-0.666,3.1005,4.9734,4.1399,3.0763,2.8581,4.3703,2.0591,-2.9994,-7.3258
-4.3082,-5.9506,-6.8527,-4.3552,-1.5287,-1.9851,-1.2167,-0.2469,1.6174,1.2858,0.747,2.4128,2.8361,2.1284,-2.398,-4.2735,-1.2317,-2.4189,-2.2929,-4.5714,-1.4086,2.4229,4.3635,3.7981,3.0565,2.8891,4.2069,2.1144,-3.3374,-7.6932
-4.6971,-6.3707,-7.0793,-4.8502,-2.111,-2.423,-1.5865,-0.5972,1.2604,0.9587,0.5236,2.3231,2.5268,1.601,-2.8285,-4.8339,-1.6669,-2.802,-2.8553,-5.1237,-1.9943,1.834,3.8227,3.5198,3.0261,2.8976,4.101,2.185,-3.6055,-7.9961
-4.9465,-6.6119,-7.2092,-5.1674,-2.5116,-2.677,-1.8632,-0.9125,0.9348,0.6978,0.3128,2.237,2.3508,1.2229,-3.127,-5.248,-1.9667,-3.0977,-3.2917,-5.5072,-2.421,1.3422,3.3641,3.2845,2.9636,2.8567,4.0303,2.2446,-3.7633,-8.2037
-5.0505,-6.6764,-7.2087,-5.3105,-2.7345,-2.7506,-2.0652,-1.1759,0.65,0.4973,0.1118,2.1412,2.2685,0.9686,-3.2938,-5.5076,-2.1286,-3.2974,-3.5917,-5.7269,-2.7,0.95,2.993,3.0719,2.8567,2.7477,3.9704,2.2686,-3.7811,-8.3017
-5.0146,-6.5806,-7.0531,-5.3007,-2.8022,-2.6678,-2.2156,-1.3787,0.4054,0.3429,-0.0883,2.0235,2.2361,0.8067,-3.3396,-5.6181,-2.1623,-3.3975,-3.7567,-5.7999,-2.853,0.6554,2.7082,2.8663,2.7043,2.5637,3.8989,2.2382,-3.6462,-8.2939
-4.8558,-6.3527,-6.737,-5.1718,-2.7512,-2.4685,-2.3367,-1.5203,0.1936,0.2164,-0.2979,1.8751,2.2139,0.7059,-3.2831,-5.597,-2.0872,-3.4004,-3.7991,-5.7525,-2.9086,0.4533,2.5048,2.6597,2.5164,2.3105,3.7989,2.1431,-3.3638,-8.2002
-4.6017,-6.0288,-6.2801,-4.9638,-2.6248,-2.2023,-2.4466,-1.6074,0.0042,0.0992,-0.5265,1.6921,2.1728,0.6405,-3.1486,-5.4703,-1.9286,-3.3158,-3.7386,-5.6166,-2.897,0.3369,2.377,2.4529,2.3107,2.0046,3.66,1.9815,-2.9561,-8.052
-4.2874,-5.6487,-5.7268,-4.7165,-2.4656,-1.9203,-2.5568,-1.6524,-0.1729,-0.0242,-0.7803,1.4748,2.0973,0.5934,-2.9631,-5.2686,-1.7127,-3.1617,-3.5985,-5.4251,-2.8467,0.2991,2.3197,2.2537,2.1086,1.668,3.4786,1.7584,-2.457,-7.8848
-3.9519,-5.2528,-5.1392,-4.4648,-2.31,-1.6678,-2.6719,-1.6706,-0.3452,-0.1646,-1.0609,1.2268,1.985,0.5558,-2.7532,-5.0232,-1.4638,-2.9623,-3.4031,-5.209,-2.7815,0.3316,2.3291,2.0728,1.9296,1.3233,3.257,1.4835,-1.907,-7.7304
-3.6333,-4.8797,-4.5859,-4.2371,-2.1843,-1.4786,-2.7918,-1.6775,-0.5164,-0.3276,-1.365,0.954,1.8428,0.5246,-2.5436,-4.7631,-1.2023,-2.7458,-3.1752,-4.9946,-2.7194,0.425,2.4011,1.9201,1.7879,0.9886,3.0012,1.168,-1.3479,-7.6104
-3.3645,-4.5634,-4.1276,-4.0536,-2.1038,-1.3721,-2.9139,-1.6863,-0.686,-0.5142,-1.6847,0.6633,1.6813,0.499,-2.3552,-4.5131,-0.944,-2.5396,-2.9353,-4.802,-2.6728,0.5666,2.529,1.8005,1.6901,0.6752,2.7191,0.8234,-0.8184,-7.5317
-3.1688,-4.3303,-3.8052,-3.9265,-2.0738,-1.352,-3.036,-1.7061,-0.8503,-0.7215,-2.0082,0.3629,1.51,0.477,-2.2026,-4.2917,-0.7001,-2.3654,-2.7013,-4.6436,-2.6487,0.7405,2.7004,1.7123,1.6347,0.3881,2.4198,0.4611,-0.3497,-7.4859
-3.0565,-4.1958,-3.6322,-3.859,-2.0909,-1.4087,-3.1581,-1.7414,-1.0032,-0.9436,-2.3207,0.0626,1.3338,0.4532,-2.0934,-4.1094,-0.4774,-2.2349,-2.4877,-4.5241,-2.6489,0.9272,2.896,1.6481,1.6138,0.1285,2.1124,0.0929,0.0386,-7.4511
-3.0239,-4.1616,-3.5936,-3.8454,-2.1459,-1.5226,-3.2836,-1.7932,-1.1381,-1.1731,-2.6057,-0.2269,1.1517,0.42,-2.0263,-3.9674,-0.2786,-2.147,-2.3049,-4.4396,-2.6705,1.1065,3.0904,1.597,1.6169,-0.1026,1.8064,-0.2678,0.3405,-7.3966
-3.0546,-4.2144,-3.6525,-3.8719,-2.2261,-1.6687,-3.4184,-1.8597,-1.2488,-1.4019,-2.8466,-0.4939,0.9582,0.3685,-1.9922,-3.8578,-0.1041,-2.0875,-2.159,-4.3794,-2.706,1.2596,3.2554,1.5482,1.6332,-0.3016,1.5112,-0.6063,0.5644,-7.2891
-3.1238,-4.3291,-3.7598,-3.9192,-2.3174,-1.8211,-3.5698,-1.9376,-1.3311,-1.6229,-3.0289,-0.7284,0.7453,0.2918,-1.9758,-3.7656,0.0476,-2.0323,-2.0514,-4.3282,-2.7449,1.3731,3.3655,1.4934,1.6551,-0.4619,1.2354,-0.9081,0.7301,-7.0986
-3.2041,-4.4742,-3.8669,-3.9664,-2.407,-1.9575,-3.7446,-2.0238,-1.3837,-1.8307,-3.1428,-0.9235,0.5056,0.1858,-1.96,-3.6729,0.179,-1.9539,-1.9789,-4.2697,-2.7762,1.4406,3.4028,1.4286,1.679,-0.5763,0.9854,-1.1619,0.8643,-6.8042
-3.2719,-4.6193,-3.9356,-3.996,-2.4848,-2.0623,-3.9469,-2.1152,-1.409,-2.0233,-3.1865,-1.0781,0.2343,0.0511,-1.9297,-3.5628,0.2938,-1.8293,-1.9346,-4.1905,-2.7907,1.4637,3.3611,1.3536,1.7046,-0.6401,0.7635,-1.3626,0.9934,-6.3983
-3.3123,-4.7427,-3.9448,-3.9975,-2.5461,-2.1295,-4.1771,-2.2093,-1.4124,-2.2021,-3.168,-1.1973,-0.0688,-0.1086,-1.8756,-3.4248,0.3968,-1.6468,-1.9091,-4.0831,-2.7836,1.4507,3.2472,1.2703,1.7328,-0.6558,0.5667,-1.5144,1.1384,-5.8887
-3.3211,-4.8355,-3.8922,-3.9699,-2.5911,-2.1628,-4.4308,-2.3043,-1.4019,-2.372,-3.1052,-1.2925,-0.3991,-0.2865,-1.7965,-3.2571,0.4944,-1.4097,-1.8923,-3.9479,-2.7563,1.4142,3.0797,1.1811,1.7637,-0.6352,0.3868,-1.6305,1.3102,-5.2989
-3.3044,-4.9015,-3.7917,-3.9211,-2.6249,-2.1743,-4.6996,-2.3987,-1.3867,-2.5391,-3.0229,-1.3785,-0.7477,-0.4747,-1.6983,-3.0667,0.5931,-1.1356,-1.8751,-3.7928,-2.7158,1.3683,2.8845,1.0875,1.7954,-0.5979,0.2126,-1.7313,1.5089,-4.6648
