FP1,F3,F7,FC3,C3,C5,P3,P7,PO7,PO3,O1,Oz,Pz,CPz,FP2,Fz,F4,F8,FC4,FCz,Cz,C4,C6,P4,P8,PO8,PO4,O2,HEOG_left,HEOG_right
1.3893,0.9045,-0.7507,0.9539,1.4504,1.6729,1.9819,1.3683,2.6028,3.4723,2.8797,2.4997,1.2144,1.3298,0.2981,0.9335,1.2125,1.2815,1.7305,1.1859,1.4546,1.1899,1.798,0.6016,-1.1726,-0.0225,-0.1959,1.5031,2.0647,-0.2382
0.9867,0.6199,-0.568,0.3827,1.0114,1.2307,1.3668,1.0199,2.2604,2.4221,2.168,1.791,0.7467,0.9559,0.4978,0.613,0.8804,1.0342,1.1743,0.9213,0.9661,0.8475,1.5017,0.5169,-0.7444,0.2922,-0.3435,1.1993,1.551,-0.2134
0.535,0.2606,-0.504,-0.2522,0.5121,0.7208,0.7111,0.6561,1.9014,1.3772,1.4591,1.0986,0.2598,0.5311,0.5738,0.2036,0.4539,0.7126,0.5901,0.578,0.4395,0.4524,1.1478,0.3915,-0.3628,0.5771,-0.498,0.9019,1.0086,-0.2592
0.0158,-0.2094,-0.6305,-0.969,-0.0693,0.118,0.0048,0.2768,1.5242,0.3662,0.7706,0.4469,-0.2415,0.0358,0.4578,-0.3344,-0.1069,0.2851,-0.0238,0.1203,-0.1348,-0.0169,0.7129,0.2047,-0.0582,0.8076,-0.6571,0.6217,0.4317,-0.4139
-0.5579,-0.7828,-0.9578,-1.7451,-0.7193,-0.5642,-0.7343,-0.1056,1.1387,-0.5716,0.125,-0.1389,-0.7357,-0.5211,0.1407,-0.9912,-0.7859,-0.2373,-0.644,-0.4462,-0.7427,-0.549,0.2099,-0.045,0.15,0.9687,-0.8115,0.3709,-0.1612,-0.6796
-1.1394,-1.4057,-1.4289,-2.5137,-1.3857,-1.2706,-1.4585,-0.4665,0.767,-1.3857,-0.45,-0.6332,-1.1831,-1.0997,-0.3233,-1.7033,-1.5087,-0.7993,-1.2211,-1.0712,-1.3435,-1.0973,-0.3103,-0.336,0.2576,1.0565,-0.9445,0.1638,-0.7278,-1.019
-1.6561,-1.9886,-1.933,-3.1765,-1.9856,-1.9136,-2.0969,-0.7724,0.4399,-2.019,-0.9235,-1.0101,-1.5313,-1.6336,-0.8314,-2.3654,-2.1588,-1.3125,-1.6884,-1.6678,-1.875,-1.5878,-0.7691,-0.6261,0.2782,1.0789,-1.034,0.0164,-1.2094,-1.3637
-2.0268,-2.4285,-2.3346,-3.6254,-2.4234,-2.3924,-2.5687,-0.9881,0.1913,-2.4155,-1.2645,-1.2465,-1.7253,-2.0432,-1.2608,-2.8548,-2.6074,-1.6778,-1.9759,-2.1314,-2.2644,-1.9351,-1.0797,-0.8604,0.2424,1.0528,-1.0565,-0.0554,-1.5458,-1.6321
-2.1809,-2.6332,-2.5102,-3.7678,-2.6123,-2.617,-2.8011,-1.0844,0.0505,-2.5311,-1.4465,-1.3249,-1.7185,-2.2515,-1.4987,-3.0615,-2.7461,-1.8093,-2.0264,-2.3629,-2.4423,-2.0633,-1.1692,-0.9834,0.1932,0.9998,-0.9924,-0.0392,-1.6903,-1.7511
-2.0774,-2.5425,-2.3821,-3.5487,-2.495,-2.5285,-2.7452,-1.0448,0.036,-2.3439,-1.4533,-1.2392,-1.4846,-2.2012,-1.469,-2.9149,-2.5161,-1.6559,-1.8099,-2.2914,-2.3565,-1.9238,-0.9988,-0.952,0.1771,0.9393,-0.8313,0.0689,-1.6228,-1.6755
-1.7155,-2.1411,-1.939,-2.9641,-2.058,-2.114,-2.3887,-0.8699,0.1498,-1.8629,-1.2834,-0.9988,-1.0245,-1.8687,-1.1461,-2.4005,-1.9242,-1.2134,-1.3314,-1.8897,-1.9838,-1.5087,-0.5759,-0.7467,0.2318,0.8824,-0.5768,0.2593,-1.3561,-1.3996
-1.1363,-1.4606,-1.2378,-2.0628,-1.3367,-1.4097,-1.7599,-0.5784,0.3763,-1.1316,-0.9542,-0.6311,-0.3701,-1.2707,-0.5581,-1.5639,-1.0424,-0.5269,-0.6324,-1.1809,-1.3364,-0.8544,0.0452,-0.3778,0.3756,0.8288,-0.2477,0.5079,-0.934,-0.958
-0.4131,-0.5717,-0.3851,-0.9381,-0.4092,-0.4945,-0.9244,-0.2044,0.684,-0.2253,-0.5016,-0.18,0.4191,-0.463,0.2214,-0.4999,0.0079,0.3182,0.2152,-0.2343,-0.4616,-0.035,0.7741,0.1158,0.6012,0.7672,0.1233,0.7779,-0.4207,-0.4152
0.3655,0.4306,0.4925,0.29,0.6182,0.5258,0.026,0.2078,1.0307,0.7588,0.0227,0.3004,1.265,0.4697,1.0893,0.6676,1.0827,1.213,1.1222,0.8483,0.5643,0.8527,1.5039,0.6747,0.8772,0.6808,0.4958,1.0273,0.1141,0.1514
1.1134,1.4445,1.28,1.4965,1.6308,1.5387,0.9892,0.6102,1.3707,1.7152,0.5577,0.7543,2.0822,1.4288,1.9331,1.8114,2.0464,2.0463,1.9965,1.9525,1.6483,1.7078,2.133,1.2306,1.1552,0.5545,0.8276,1.2158,0.6106,0.6707
1.7633,2.3774,1.8963,2.5722,2.5253,2.4442,1.8678,0.9572,1.6608,2.5458,1.0414,1.132,2.7919,2.3183,2.651,2.8236,2.7978,2.7244,2.7577,2.9712,2.6941,2.4424,2.5847,1.7183,1.3824,0.381,1.0814,1.3122,1.0291,1.0922
2.2732,3.1573,2.3043,3.4376,3.2236,3.1686,2.5823,1.2099,1.8653,3.1733,1.4191,1.3959,3.3323,3.0591,3.168,3.6316,3.2851,3.1854,3.3461,3.821,3.6152,2.9945,2.8179,2.0851,1.5134,0.1639,1.23,1.2977,1.3531,1.3931
2.6274,3.7378,2.5073,4.0494,3.6806,3.6703,3.0787,1.3392,1.9584,3.5503,1.65,1.5236,3.6657,3.5969,3.4459,4.2026,3.5077,3.4059,3.7275,4.4505,4.3442,3.3325,2.8298,2.2971,1.5208,-0.0824,1.2583,1.1675,1.5843,1.577
2.8301,4.0982,2.5389,4.3984,3.8832,3.9374,3.3316,1.3283,1.9255,3.6633,1.7122,1.509,3.7815,3.907,3.4854,4.5406,3.5078,3.399,3.8936,4.8424,4.8379,3.4549,2.6499,2.3417,1.4005,-0.3355,1.1654,0.9301,1.7344,1.6662
2.8982,4.2401,2.4499,4.5029,3.8456,3.981,3.343,1.1752,1.7643,3.5311,1.6054,1.3616,3.6941,3.9923,3.322,4.6759,3.3537,3.2076,3.8594,5.0082,5.0795,3.3852,2.3303,2.2271,1.1728,-0.5691,0.9647,0.6066,1.8165,1.6921
2.8541,4.1824,2.2961,4.399,3.6012,3.8271,3.1391,0.8952,1.4871,3.1987,1.3512,1.1058,3.4379,3.8795,3.0153,4.6523,3.1208,2.8915,3.6582,4.9799,5.0765,3.1638,1.9326,1.9798,0.8775,-0.758,0.6818,0.2292,1.8397,1.6858
2.7201,3.9563,2.1267,4.1329,3.1951,3.509,2.7644,0.5206,1.1202,2.7282,0.99,0.7776,3.0585,3.6108,2.6343,4.5149,2.8731,2.5138,3.3337,4.7988,4.8563,2.8377,1.5159,1.6381,0.5648,-0.8833,0.3508,-0.1629,1.8075,1.6688
2.5152,3.5991,1.9759,3.7526,2.677,3.0628,2.2747,0.0976,0.7018,2.187,0.5733,0.4192,2.6034,3.2346,2.2413,4.2994,2.6484,2.1272,2.9299,4.505,4.4588,2.4505,1.1264,1.2443,0.2832,-0.9367,0.0077,-0.5294,1.7188,1.648
2.2524,3.1493,1.8572,3.3022,2.0951,2.5243,1.7291,-0.321,0.2767,1.6375,0.155,0.0722,2.1126,2.7952,1.879,4.0259,2.4512,1.7635,2.4827,4.1291,3.928,2.0339,0.7899,0.8355,0.0674,-0.9238,-0.3168,-0.8366,1.57,1.6125
1.9385,2.641,1.7617,2.8163,1.4917,1.9274,1.1821,-0.6845,-0.1108,1.1277,-0.218,-0.2305,1.6122,2.3255,1.5626,3.6968,2.2548,1.4301,2.0127,3.6879,3.3038,1.6026,0.5102,0.4371,-0.07,-0.8632,-0.6028,-1.0639,1.3581,1.5376
1.5752,2.099,1.6623,2.316,0.8999,1.3017,0.6776,-0.9532,-0.4248,0.6862,-0.5132,-0.4698,1.1132,1.8429,1.2794,3.2997,2.0125,1.1121,1.5255,3.1844,2.6165,1.1549,0.2713,0.0603,-0.1393,-0.7818,-0.8441,-1.2068,1.0832,1.3917
1.1623,1.5369,1.5228,1.8067,0.3418,0.672,0.2445,-1.1048,-0.6434,0.3211,-0.7166,-0.6433,0.6128,1.3499,0.9951,2.8144,1.6739,0.7797,1.0152,2.6116,1.8843,0.6784,0.0437,-0.2966,-0.1675,-0.7076,-1.0464,-1.2764,0.75,1.1474
0.7005,0.957,1.3092,1.2808,-0.1718,0.0572,-0.1049,-1.1386,-0.7625,0.0222,-0.8321,-0.7636,0.1013,0.839,0.6653,2.221,1.2017,0.4002,0.4716,1.9584,1.1151,0.1586,-0.2062,-0.6416,-0.1874,-0.6611,-1.2223,-1.2939,0.3691,0.7915
0.1957,0.3551,0.9993,0.7234,-0.6385,-0.5283,-0.3739,-1.074,-0.7957,-0.2322,-0.8784,-0.8527,-0.4309,0.2996,0.2494,1.5091,0.5852,-0.0512,-0.112,1.2172,0.3123,-0.4112,-0.506,-0.982,-0.2248,-0.6496,-1.3845,-1.2838,-0.043,0.3316
-0.3391,-0.2716,0.5883,0.1227,-1.0606,-1.0716,-0.5778,-0.9455,-0.7702,-0.4676,-0.8824,-0.9344,-0.9855,-0.274,-0.2751,0.6853,-0.1531,-0.5804,-0.7327,0.3906,-0.5183,-1.0224,-0.8689,-1.3172,-0.2896,-0.665,-1.5384,-1.2665,-0.4649,-0.2022
-0.8816,-0.9154,0.0907,-0.5205,-1.4392,-1.5587,-0.7372,-0.7945,-0.7204,-0.7039,-0.872,-1.0261,-1.5511,-0.8761,-0.9016,-0.2222,-0.9587,-1.1687,-1.3744,-0.503,-1.3608,-1.6469,-1.2868,-1.6347,-0.3729,-0.6864,-1.6781,-1.2525,-0.8712,-0.7611
-1.4024,-1.5527,-0.4611,-1.1857,-1.7705,-1.9733,-0.8722,-0.6593,-0.68,-0.95,-0.8694,-1.1327,-2.1021,-1.4863,-1.5884,-1.1638,-1.7542,-1.7727,-2.0076,-1.4276,-2.1853,-2.24,-1.7299,-1.91,-0.4515,-0.686,-1.7848,-1.2404,-1.2354,-1.2863
-1.8674,-2.1452,-1.0196,-1.8322,-2.0446,-2.2982,-0.9972,-0.5674,-0.6748,-1.2016,-0.8868,-1.2447,-2.6013,-2.0705,-2.2621,-2.0735,-2.454,-2.3301,-2.5929,-2.3314,-2.9478,-2.7466,-2.1506,-2.1114,-0.4981,-0.6378,-1.8307,-1.2183,-1.5322,-1.7195
-2.2437,-2.6472,-1.5299,-2.4059,-2.2487,-2.5188,-1.1183,-0.5321,-0.7189,-1.4433,-0.9249,-1.3413,-3.0069,-2.5867,-2.8308,-2.879,-2.9817,-2.773,-3.0861,-3.1539,-3.597,-3.1129,-2.4929,-2.2084,-0.4929,-0.5255,-1.7864,-1.1691,-1.7413,-2.0135
-2.5048,-3.0169,-1.9385,-2.8505,-2.3711,-2.6282,-1.234,-0.5524,-0.814,-1.6552,-0.9746,-1.3971,-3.2811,-2.993,-3.2058,-3.5144,-3.2859,-3.043,-3.4454,-3.8358,-4.0825,-3.2972,-2.7054,-2.18,-0.4322,-0.3481,-1.6287,-1.0769,-1.8502,-2.1411
-2.635,-3.2268,-2.2034,-3.1207,-2.407,-2.63,-1.3381,-0.6161,-0.9518,-1.8201,-1.021,-1.3893,-3.398,-3.2561,-3.3252,-3.9323,-3.3509,-3.1059,-3.6389,-4.329,-4.3659,-3.2801,-2.7533,-2.022,-0.3319,-0.1216,-1.3491,-0.9334,-1.8561,-2.0992
-2.6322,-3.2702,-2.302,-3.1924,-2.3611,-2.5387,-1.4233,-0.7047,-1.1184,-1.9289,-1.0483,-1.3045,-3.3486,-3.3581,-3.1734,-4.1126,-3.1992,-2.9614,-3.6505,-4.6052,-4.4286,-3.0684,-2.6272,-1.7492,-0.2225,0.1239,-0.9576,-0.7409,-1.7665,-1.9085
-2.5066,-3.162,-2.2358,-3.0677,-2.2464,-2.3767,-1.4838,-0.797,-1.2986,-1.9834,-1.044,-1.1417,-3.1429,-3.2987,-2.7866,-4.0646,-2.8835,-2.6432,-3.4826,-4.6599,-4.2753,-2.6941,-2.3455,-1.3929,-0.1396,0.3504,-0.4823,-0.5128,-1.5978,-1.6072
-2.2778,-2.9329,-2.0282,-2.7734,-2.081,-2.1694,-1.5159,-0.8719,-1.4788,-1.9939,-1.0013,-0.9112,-2.807,-3.0939,-2.2452,-3.823,-2.4732,-2.2108,-3.155,-4.5114,-3.933,-2.2071,-1.9496,-0.9942,-0.1122,0.5206,0.0358,-0.2699,-1.3716,-1.2416
-1.97,-2.6209,-1.7187,-2.3546,-1.8813,-1.9383,-1.5166,-0.909,-1.6469,-1.9728,-0.9196,-0.6323,-2.3778,-2.7716,-1.6537,-3.4377,-2.0365,-1.7348,-2.7003,-4.1948,-3.4449,-1.664,-1.4942,-0.5952,-0.1537,0.6061,0.55,-0.0353,-1.1104,-0.8559
-1.6079,-2.2614,-1.3529,-1.8648,-1.657,-1.6968,-1.4807,-0.8892,-1.7912,-1.9281,-0.8021,-0.3276,-1.8954,-2.3653,-1.116,-2.964,-1.6254,-1.2809,-2.1585,-3.7542,-2.8626,-1.1177,-1.0358,-0.2315,-0.2574,0.594,1.0173,0.1704,-0.8342,-0.4851
-1.2144,-1.8807,-0.974,-1.3556,-1.4081,-1.4473,-1.3984,-0.7947,-1.8974,-1.8567,-0.6525,-0.0187,-1.396,-1.9082,-0.7127,-2.4528,-1.2679,-0.8973,-1.5727,-3.2338,-2.2369,-0.6091,-0.6219,0.0734,-0.3997,0.4897,1.4047,0.3333,-0.5594,-0.1512
-0.8097,-1.4932,-0.6157,-0.8683,-1.1261,-1.1836,-1.2554,-0.6107,-1.9485,-1.7439,-0.4722,0.2767,-0.907,-1.4289,-0.4854,-1.9448,-0.9674,-0.6077,-0.9861,-2.672,-1.6113,-0.1641,-0.2845,0.3095,-0.5472,0.3149,1.6935,0.4474,-0.2987,0.1369
-0.4137,-1.1039,-0.2998,-0.4298,-0.8002,-0.8962,-1.0373,-0.3292,-1.9262,-1.5685,-0.2593,0.5457,-0.4454,-0.9499,-0.4308,-1.4692,-0.7091,-0.4112,-0.4396,-2.0986,-1.0179,0.205,-0.0388,0.4782,-0.6661,0.1022,1.8792,0.5143,-0.0644,0.3795
-0.0468,-0.7149,-0.0367,-0.0531,-0.4254,-0.5802,-0.7364,0.0459,-1.8167,-1.312,-0.0117,0.7784,-0.0209,-0.4876,-0.5065,-1.0449,-0.4714,-0.2887,0.0301,-1.5359,-0.4776,0.4946,0.1141,0.5867,-0.7315,-0.1128,1.9678,0.5403,0.1304,0.5814
0.268,-0.3326,0.1704,0.2578,-0.0112,-0.2425,-0.3592,0.4955,-1.6158,-0.97,0.269,0.9645,0.3595,-0.0564,-0.6463,-0.6844,-0.2374,-0.2134,0.392,-1.0029,-0.0029,0.7033,0.1811,0.642,-0.7329,-0.2994,1.9709,0.5331,0.2704,0.7453
0.5064,0.0269,0.3201,0.5019,0.414,0.0952,0.0688,0.985,-1.3339,-0.5591,0.5724,1.0907,0.6854,0.3291,-0.7818,-0.3967,-0.0034,-0.1623,0.6232,-0.5191,0.3968,0.8273,0.1712,0.6465,-0.6766,-0.4377,1.9009,0.4985,0.34,0.8678
0.6461,0.3374,0.409,0.6773,0.8044,0.3973,0.5038,1.4684,-0.996,-0.1176,0.8774,1.1386,0.94,0.6501,-0.8624,-0.1889,0.2173,-0.1242,0.7106,-0.1068,0.7115,0.8576,0.0907,0.5958,-0.5845,-0.5207,1.7681,0.4388,0.3262,0.9384
0.6716,0.5679,0.4314,0.78,1.1049,0.6217,0.8898,1.897,-0.6389,0.3015,1.1537,1.087,1.0995,0.8839,-0.8685,-0.0649,0.3977,-0.1037,0.6525,0.2092,0.9279,0.782,-0.0589,0.4805,-0.4904,-0.5535,1.5805,0.3524,0.2227,0.943
0.5798,0.6916,0.3826,0.8059,1.2634,0.7298,1.1697,2.2293,-0.3034,0.6421,1.3665,0.9155,1.137,1.0049,-0.8127,-0.0228,0.5042,-0.1187,0.459,0.4067,1.0312,0.5894,-0.279,0.2902,-0.4339,-0.5507,1.3438,0.2344,0.0327,0.8713
0.3837,0.6951,0.2636,0.7539,1.2446,0.6964,1.2967,2.44,-0.0267,0.8579,1.4848,0.6113,1.0286,0.9898,-0.7311,-0.0527,0.506,-0.1929,0.1518,0.4711,1.0094,0.276,-0.5706,0.0177,-0.4538,-0.5319,1.0637,0.0794,-0.2292,0.7232
0.1125,0.5843,0.0847,0.6279,1.0398,0.5171,1.2446,2.5247,0.1657,0.9228,1.4889,0.1754,0.7611,0.8236,-0.668,-0.1354,0.3851,-0.3464,-0.2358,0.4017,0.8585,-0.1485,-0.9291,-0.3364,-0.5814,-0.5173,0.7475,-0.1157,-0.5377,0.5135
-0.1917,0.3845,-0.1335,0.4386,0.6714,0.21,1.0132,2.5001,0.264,0.8365,1.3767,-0.3722,0.3388,0.5066,-0.6595,-0.2444,0.1427,-0.586,-0.6611,0.2144,0.5877,-0.6565,-1.3389,-0.7609,-0.8333,-0.5234,0.4053,-0.3473,-0.8593,0.2717
-0.48,0.1365,-0.3624,0.2024,0.1899,-0.1873,0.6295,2.3995,0.2749,0.6244,1.1653,-0.9925,-0.2123,0.0601,-0.7219,-0.3488,-0.1955,-0.8986,-1.0743,-0.0573,0.2224,-1.202,-1.7703,-1.2333,-1.2078,-0.5595,0.0521,-0.6036,-1.1556,0.039
-0.7048,-0.1122,-0.5703,-0.0591,-0.3343,-0.6241,0.1434,2.2645,0.2181,0.3319,0.8886,-1.6304,-0.8445,-0.4717,-0.8469,-0.4181,-0.5815,-1.2508,-1.4238,-0.3664,-0.1957,-1.7249,-2.1808,-1.7207,-1.683,-0.6256,-0.2924,-0.8637,-1.3877,-0.14
-0.8271,-0.3169,-0.7276,-0.3219,-0.8242,-1.0442,-0.3803,2.1347,0.1208,0.0162,0.5909,-2.2222,-1.4925,-1.025,-1.0057,-0.4269,-0.9518,-1.5935,-1.6635,-0.6585,-0.6121,-2.1607,-2.5205,-2.1826,-2.2199,-0.7129,-0.6037,-1.1009,-1.5213,-0.2255
-0.8238,-0.4447,-0.8122,-0.5619,-1.2102,-1.3946,-0.8731,2.0388,0.0098,-0.2653,0.3186,-2.7042,-2.083,-1.5242,-1.1595,-0.3601,-1.2411,-1.8733,-1.7612,-0.8812,-0.9655,-2.4525,-2.7424,-2.5762,-2.7701,-0.8054,-0.855,-1.2863,-1.5319,-0.192
-0.691,-0.4796,-0.8131,-0.7577,-1.4414,-1.6326,-1.2732,1.9883,-0.0948,-0.4636,0.1114,-3.0221,-2.5458,-1.8949,-1.2727,-0.2161,-1.3972,-2.045,-1.7059,-0.9929,-1.1973,-2.5626,-2.8123,-2.8619,-3.2842,-0.8836,-1.0203,-1.3947,-1.411,-0.034
-0.4445,-0.4225,-0.7325,-0.8922,-1.493,-1.7308,-1.5351,1.9766,-0.184,-0.5457,-0.0034,-3.139,-2.8256,-2.0761,-1.3233,-0.0075,-1.3941,-2.0823,-1.5121,-0.9701,-1.2608,-2.4805,-2.7168,-3.0089,-3.7199,-0.9279,-1.0778,-1.4079,-1.1679,0.2322
-0.1162,-0.2879,-0.5853,-0.9537,-1.3667,-1.6811,-1.6353,1.983,-0.2604,-0.4975,-0.0147,-3.0407,-2.8911,-2.0318,-1.308,0.241,-1.2384,-1.9832,-1.2179,-0.8114,-1.1301,-2.2244,-2.4665,-2.999,-4.0484,-0.9216,-1.0134,-1.3173,-0.8302,0.5722
0.2519,-0.0983,-0.3963,-0.9369,-1.0869,-1.495,-1.5735,1.9799,-0.3357,-0.3234,0.0722,-2.7383,-2.7399,-1.7577,-1.2415,0.4972,-0.9661,-1.7691,-0.8773,-0.5363,-0.8066,-1.8364,-2.0936,-2.8296,-4.2573,-0.8541,-0.8232,-1.1244,-0.4394,0.9413
0.6146,0.1208,-0.1954,-0.8442,-0.6948,-1.2018,-1.3715,1.9411,-0.4266,-0.0434,0.2385,-2.2672,-2.3988,-1.2827,-1.1511,0.7275,-0.6331,-1.4792,-0.5493,-0.1817,-0.3209,-1.3744,-1.6461,-2.5133,-4.3509,-0.7231,-0.5148,-0.8404,-0.045,1.2931
0.9299,0.3436,-0.0122,-0.6879,-0.2403,-0.8441,-1.0677,1.8483,-0.5488,0.311,0.4563,-1.6835,-1.9194,-0.6648,-1.0689,0.9024,-0.3018,-1.1614,-0.2863,0.2051,0.2694,-0.9012,-1.18,-2.0769,-4.3477,-0.5354,-0.1066,-0.485,0.3032,1.5884
1.1639,0.5456,0.1298,-0.4911,0.2248,-0.4713,-0.7102,1.6954,-0.7119,0.703,0.6939,-1.0572,-1.3701,0.0189,-1.0244,1.0006,-0.0271,-0.8635,-0.1247,0.5735,0.8884,-0.475,-0.7506,-1.5583,-4.2756,-0.3051,0.3739,-0.0848,0.5615,1.8003
1.2942,0.7043,0.2168,-0.2864,0.6531,-0.1322,-0.3473,1.4891,-0.9145,1.0971,0.9213,-0.4629,-0.8244,0.6845,-1.0378,1.0121,0.153,-0.6251,-0.0807,0.8777,1.4536,-0.1409,-0.4052,-1.0018,-4.166,-0.0507,0.8928,0.3296,0.6987,1.9166
1.3107,0.8002,0.2472,-0.1125,1.007,0.131,-0.0191,1.2478,-1.1418,1.4653,1.1152,0.0301,-0.3495,1.255,-1.1168,0.9376,0.2229,-0.4718,-0.1506,1.0825,1.89,0.0739,-0.1764,-0.4534,-4.0476,0.2108,1.4136,0.7259,0.7001,1.9392
1.2153,0.818,0.228,-0.0086,1.2612,0.2886,0.2481,0.9991,-1.3658,1.7903,1.2609,0.3667,0.003,1.6709,-1.2567,0.7864,0.1878,-0.4134,-0.3149,1.1664,2.141,0.1625,-0.0786,0.0449,-3.9417,0.469,1.9005,1.0738,0.5681,1.8807
1.019,0.7468,0.1689,-0.009,1.4048,0.3256,0.4445,0.776,-1.5493,2.0656,1.3535,0.5122,0.2031,1.8969,-1.4429,0.5716,0.0676,-0.4453,-0.5456,1.1213,2.1762,0.1357,-0.1068,0.459,-3.8595,0.7238,2.3219,1.3483,0.3191,1.7595
0.7372,0.5801,0.0729,-0.1381,1.4395,0.2421,0.5744,0.6115,-1.6521,2.2922,1.3959,0.4555,0.2429,1.9241,-1.6567,0.3041,-0.1125,-0.5522,-0.814,0.9491,1.9928,0.0175,-0.2396,0.7664,-3.8008,0.9875,2.6542,1.533,-0.0215,1.5945
0.3851,0.3138,-0.0703,-0.4078,1.3773,0.0512,0.6513,0.5341,-1.6399,2.4737,1.3972,0.2081,0.1333,1.7669,-1.8806,-0.0124,-0.3319,-0.7143,-1.097,0.6563,1.6118,-0.1631,-0.4456,0.956,-3.7554,1.2816,2.884,1.6219,-0.4272,1.4001
-0.0261,-0.0545,-0.2859,-0.8168,1.2355,-0.2243,0.6917,0.5627,-1.4908,2.612,1.3697,-0.1991,-0.1018,1.4565,-2.1026,-0.3855,-0.5818,-0.9137,-1.3832,0.2478,1.0704,-0.3813,-0.6927,1.0267,-3.7066,1.6302,3.009,1.6192,-0.8755,1.1834
-0.4909,-0.5269,-0.6094,-1.3522,1.032,-0.5563,0.7096,0.7035,-1.2012,2.7047,1.327,-0.722,-0.4337,1.0322,-2.32,-0.8331,-0.8695,-1.1399,-1.6744,-0.276,0.4135,-0.6235,-0.9574,0.9834,-3.6367,2.0504,3.0361,1.536,-1.3518,0.944
-1.0072,-1.1032,-1.0759,-1.9917,0.7815,-0.9162,0.7123,0.951,-0.7859,2.7455,1.282,-1.3096,-0.8347,0.5332,-2.5397,-1.3791,-1.2157,-1.3929,-1.9841,-0.9197,-0.3139,-0.8918,-1.2309,0.833,-3.5335,2.5427,2.9778,1.3867,-1.8493,0.6769
-1.5727,-1.7788,-1.7048,-2.7065,0.4944,-1.2776,0.7006,1.2909,-0.2746,2.7279,1.2468,-1.9103,-1.283,-0.0083,-2.7767,-2.0449,-1.6479,-1.683,-2.3333,-1.6875,-1.0716,-1.2009,-1.5191,0.5815,-3.3972,3.0851,2.8473,1.1847,-2.3649,0.3759
-2.1789,-2.5398,-2.4881,-3.463,0.1768,-1.619,0.6708,1.7062,0.2951,2.6486,1.2325,-2.4752,-1.7629,-0.5698,-3.0493,-2.8387,-2.1893,-2.0259,-2.7423,-2.576,-1.8261,-1.5721,-1.8381,0.2343,-3.2421,3.6318,2.6547,0.9409,-2.8943,0.038
-2.8078,-3.3603,-3.3832,-4.2248,-0.1662,-1.9247,0.6179,2.1808,0.8856,2.5109,1.248,-2.9619,-2.2635,-1.1378,-3.3731,-3.7479,-2.8472,-2.436,-3.2231,-3.5664,-2.5495,-2.023,-2.2066,-0.2012,-3.0962,4.1196,2.4059,0.664,-3.4279,-0.3347
-3.4314,-4.2023,-4.3178,-4.9545,-0.5294,-2.1857,0.5379,2.7006,1.4646,2.3251,1.2987,-3.3368,-2.7762,-1.7041,-3.7552,-4.7347,-3.6053,-2.9195,-3.774,-4.6198,-3.2187,-2.5599,-2.6379,-0.7125,-2.9956,4.4783,2.1037,0.3618,-3.9484,-0.7337
-4.0149,-5.0185,-5.2014,-5.6173,-0.9064,-2.4007,0.4289,3.2503,2.0061,2.1056,1.3846,-3.5781,-3.292,-2.262,-4.1911,-5.7398,-4.422,-3.4694,-4.3769,-5.6782,-3.8143,-3.172,-3.1343,-1.279,-2.9753,4.6443,1.7511,0.0434,-4.434,-1.1457
-4.5222,-5.7588,-5.9429,-6.1836,-1.2901,-2.5757,0.2905,3.8086,2.4891,1.8678,1.4988,-3.6776,-3.7995,-2.8024,-4.663,-6.6909,-5.2354,-4.0635,-4.998,-6.6708,-4.3195,-3.8314,-3.6835,-1.8713,-3.0595,4.5733,1.3557,-0.2792,-4.8614,-1.5534
-4.9217,-6.3782,-6.4659,-6.6314,-1.673,-2.7223,0.1236,4.3456,2.8952,1.6246,1.6291,-3.6409,-4.2843,-3.3111,-5.1412,-7.5133,-5.973,-4.6657,-5.5925,-7.5233,-4.7197,-4.4967,-4.2586,-2.4531,-3.2537,4.249,0.9323,-0.5905,-5.2106,-1.936
-5.1897,-6.8425,-6.7206,-6.9463,-2.0453,-2.8521,-0.0697,4.8227,3.2057,1.3862,1.7603,-3.4855,-4.7271,-3.7686,-5.5868,-8.1423,-6.5635,-5.2299,-6.1103,-8.1692,-5.0015,-5.119,-4.8214,-2.9853,-3.5409,3.6871,0.5029,-0.8721,-5.4668,-2.2697
-5.3125,-7.1315,-6.6901,-7.119,-2.3934,-2.9721,-0.2843,5.1978,3.4023,1.16,1.8778,-3.2372,-5.1052,-4.1512,-5.9568,-8.5315,-6.9475,-5.7064,-6.5036,-8.5589,-5.1529,-5.65,-5.3276,-3.4321,-3.8852,2.9317,0.0947,-1.1052,-5.6211,-2.5285
-5.2872,-7.2396,-6.3919,-7.1435,-2.6984,-3.0809,-0.5112,5.432,3.4688,0.9522,1.9708,-2.925,-5.3939,-4.434,-6.2099,-8.6587,-7.0863,-6.0492,-6.7337,-8.667,-5.1644,-6.0496,-5.7343,-3.7665,-4.2411,2.046,-0.2647,-1.2738,-5.6694,-2.6874
-5.121,-7.173,-5.8772,-7.0154,-2.9364,-3.1693,-0.7363,5.4985,3.3958,0.7687,2.0351,-2.5771,-5.57,-4.595,-6.3124,-8.5278,-6.9685,-6.2233,-6.7784,-8.4963,-5.0314,-6.2923,-6.0078,-3.975,-4.5658,1.1014,-0.5529,-1.3671,-5.612,-2.7259
-4.8318,-6.9476,-5.2252,-6.7336,-3.0819,-3.2243,-0.9414,5.3895,3.1856,0.6156,2.0734,-2.2175,-5.6169,-4.6192,-6.2451,-8.1681,-6.613,-6.2117,-6.6369,-8.0782,-4.758,-6.3712,-6.1301,-4.0591,-4.8306,0.1647,-0.756,-1.3816,-5.4536,-2.6332
-4.4476,-6.5866,-4.5332,-6.3048,-3.1133,-3.2344,-1.1067,5.1195,2.856,0.4987,2.0955,-1.8647,-5.5293,-4.5034,-6.0085,-7.6307,-6.0696,-6.0201,-6.3319,-7.4699,-4.3605,-6.2992,-6.1031,-4.034,-5.0268,-0.7085,-0.8705,-1.3202,-5.2055,-2.4135
-4.0058,-6.1211,-3.9016,-5.7502,-3.0202,-3.1942,-1.2146,4.7241,2.441,0.4234,2.1153,-1.5314,-5.3164,-4.2591,-5.6267,-6.9835,-5.4138,-5.6789,-5.9082,-6.7483,-3.8699,-6.1073,-5.9493,-3.9249,-5.165,-1.4774,-0.902,-1.1914,-4.8874,-2.0891
-3.5519,-5.5916,-3.4173,-5.11,-2.8087,-3.1071,-1.2538,4.254,1.9874,0.3937,2.1463,-1.2276,-5.0038,-3.9147,-5.1472,-6.3044,-4.7385,-5.2404,-5.4268,-6.0016,-3.3319,-5.8402,-5.709,-3.7619,-5.2687,-2.1149,-0.8628,-1.0065,-4.5291,-1.7016
-3.137,-5.0506,-3.1411,-4.4448,-2.5052,-2.9862,-1.2227,3.7649,1.5467,0.4115,2.1972,-0.9628,-4.632,-3.5156,-4.6385,-5.6744,-4.1411,-4.7737,-4.9576,-5.3202,-2.8038,-5.5508,-5.4352,-3.5767,-5.3659,-2.6051,-0.7697,-0.7785,-4.1713,-1.3092
-2.8136,-4.5611,-3.0999,-3.8304,-2.1546,-2.8535,-1.1316,3.3074,1.1653,0.4751,2.2674,-0.7498,-4.2526,-3.1205,-4.182,-5.1695,-3.7101,-4.3549,-4.5699,-4.7864,-2.3485,-5.293,-5.186,-3.3993,-5.4802,-2.9403,-0.6415,-0.5223,-3.8624,-0.9812
-2.6299,-4.19,-3.2872,-3.3464,-1.8147,-2.7372,-1.0022,2.9166,0.8753,0.5783,2.3463,-0.6052,-3.9223,-2.7939,-3.8608,-4.8521,-3.5114,-4.0558,-4.3232,-4.4647,-2.0253,-5.1144,-5.0149,-3.2558,-5.6249,-3.119,-0.4974,-0.2544,-3.6533,-0.7872
-2.6215,-3.997,-3.6679,-3.0608,-1.5451,-2.667,-0.8638,2.6082,0.6892,0.7109,2.4151,-0.5468,-3.6938,-2.595,-3.7445,-4.762,-3.5778,-3.9305,-4.2572,-4.3934,-1.879,-5.0499,-4.9611,-3.1664,-5.7994,-3.1444,-0.3548,0.0074,-3.5892,-0.7844
-2.804,-4.0201,-4.1867,-3.0133,-1.3942,-2.6674,-0.7466,2.3789,0.6005,0.861,2.4523,-0.5893,-3.6067,-2.566,-3.8746,-4.9091,-3.9034,-4.0052,-4.3851,-4.578,-1.9311,-5.1155,-5.0416,-3.1434,-5.9894,-3.0226,-0.2265,0.2459,-3.7011,-1.0055
-3.167,-4.263,-4.7761,-3.2032,-1.3874,-2.7501,-0.6735,2.2133,0.5894,1.0187,2.4408,-0.7373,-3.679,-2.7205,-4.254,-5.2692,-4.4432,-4.2714,-4.6898,-4.9882,-2.1727,-5.3053,-5.2464,-3.1885,-6.1696,-2.7618,-0.1162,0.4479,-3.9977,-1.4496
-3.6728,-4.6883,-5.3642,-3.5843,-1.5188,-2.9094,-0.6508,2.094,0.6322,1.1806,2.375,-0.9785,-3.9003,-3.0371,-4.843,-5.7844,-5.1196,-4.6856,-5.1254,-5.56,-2.5638,-5.5918,-5.5397,-3.2904,-6.3085,-2.3711,-0.0156,0.6083,-4.4605,-2.0804
-4.2594,-5.2205,-5.8812,-4.0699,-1.7487,-3.1198,-0.6617,2.0116,0.7111,1.3541,2.2667,-1.2803,-4.2293,-3.4585,-5.5661,-6.3705,-5.8334,-5.1763,-5.6236,-6.2027,-3.0366,-5.9288,-5.8656,-3.4239,-6.3732,-1.8605,0.0981,0.7339,-5.0442,-2.8314
-4.8502,-5.7588,-6.2666,-4.548,-2.0097,-3.339,-0.6643,1.971,0.8226,1.56,2.1471,-1.5898,-4.5959,-3.8984,-6.3257,-6.9294,-6.4781,-5.6555,-6.1042,-6.8115,-3.5051,-6.258,-6.1579,-3.5509,-6.3358,-1.2412,0.2606,0.8452,-5.681,-3.618
-5.3658,-6.1961,-6.4763,-4.9028,-2.2188,-3.5161,-0.597,1.9921,0.9793,1.8314,2.0639,-1.8396,-4.911,-4.255,-7.0215,-7.3658,-6.9562,-6.0342,-6.4863,-7.2836,-3.8789,-6.5173,-6.3512,-3.6243,-6.1777,-0.5269,0.516,0.9742,-6.2912,-4.353
-5.7383,-6.4416,-6.4893,-5.0372,-2.2942,-3.6017,-0.3905,2.1034,1.2072,2.2079,2.0725,-1.9596,-5.0801,-4.4296,-7.5689,-7.604,-7.1936,-6.2374,-6.7011,-7.5348,-4.0783,-6.651,-6.392,-3.5947,-5.8945,0.265,0.9073,1.1594,-6.7959,-4.9628
-5.9233,-6.4372,-6.3124,-4.8908,-2.1723,-3.5585,0.0157,2.3334,1.5361,2.7273,2.2239,-1.8897,-5.0212,-4.3454,-7.9117,-7.6004,-7.1515,-6.2165,-6.7021,-7.5137,-4.0491,-6.6185,-6.2485,-3.4186,-5.4977,1.1127,1.4674,1.4382,-7.1312,-5.3985
-5.9057,-6.167,-5.9776,-4.4493,-1.8208,-3.3685,0.6574,2.7,1.9885,3.415,2.5521,-1.5929,-4.6804,-3.9626,-8.0278,-7.3502,-6.8311,-5.956,-6.4724,-7.2092,-3.7717,-6.4017,-5.9152,-3.0668,-5.0134,1.9901,2.2106,1.8384,-7.2586,-5.6407
-5.7004,-5.6557,-5.5358,-3.7432,-1.2441,-3.0345,1.5349,3.2045,2.5687,4.2748,3.0637,-1.0638,-4.044,-3.2859,-7.9268,-6.8851,-6.2723,-5.4745,-6.0269,-6.6508,-3.2644,-6.0072,-5.4144,-2.5297,-4.4783,2.8681,3.1268,2.3704,-7.1707,-5.6984
-5.3456,-4.9582,-5.0445,-2.8388,-0.4819,-2.5765,2.6091,3.8289,3.2564,5.2822,3.7342,-0.3319,-3.1425,-2.3649,-7.6424,-6.2645,-5.5467,-4.8205,-5.4089,-5.9009,-2.5795,-5.465,-4.7912,-1.8208,-3.9342,3.7162,4.1811,3.0229,-6.8888,-5.6019
-4.8924,-4.1463,-4.5546,-1.8246,0.3994,-2.0261,3.8061,4.5381,4.0068,6.3837,4.5095,0.5426,-2.0479,-1.2851,-7.2221,-5.5629,-4.7446,-4.0629,-4.6824,-5.0434,-1.7938,-4.823,-4.1059,-0.9754,-3.4215,4.5042,5.3159,3.7618,-6.4555,-5.3933
-4.3943,-3.2948,-4.1006,-0.7964,1.3188,-1.4198,5.0277,5.2857,4.7561,7.5008,5.314,1.477,-0.8626,-0.1549,-6.7172,-4.8562,-3.9597,-3.2799,-3.9219,-4.1699,-0.9967,-4.1388,-3.4238,-0.0477,-2.9748,5.2045,6.4572,4.5339,-5.9234,-5.1174
-3.8969,-2.4712,-3.6957,0.1545,2.1935,-0.7943,6.1667,6.0213,5.4321,8.5399,6.0621,2.3784,0.2952,0.9108,-6.1757,-4.2107,-3.2733,-2.547,-3.2004,-3.367,-0.2765,-3.4708,-2.8041,0.8953,-2.619,5.7948,7.5243,5.2745,-5.3434,-4.8129
-3.4322,-1.7302,-3.3351,0.95,2.9508,-0.1822,7.1226,6.6984,5.9671,9.4055,6.6713,3.157,1.3086,1.8066,-5.6384,-3.6759,-2.7405,-1.9261,-2.5786,-2.7072,0.2908,-2.87,-2.2905,1.7824,-2.3671,6.2613,8.44,5.9184,-4.7563,-4.5071
-3.0165,-1.1116,-3.0033,1.5316,3.5375,0.3901,7.8169,7.2798,6.3092,10.016,7.0757,3.7398,2.079,2.4506,-5.1388,-3.2813,-2.3828,-1.4577,-2.0966,-2.2419,0.6509,-2.3736,-1.9041,2.5459,-2.2197,6.6018,9.142,6.4111,-4.1892,-4.2132
-2.6525,-0.6415,-2.6832,1.8639,3.924,0.9021,8.2037,7.7421,6.4322,10.3179,7.2361,4.0805,2.5389,2.7936,-4.7043,-3.0367,-2.1891,-1.1578,-1.7711,-1.999,0.7761,-2.0022,-1.6413,3.1307,-2.1652,6.8265,9.592,6.7186,-3.656,-3.9315
-2.3344,-0.334,-2.363,1.9364,4.1052,1.3377,8.2751,8.0769,6.3407,10.296,7.1472,4.1662,2.6597,2.8233,-4.3567,-2.9362,-2.1236,-1.0195,-1.5966,-1.9834,0.6656,-1.7614,-1.4784,3.4991,-2.1829,6.9553,9.7799,6.8327,-3.1624,-3.6553
-2.0556,-0.1936,-2.0412,1.7629,4.0953,1.6818,8.0587,8.2891,6.0681,9.9768,6.8377,4.0176,2.4528,2.5619,-4.1119,-2.9645,-2.1394,-1.0193,-1.5525,-2.1801,0.3422,-1.6465,-1.3814,3.634,-2.248,7.0116,9.7231,6.7706,-2.7115,-3.3777
-1.8149,-0.2161,-1.7279,1.3776,3.9207,1.9166,7.6105,8.3936,5.6706,9.4231,6.3648,3.6828,1.965,2.0589,-3.9774,-3.1025,-2.1935,-1.1251,-1.6125,-2.5601,-0.1554,-1.6491,-1.3185,3.5381,-2.3381,7.0149,9.4609,6.5692,-2.3092,-3.0994
-1.6204,-0.3894,-1.4436,0.8296,3.6123,2.0218,7.0028,8.4112,5.2154,8.7227,5.8038,3.2271,1.2685,1.3806,-3.9514,-3.3326,-2.2576,-1.305,-1.7529,-3.0859,-0.7799,-1.7617,-1.2717,3.232,-2.4374,6.9747,9.0462,6.2765,-1.9672,-2.8326
-1.4891,-0.6945,-1.2155,0.1744,3.1988,1.9777,6.3122,8.3643,4.7692,7.9721,5.2349,2.7209,0.45,0.5992,-4.0224,-3.6418,-2.3256,-1.5336,-1.9594,-3.7176,-1.4843,-1.9797,-1.242,2.7509,-2.539,6.8896,8.5375,5.9424,-1.702,-2.6002
-1.4431,-1.1068,-1.072,-0.5335,2.7049,1.7711,5.6095,8.2744,4.3866,7.2621,4.7311,2.2296,-0.4016,-0.2165,-4.172,-4.0221,-2.4134,-1.7954,-2.2286,-4.4184,-2.227,-2.2998,-1.247,2.141,-2.6437,6.7499,7.9914,5.6118,-1.5321,-2.4309
-1.502,-1.5972,-1.0373,-1.246,2.1521,1.4033,4.9527,8.1601,4.1033,6.6645,4.3472,1.8052,-1.2057,-1.0074,-4.3789,-4.4686,-2.5537,-2.0847,-2.5649,-5.1568,-2.9758,-2.7164,-1.3123,1.4557,-2.7566,6.5445,7.4576,5.3198,-1.4736,-2.3512
-1.6759,-2.1326,-1.1266,-1.9237,1.5629,0.8963,4.3848,8.0381,3.9328,6.2259,4.114,1.4811,-1.8973,-1.7274,-4.6229,-4.9764,-2.7862,-2.4019,-2.9741,-5.9073,-3.7074,-3.2165,-1.4597,0.7504,-2.8839,6.2665,6.9733,5.0879,-1.5349,-2.378
-1.9591,-2.6759,-1.3426,-2.5354,0.9655,0.2944,3.9347,7.9241,3.8687,5.9662,4.036,1.2706,-2.4321,-2.343,-4.8864,-5.5356,-3.1436,-2.7475,-3.4551,-6.6484,-4.4049,-3.7774,-1.6965,0.0776,-3.0304,5.918,6.5605,4.9229,-1.711,-2.5122
-2.3266,-3.1875,-1.6721,-3.0564,0.396,-0.3384,3.6198,7.8355,3.8912,5.8824,4.0955,1.168,-2.7873,-2.8318,-5.1535,-6.1272,-3.6387,-3.1167,-3.9922,-7.3587,-5.0525,-4.3655,-2.0101,-0.5187,-3.1978,5.5108,6.2241,4.8158,-1.9797,-2.7366
-2.7349,-3.6264,-2.084,-3.4669,-0.1021,-0.927,3.4495,7.7923,3.9754,5.9549,4.2587,1.1533,-2.9585,-3.1795,-5.4084,-6.7207,-4.2536,-3.4943,-4.5518,-8.0131,-5.6307,-4.9384,-2.368,-1.0061,-3.3852,5.0642,5.9543,4.7445,-2.3004,-3.0163
-3.1275,-3.9552,-2.5317,-3.7519,-0.4837,-1.3965,3.4272,7.8148,4.1002,6.1552,4.4854,1.1976,-2.956,-3.377,-5.635,-7.2753,-4.938,-3.8551,-5.0837,-8.5813,-6.1131,-5.4491,-2.7242,-1.3652,-3.5891,4.6003,5.7304,4.6776,-2.6186,-3.3047
-3.4453,-4.1452,-2.9571,-3.9028,-0.7102,-1.6856,3.5505,7.9201,4.2525,6.4521,4.736,1.269,-2.798,-3.4193,-5.8169,-7.7451,-5.6146,-4.1668,-5.5287,-9.029,-6.4681,-5.8527,-3.029,-1.5897,-3.8055,4.1383,5.5277,4.5805,-2.8755,-3.5516
-3.638,-4.1834,-3.2989,-3.9198,-0.7585,-1.7575,3.811,8.1162,4.4291,6.8164,4.9787,1.3379,-2.5057,-3.3048,-5.9399,-8.0872,-6.1938,-4.3959,-5.829,-9.3222,-6.6637,-6.1124,-3.2404,-1.6831,-4.0313,3.6898,5.3241,4.4219,-3.0206,-3.7127
-3.6754,-4.077,-3.5017,-3.8137,-0.6271,-1.6079,4.1939,8.3984,4.634,7.2234,5.1923,1.382,-2.0981,-3.0359,-5.9928,-8.2711,-6.5911,-4.5151,-5.9407,-9.4345,-6.6748,-6.2063,-3.3326,-1.6566,-4.2662,3.256,5.1058,4.1813,-3.0238,-3.7584
-3.5531,-3.8546,-3.5263,-3.6063,-0.3378,-1.2651,4.6774,8.7484,4.874,7.6533,5.3692,1.3886,-1.59,-2.6203,-5.97,-8.286,-6.7455,-4.5093,-5.844,-9.3543,-6.4912,-6.1303,-3.3006,-1.5262,-4.5135,2.8286,4.8704,3.8532,-2.8826,-3.6781
-3.2928,-3.5616,-3.3586,-3.3269,0.0687,-0.7845,5.2325,9.1361,5.1539,8.0899,5.5142,1.3566,-0.9921,-2.0722,-5.8712,-8.1446,-6.633,-4.3794,-5.5494,-9.0894,-6.1214,-5.8991,-3.1611,-1.3102,-4.7798,2.3924,4.6257,3.4495,-2.6208,-3.4814
-2.9354,-3.2516,-3.0137,-3.0077,0.5409,-0.2379,5.8236,9.5252,5.4708,8.5181,5.6414,1.2948,-0.3144,-1.4126,-5.7001,-7.8802,-6.2724,-4.1428,-5.097,-8.668,-5.593,-5.5436,-2.948,-1.0289,-5.0737,1.9297,4.3852,2.9969,-2.2808,-3.1933
-2.5304,-2.9738,-2.5335,-2.6774,1.0272,0.3001,6.409,9.878,5.8119,8.9212,5.7688,1.2184,0.4287,-0.6696,-5.4624,-7.5395,-5.7219,-3.8303,-4.5494,-8.1342,-4.9482,-5.1058,-2.7057,-0.7045,-5.4033,1.4244,4.1611,2.53,-1.911,-2.848
-2.1242,-2.7621,-1.9758,-2.3561,1.4848,0.7655,6.9434,10.1617,6.1533,9.2783,5.9113,1.1432,1.2146,0.1227,-5.1643,-7.172,-5.0669,-3.4811,-3.9793,-7.541,-4.2362,-4.6318,-2.4803,-0.3618,-5.7739,0.8646,3.9568,2.0821,-1.5536,-2.4806
-1.7511,-2.6266,-1.4017,-2.0521,1.8861,1.1149,7.3833,10.3528,6.463,9.565,6.0749,1.0799,2.0108,0.9271,-4.812,-6.8195,-4.4006,-3.1351,-3.4547,-6.9395,-3.5049,-4.1648,-2.3104,-0.0278,-6.1862,0.2435,3.7634,1.6761,-1.2369,-2.1212
-1.4287,-2.5518,-0.8628,-1.7614,2.2229,1.3324,7.6947,10.4412,6.7076,9.7566,6.2542,1.031,2.7794,1.7076,-4.4126,-6.5072,-3.8036,-2.8251,-3.0254,-6.3701,-2.7922,-3.7375,-2.2194,0.2714,-6.6338,-0.4387,3.5614,1.3201,-0.9728,-1.7908
-1.1581,-2.4998,-0.3942,-1.4682,2.5055,1.4316,7.8622,10.4308,6.86,9.8346,6.4334,0.9907,3.4843,2.4363,-3.9747,-6.2396,-3.3272,-2.5693,-2.7124,-5.8539,-2.1196,-3.366,-2.2101,0.5153,-7.1016,-1.1727,3.3284,1.0076,-0.7594,-1.5001
-0.9273,-2.4179,-0.014,-1.1484,2.7609,1.4519,7.8945,10.3396,6.9071,9.7928,6.5912,0.9471,4.1014,3.0997,-3.5096,-5.9992,-2.9826,-2.3669,-2.504,-5.3886,-1.4883,-3.0466,-2.2624,0.6959,-7.564,-1.9372,3.0502,0.7231,-0.5866,-1.2518
-0.7176,-2.2493,0.2736,-0.773,3.0273,1.4509,7.8263,10.196,6.8535,9.6414,6.7075,0.8871,4.626,3.7033,-3.0319,-5.7505,-2.7409,-2.197,-2.3571,-4.9475,-0.8788,-2.7542,-2.3351,0.8231,-7.9851,-2.6964,2.7306,0.4498,-0.443,-1.0436
-0.5088,-1.9441,0.4727,-0.3139,3.348,1.4937,7.7135,10.0358,6.7221,9.4086,6.7692,0.8018,5.0757,4.2727,-2.559,-5.446,-2.5404,-2.0216,-2.2037,-4.4836,-0.2539,-2.4449,-2.3704,0.9273,-8.3209,-3.4011,2.3979,0.1781,-0.3203,-0.8723
-0.2843,-1.47,0.5913,0.2497,3.7639,1.6395,7.6238,9.8975,6.5501,9.1374,6.7754,0.6925,5.4892,4.849,-2.1085,-5.0351,-2.3022,-1.7926,-1.9627,-3.9378,0.4348,-2.0618,-2.3022,1.0573,-8.5237,-3.9915,2.1036,-0.0873,-0.2167,-0.7375
-0.0358,-0.8199,0.6405,0.9255,4.3057,1.9301,7.6241,9.8178,6.3821,8.881,6.7391,0.5741,5.9172,5.4807,-1.6959,-4.4746,-1.9488,-1.4617,-1.5553,-3.2517,1.2377,-1.5449,-2.0677,1.2723,-8.5488,-4.405,1.9157,-0.3239,-0.1389,-0.6438
0.2343,-0.0158,0.634,1.7038,4.9877,2.3808,7.7685,9.8276,6.2628,8.6956,6.686,0.4765,6.412,6.212,-1.3317,-3.7392,-1.4244,-0.992,-0.922,-2.3813,2.1969,-0.8449,-1.6213,1.631,-8.3618,-4.5844,1.9055,-0.4926,-0.1016,-0.6016
0.5121,0.8938,0.5878,2.5575,5.8045,2.9785,8.0899,9.9489,6.23,8.6334,6.6507,0.4407,7.0146,7.071,-1.0204,-2.829,-0.71,-0.3678,-0.0387,-1.3091,3.3356,0.0644,-0.9464,2.1774,-7.9449,-4.4888,2.1329,-0.5435,-0.1267,-0.6264
0.7746,1.8433,0.5188,3.4462,6.732,3.6858,8.5962,10.1931,6.3102,8.7358,6.6702,0.5126,7.7448,8.0613,-0.7612,-1.7725,0.1708,0.3996,1.0744,-0.051,4.6511,1.1763,-0.0624,2.93,-7.3009,-4.1008,2.6333,-0.4252,-0.2384,-0.7341
0.9958,2.763,0.4424,4.3236,7.7319,4.4508,9.2722,10.5612,6.5163,9.0274,6.7774,0.7331,8.5967,9.1589,-0.5504,-0.6227,1.1566,1.2723,2.354,1.3442,6.111,2.4488,0.9773,3.8745,-6.4557,-3.4322,3.4091,-0.0963,-0.4572,-0.9356
1.1523,3.5926,0.3698,5.1459,8.7583,5.2191,10.0856,11.0444,6.847,9.5111,6.9936,1.1286,9.5382,10.3153,-0.3841,0.5508,2.1633,2.1928,3.7045,2.8036,7.6557,3.8102,2.0934,4.9643,-5.4566,-2.5247,4.427,0.4635,-0.7928,-1.2318
1.2294,4.2914,0.3071,5.8789,9.7643,5.9445,10.9921,11.6249,7.2869,10.1651,7.3224,1.7026,10.5161,11.4652,-0.2604,1.6736,3.1038,3.0942,5.0167,4.2419,9.2036,5.1696,3.1953,6.1264,-4.3692,-1.4469,5.6221,1.2435,-1.2391,-1.6112
1.2242,4.8429,0.2555,6.5036,10.7077,6.596,11.9418,12.2771,7.8077,10.9419,7.7472,2.4304,11.4638,12.5376,-0.1806,2.6779,3.9052,3.9115,6.1877,5.5767,10.6625,6.4318,4.1958,7.2733,-3.272,-0.2884,6.9053,2.1979,-1.7726,-2.0512
1.1465,5.2544,0.2124,7.0186,11.5539,7.16,12.8826,12.9698,8.3708,11.7715,8.232,3.2611,12.3119,13.4671,-0.1487,3.5114,4.5208,4.5909,7.1385,6.7403,11.9428,7.5116,5.0243,8.317,-2.2489,0.8508,8.1757,3.2479,-2.3541,-2.5219
1.0166,5.5515,0.1738,7.4384,12.2786,7.637,13.7634,13.6686,8.9306,12.5691,8.7279,4.1239,12.9994,14.2039,-0.1684,4.1439,4.934,5.0968,7.825,7.6879,12.9711,8.3462,5.6361,9.1829,-1.3798,1.8711,9.3331,4.2911,-2.9335,-2.9909
0.8616,5.7698,0.1364,7.7879,12.867,8.0353,14.5379,14.3382,9.441,13.2474,9.1825,4.9405,13.4831,14.7203,-0.2401,4.5687,5.1555,5.4154,8.2408,8.4003,13.701,8.9034,6.0171,9.8213,-0.7309,2.6857,10.2907,5.2176,-3.4575,-3.4281
0.7088,5.9452,0.0983,8.0934,13.3125,8.3641,15.1667,14.9451,9.8607,13.7303,9.5497,5.6381,13.7442,15.0127,-0.3566,4.7995,5.2159,5.5542,8.4134,8.8804,14.1184,9.183,6.1821,10.2123,-0.3446,3.2311,10.9842,5.9285,-3.8785,-3.8093
0.5807,6.1044,0.0588,8.3731,13.6146,8.6275,15.6208,15.458,10.1591,13.9654,9.7974,6.161,13.79,15.0993,-0.5032,4.8647,5.1561,5.5389,8.3939,9.1468,14.2409,9.2143,6.1686,10.3659,-0.2319,3.4733,11.3779,6.3519,-4.1627,-4.1185
0.4895,6.2582,0.0165,8.6308,13.7766,8.8229,15.8833,15.8496,10.3191,13.9325,9.9112,6.4782,13.651,15.0144,-0.6592,4.8,5.0177,5.4066,8.2446,9.2259,14.1105,9.0477,6.0277,10.316,-0.3697,3.4104,11.4659,6.4536,-4.2964,-4.3488
0.4367,6.3998,-0.0304,8.8546,13.8048,8.9424,15.951,16.0975,10.3382,13.6453,9.8932,6.5849,13.3749,14.8023,-0.8017,4.642,4.8346,5.199,8.0264,9.1462,13.7851,8.7452,5.8143,10.1117,-0.7043,3.0692,11.2693,6.2403,-4.2871,-4.5015
0.4147,6.5085,-0.0819,9.0201,13.709,8.9781,15.8348,16.1874,10.2271,13.1471,9.7573,6.4998,13.0179,14.5107,-0.9106,4.4235,4.629,4.9552,7.7897,8.9351,13.3281,8.3707,5.5795,9.8076,-1.1625,2.4988,10.8307,5.754,-4.1606,-4.5831
0.4121,6.5573,-0.1311,9.0976,13.5028,8.927,15.5592,16.1159,10.0064,12.5022,9.5243,6.2585,12.6358,14.1848,-0.9717,4.1719,4.4106,4.7066,7.5682,8.6194,12.8013,7.9817,5.3657,9.4544,-1.6666,1.7611,10.2071,5.0629,-3.9525,-4.6015
0.42,6.5228,-0.1615,9.0607,13.2056,8.7959,15.1611,15.8931,9.7035,11.7839,9.2177,5.9061,12.2764,13.8645,-0.9798,3.9092,4.1794,4.4739,7.3785,8.2264,12.2592,7.6238,5.2034,9.0924,-2.1498,0.9216,9.4619,4.2487,-3.6986,-4.5627
0.4355,6.3937,-0.1467,8.8943,12.8421,8.602,14.6864,15.5439,9.3486,11.0643,8.8604,5.4903,11.9737,13.5808,-0.9385,3.6529,3.9313,4.267,7.2229,7.785,11.7469,7.3283,5.1113,8.7476,-2.5685,0.0412,8.6586,3.3942,-3.4263,-4.4691
0.4637,6.1769,-0.0569,8.6006,12.4413,8.3718,14.1847,15.1053,8.9722,10.4042,8.4737,5.0557,11.7453,13.3551,-0.8592,3.4168,3.6648,4.0878,7.0949,7.3247,11.2974,7.1115,5.0952,8.4313,-2.9069,-0.83,7.8546,2.5735,-3.15,-4.3212
0.5143,5.899,0.1327,8.2012,12.0335,8.1364,13.7027,14.6217,8.602,9.8475,8.076,4.6385,11.5923,13.1975,-0.7568,3.2106,3.3861,3.9336,6.985,6.8728,10.9297,6.9758,5.1493,8.1413,-3.1742,-1.6551,7.0965,1.8426,-2.8725,-4.1204
0.598,5.603,0.4329,7.7348,11.6467,7.9261,13.277,14.139,8.2612,9.4171,7.6831,4.2634,11.5016,13.1059,-0.6448,3.0394,3.112,3.8009,6.8844,6.4503,10.6479,6.9115,5.2565,7.866,-3.3959,-2.41,6.4164,1.2353,-2.5897,-3.8716
0.7206,5.3391,0.8343,7.2508,11.3024,7.7649,12.9283,13.6982,7.9672,9.1157,7.3084,3.9418,11.4494,13.0656,-0.5302,2.9023,2.8675,3.6877,6.786,6.0691,10.4414,6.8987,5.39,7.5884,-3.6027,-3.0811,5.8307,0.7616,-2.2968,-3.5854
0.8794,5.1545,1.3053,6.8001,11.0125,7.6665,12.6588,13.3305,7.7314,8.9281,6.9637,3.673,11.4062,13.0503,-0.4123,2.7912,2.6795,3.5937,6.6832,5.7298,10.2878,6.9097,5.5163,7.2908,-3.8193,-3.6627,5.3407,0.4103,-1.9931,-3.28
1.0615,5.0819,1.7951,6.4254,10.7785,7.6327,12.4542,13.0547,7.5588,8.8255,6.6588,3.4471,11.3425,13.0256,-0.2859,2.691,2.5693,3.5186,6.5691,5.4227,10.159,6.913,5.5998,6.9596,-4.0582,-4.1538,4.9345,0.1551,-1.6848,-2.9806
1.2448,5.1322,2.2406,6.1529,10.5921,7.6535,12.289,12.8759,7.4482,8.7718,6.4008,3.2493,11.2335,12.9545,-0.1473,2.5819,2.5461,3.46,6.4365,5.1314,10.0281,6.8783,5.6093,6.5891,-4.3171,-4.5581,4.5927,-0.0377,-1.3851,-2.7188
1.4011,5.2916,2.578,5.988,10.4381,7.7089,12.1339,12.7866,7.3915,8.7288,6.1911,3.0642,11.0635,12.8051,-0.0005,2.4434,2.6048,3.4128,6.2802,4.8383,9.8765,6.7829,5.5256,6.1838,-4.5818,-4.8827,4.293,-0.2012,-1.1135,-2.5276
1.5009,5.5239,2.7543,5.9144,10.2981,7.7712,11.9627,12.7681,7.3743,8.6622,6.0233,2.8793,10.8284,12.5572,0.1406,2.2596,2.7264,3.3695,6.1003,4.5296,9.6971,6.6165,5.3471,5.7589,-4.8313,-5.1385,4.0166,-0.361,-0.8937,-2.4361
1.5194,5.7772,2.7383,5.8982,10.1537,7.808,11.7582,12.794,7.3754,8.5455,5.8821,2.6857,10.5353,12.2078,0.2551,2.0227,2.8832,3.3233,5.9039,4.2001,9.4949,6.3853,5.0925,5.3389,-5.0443,-5.3389,3.7518,-0.5311,-0.7498,-2.461
1.4417,5.9954,2.528,5.8962,9.9908,7.7881,11.5145,12.8333,7.3688,8.3636,5.7443,2.4791,10.2021,11.773,0.3223,1.7362,3.0451,3.2708,5.7066,3.8552,9.2842,6.112,4.799,4.9541,-5.2041,-5.4976,3.4971,-0.7128,-0.7,-2.6003
1.2691,6.13,2.1545,5.8664,9.8033,7.6892,11.2384,12.8558,7.3273,8.1155,5.584,2.2588,9.8545,11.2872,0.3316,1.416,3.1872,3.2154,5.5308,3.5109,9.0849,5.8338,4.5174,4.6363,-5.3,-5.6254,3.2613,-0.8963,-0.7495,-2.8292
1.0217,6.1524,1.6787,5.779,9.5951,7.5054,10.9472,12.837,7.227,7.8142,5.3808,2.0286,9.5241,10.798,0.2895,1.089,3.297,3.1693,5.4023,3.1918,8.9181,5.5962,4.3023,4.415,-5.3272,-5.7274,3.0621,-1.0642,-0.8851,-3.1017
0.7371,6.0599,1.1822,5.6231,9.3803,7.2518,10.6655,12.7627,7.0531,7.4851,5.1275,1.7966,9.2438,10.3585,0.2216,0.79,3.3779,3.1516,5.3454,2.9266,8.8021,5.4451,4.2018,4.3121,-5.2835,-5.8012,2.9219,-1.1955,-1.074,-3.3577
0.4642,5.8768,0.7519,5.4088,9.1797,6.962,10.4191,12.6309,6.8032,7.1606,4.835,1.5759,9.0436,10.0179,0.1679,0.5562,3.448,3.1847,5.3764,2.7424,8.7486,5.4174,4.2468,4.3382,-5.1679,-5.8387,2.8619,-1.2713,-1.2696,-3.5355
0.2534,5.6475,0.4621,5.1631,9.0153,6.6801,10.2281,12.4508,6.4882,6.8721,4.5303,1.3824,8.9439,9.8108,0.1728,0.4196,3.5347,3.2874,5.4991,2.6582,8.7595,5.5311,4.4437,4.4885,-4.9801,-5.8303,2.8951,-1.2795,-1.422,-3.5842
0.1453,5.4258,0.3595,4.9205,8.9035,6.4498,10.1008,12.2392,6.1289,6.6424,4.2495,1.2319,8.9498,9.7503,0.2735,0.4,3.6658,3.4689,5.7025,2.6791,8.8244,5.7801,4.7723,4.7407,-4.7227,-5.7704,3.019,-1.2189,-1.4893,-3.4742
0.1627,5.2622,0.4542,4.7124,8.8498,6.3029,10.0295,12.0144,5.7508,6.4787,4.0261,1.1358,9.0473,9.8229,0.4904,0.4995,3.8612,3.7245,5.9617,2.7929,8.9206,6.133,5.1897,5.0553,-4.4047,-5.6629,3.2117,-1.1023,-1.4474,-3.2024
0.3066,5.1926,0.7207,4.5577,8.8453,6.2516,9.9907,11.7912,5.3769,6.3701,3.8806,1.0967,9.204,9.9905,0.8212,0.7009,4.1256,4.0341,6.2425,2.97,9.0148,6.5365,5.6377,5.3798,-4.0441,-5.5236,3.4329,-0.9551,-1.2931,-2.7911
0.5569,5.2317,1.1062,4.4578,8.8677,6.2862,9.9501,11.5776,5.0243,6.29,3.814,1.1071,9.3743,10.1966,1.2397,0.9698,4.4462,4.3643,6.5073,3.1673,9.0674,6.9251,6.0535,5.6552,-3.6688,-5.3789,3.6299,-0.8121,-1.0424,-2.282
0.8793,5.3728,1.5433,4.3985,8.8856,6.3795,9.8706,11.3744,4.7017,6.2029,3.8078,1.1506,9.5082,10.3777,1.6994,1.2609,4.7944,4.6735,6.7225,3.3358,9.0389,7.2319,6.3791,5.8256,-3.314,-5.2617,3.7479,-0.7111,-0.7234,-1.7279
1.2324,5.5918,1.9629,4.3551,8.8656,6.4955,9.7215,11.1776,4.411,6.0737,3.8297,1.2051,9.5617,10.4754,2.1423,1.5264,5.1309,4.9187,6.8644,3.4303,8.8968,7.401,6.5694,5.8477,-3.0183,-5.2053,3.7415,-0.6851,-0.3691,-1.1831
1.5766,5.8543,2.3061,4.2997,8.7793,6.5979,9.4854,10.982,4.1497,5.8763,3.8437,1.2482,9.5051,10.4474,2.5115,1.7247,5.4136,5.0639,6.9238,3.4182,8.6221,7.3968,6.5984,5.6981,-2.8167,-5.237,3.5845,-0.756,-0.0097,-0.6955
1.8804,6.1227,2.5321,4.2064,8.6081,6.6588,9.1616,10.7837,3.914,5.5987,3.8193,1.2617,9.3279,10.2743,2.7629,1.8278,5.607,5.0874,6.9056,3.2857,8.2126,7.2097,6.4618,5.377,-2.7337,-5.3725,3.275,-0.9298,0.3318,-0.3
2.1235,6.3611,2.6241,4.0554,8.3458,6.6617,8.7641,10.5811,3.6995,5.2437,3.7387,1.2339,9.0389,9.9611,2.8752,1.8255,5.6907,4.9863,6.8267,3.0396,7.6837,6.8565,6.1779,4.9083,-2.7779,-5.6118,2.8356,-1.1957,0.6427,-0.0151
2.2983,6.5392,2.5894,3.8357,7.9981,6.6023,8.3176,10.3744,3.5017,4.8267,3.599,1.1611,8.6629,9.5347,2.8525,1.7263,5.6658,4.7781,6.7117,2.7053,7.0659,6.377,5.786,4.3355,-2.9383,-5.9382,2.3083,-1.5274,0.9199,0.1578
2.4081,6.6351,2.4562,3.5462,7.5807,6.4852,7.8506,10.1639,3.3156,4.3709,3.4115,1.047,8.2339,9.0372,2.7224,1.555,5.5557,4.4983,6.5881,2.3206,6.4001,5.8259,5.3411,3.7144,-3.1854,-6.3211,1.7462,-1.8881,1.1682,0.2315
2.4643,6.6388,2.265,3.1972,7.1156,6.3211,7.3893,9.9493,3.1349,3.9021,3.1964,0.9007,7.7887,8.5182,2.5273,1.347,5.4011,4.1932,6.4812,1.9287,5.7316,5.2635,4.9067,3.1039,-3.4766,-6.7219,1.2038,-2.237,1.3966,0.2286
2.4817,6.5533,2.0585,2.8103,6.6286,6.123,6.9536,9.73,2.9526,3.4445,2.9769,0.7347,7.3601,8.0255,2.3135,1.1398,5.2498,3.9107,6.409,1.5695,5.1037,4.745,4.5436,2.5569,-3.7652,-7.1012,0.727,-2.5374,1.6135,0.1749
2.4742,6.3936,1.8714,2.4142,6.1453,5.9049,6.5539,9.5061,2.7622,3.0167,2.7736,0.5629,6.9726,7.5977,2.121,0.9638,5.1441,3.6899,6.3788,1.2718,4.5512,4.3114,4.2981,2.1122,-4.0099,-7.4269,0.3461,-2.7628,1.8219,0.0938
2.4509,6.1824,1.7232,2.0401,5.6888,5.6799,6.1921,9.2808,2.5606,2.6302,2.6001,0.3992,6.6407,7.2583,1.9754,0.8343,5.1102,3.553,6.3856,1.0479,4.0968,3.9842,4.1926,1.7901,-4.1842,-7.6791,0.0717,-2.9017,2.0169,0.0015
2.4142,5.9434,1.6166,1.7137,5.2771,5.4598,5.8633,9.0619,2.3503,2.2895,2.4614,0.2568,6.369,7.015,1.885,0.7477,5.152,3.5016,6.4134,0.8927,3.7493,3.7642,4.2215,1.5909,-4.2802,-7.8525,-0.1048,-2.9584,2.1857,-0.0957
2.3612,5.6958,1.5407,1.4513,4.9221,5.2546,5.5604,8.8637,2.1414,1.9941,2.3554,0.1487,6.1545,6.8608,1.8424,0.6846,5.2531,3.5183,6.4401,0.7864,3.5057,3.6355,4.3532,1.4977,-4.3081,-7.9555,-0.2066,-2.9499,2.3129,-0.2005
2.288,5.4532,1.4793,1.2582,4.6313,5.0732,5.2789,8.7056,1.9515,1.7417,2.2751,0.0872,5.9903,6.7799,1.8293,0.6175,5.3834,3.5732,6.4434,0.703,3.3558,3.5732,4.5394,1.4822,-4.2914,-8.0059,-0.2648,-2.9008,2.3864,-0.3204
2.1954,5.2251,1.4202,1.132,4.4101,4.9251,5.0205,8.6096,1.8037,1.5316,2.2121,0.0838,5.8678,6.7531,1.8239,0.5232,5.5105,3.6328,6.4087,0.6192,3.2869,3.5521,4.7264,1.5117,-4.2589,-8.026,-0.3094,-2.8361,2.4038,-0.4622
2.0926,5.0223,1.3615,1.0686,4.2645,4.8214,4.7944,8.5948,1.7207,1.365,2.1584,0.1471,5.7788,6.7623,1.8084,0.3924,5.61,3.6697,6.3343,0.5235,3.2876,3.5533,4.8678,1.5556,-4.2384,-8.0366,-0.3624,-2.7757,2.376,-0.6253
1.9989,4.8604,1.3132,1.0663,4.2022,4.7744,4.6143,8.6714,1.7185,1.2443,2.1067,0.2795,5.7147,6.7928,1.775,0.2349,5.6708,3.6678,6.2318,0.4185,3.3491,3.5671,4.9316,1.5898,-4.2516,-8.0539,-0.435,-2.7315,2.3264,-0.7983
1.9388,4.7579,1.2931,1.1262,4.2299,4.7946,4.4933,8.8343,1.7992,1.1696,2.049,0.4738,5.666,6.8327,1.727,0.0765,5.6949,3.6244,6.1217,0.3194,3.463,3.591,4.9041,1.5977,-4.3125,-8.0879,-0.5286,-2.7085,2.2866,-0.9598
1.9352,4.7298,1.3199,1.2475,4.3484,4.8847,4.4369,9.0606,1.9465,1.1347,1.9749,0.7105,5.62,6.8705,1.6756,-0.0509,5.6911,3.5455,6.0238,0.2456,3.6181,3.6249,4.7875,1.5683,-4.427,-8.144,-0.6398,-2.7088,2.2885,-1.0843
2.0002,4.7786,1.4071,1.4205,4.5468,5.0352,4.4369,9.3099,2.1254,1.1241,1.8706,0.9574,5.5612,6.8931,1.634,-0.1218,5.6666,3.4397,5.9481,0.211,3.7967,3.6646,4.5947,1.4927,-4.5946,-8.2248,-0.7669,-2.7368,2.3554,-1.1511
2.129,4.8877,1.558,1.6219,4.7992,5.2223,4.4696,9.5308,2.2855,1.1134,1.7194,1.1735,5.4721,6.8844,1.6112,-0.1274,5.6209,3.3125,5.8893,0.2168,3.9738,3.6993,4.343,1.3625,-4.8087,-8.3325,-0.9138,-2.8024,2.495,-1.1528
2.2995,5.0233,1.7644,1.815,5.0666,5.4114,4.4982,9.6699,2.3706,1.073,1.5056,1.3155,5.3372,6.8276,1.61,-0.0791,5.5453,3.164,5.8278,0.2495,4.1194,3.7121,4.0493,1.17,-5.0583,-8.469,-1.0904,-2.9208,2.6972,-1.098
2.4773,5.1418,2.0087,1.9565,5.3035,5.5645,4.4803,9.6822,2.3292,0.9762,1.2195,1.3469,5.1474,6.709,1.6284,-0.0041,5.4268,2.9915,5.7374,0.2851,4.2041,3.6845,3.7282,0.9113,-5.3278,-8.6347,-1.309,-3.1077,2.936,-1.0094
2.6252,5.202,2.2664,2.007,5.4675,5.6497,4.3787,9.541,2.1265,0.8073,0.8629,1.2466,4.9028,6.5222,1.6624,0.063,5.2553,2.7936,5.5957,0.2963,4.2052,3.6033,3.3925,0.5903,-5.5991,-8.8269,-1.5785,-3.3736,3.1766,-0.9166
2.7118,5.1759,2.5105,1.9412,5.5282,5.6484,4.1706,9.2429,1.7527,0.5687,0.4519,1.0139,4.6139,6.2712,1.7094,0.09,5.0294,2.5747,5.3931,0.2611,4.1123,3.4648,3.055,0.221,-5.8528,-9.0377,-1.8984,-3.7171,3.3832,-0.8469
2.7195,5.0544,2.7152,1.754,5.4735,5.5593,3.8544,8.8087,1.2267,0.2816,0.0162,0.67,4.2991,5.97,1.767,0.054,4.7585,2.3456,5.1358,0.1673,3.9276,3.2766,2.7296,-0.1724,-6.0711,-9.2543,-2.2561,-4.1217,3.5271,-0.8188
2.6456,4.8465,2.8595,1.4609,5.3092,5.3963,3.4505,8.2781,0.5926,-0.0175,-0.4054,0.2546,3.9799,5.6381,1.8309,-0.0572,4.461,2.121,4.8428,0.0126,3.6629,3.0547,2.4309,-0.5596,-6.2407,-9.4598,-2.6276,-4.5552,3.5916,-0.8388
2.5009,4.5735,2.9299,1.093,5.0544,5.1816,2.9966,7.7016,-0.088,-0.2869,-0.7723,-0.1816,3.6754,5.2955,1.8894,-0.2475,4.158,1.9146,4.5372,-0.1993,3.333,2.8182,2.1723,-0.91,-6.3551,-9.6347,-2.9811,-4.9741,3.574,-0.902
2.3029,4.2585,2.9208,0.6877,4.734,4.9374,2.5385,7.1304,-0.7469,-0.4899,-1.05,-0.5861,3.3977,4.9557,1.921,-0.5176,3.867,1.7328,4.238,-0.4652,2.9499,2.5832,1.9629,-1.1991,-6.4157,-9.7595,-3.284,-5.3308,3.4826,-0.9959
2.0695,3.9176,2.8329,0.2789,4.3701,4.6781,2.1188,6.6072,-1.3216,-0.6055,-1.2169,-0.9146,3.1495,4.6222,1.8937,-0.8701,3.5952,1.5713,3.9535,-0.7872,2.5181,2.3588,1.8048,-1.4142,-6.4324,-9.818,-3.5092,-5.5838,3.3313,-1.1056
1.8128,3.5532,2.6689,-0.1112,3.9768,4.4075,1.7667,6.1612,-1.7647,-0.6334,-1.2683,-1.1391,2.9246,4.2873,1.7707,-1.3118,3.336,1.4145,3.68,-1.1754,2.0346,2.1452,1.6923,-1.5568,-6.4227,-9.8009,-3.6425,-5.7074,3.1333,-1.2186
1.5358,3.1527,2.4296,-0.4776,3.5574,4.1185,1.4915,5.8054,-2.0517,-0.5951,-1.2167,-1.2531,2.7095,3.9345,1.5201,-1.853,3.0698,1.2397,3.4054,-1.6458,1.4907,1.935,1.6128,-1.6419,-6.4093,-9.7104,-3.6856,-5.6996,2.8963,-1.3287
1.2332,2.6938,2.1126,-0.8333,3.1064,3.7975,1.2814,5.5378,-2.1832,-0.5287,-1.0892,-1.2718,2.4874,3.5441,1.1269,-2.5038,2.7686,1.0236,3.1148,-2.2151,0.877,1.7166,1.5492,-1.6942,-6.4156,-9.5611,-3.6571,-5.5839,2.622,-1.4369
0.8955,2.1529,1.7154,-1.2058,2.6135,3.4302,1.1064,5.3448,-2.1841,-0.481,-0.922,-1.2283,2.2409,3.0983,0.6026,-3.2676,2.4038,0.7499,2.7971,-2.8939,0.1883,1.4779,1.485,-1.7427,-6.4603,-9.3797,-3.5893,-5.4058,2.3087,-1.5495
0.5147,1.5159,1.2419,-1.6291,2.0691,3.0066,0.9266,5.2059,-2.0977,-0.4985,-0.7552,-1.1663,1.955,2.5864,-0.0123,-4.1349,1.9547,0.4146,2.4482,-3.6808,-0.573,1.2097,1.4078,-1.8148,-6.5521,-9.2009,-3.523,-5.2235,1.9559,-1.675
0.0895,0.7858,0.7078,-2.1338,1.469,2.5258,0.7011,5.0974,-1.9778,-0.6184,-0.6265,-1.1321,1.6178,2.0074,-0.6531,-5.0798,1.4159,0.028,2.0721,-4.56,-1.3938,0.9075,1.3117,-1.9324,-6.6865,-9.0603,-3.4997,-5.096,1.5692,-1.8191
-0.3708,-0.0123,0.1422,-2.7357,0.8189,1.9976,0.3985,4.9961,-1.8781,-0.8628,-0.5667,-1.1655,1.2218,1.37,-1.2434,-6.0602,0.8009,-0.3874,1.6779,-5.5024,-2.2498,0.5714,1.1977,-2.1089,-6.845,-8.9874,-3.555,-5.0708,1.1642,-1.9812
-0.8452,-0.8336,-0.4146,-3.4282,0.1363,1.443,0.0041,4.8813,-1.8434,-1.2354,-0.5965,-1.2938,0.7649,0.6921,-1.7117,-7.0225,0.1413,-0.8014,1.2768,-6.4692,-3.1069,0.2055,1.0719,-2.3482,-6.9983,-8.9981,-3.7111,-5.1732,0.766,-2.1528
-1.3031,-1.6202,-0.9162,-4.1803,-0.55,0.892,-0.4761,4.7357,-1.9015,-1.7215,-0.724,-1.5274,0.2517,-0.0019,-2.0086,-7.91,-0.518,-1.184,0.878,-7.4177,-3.9242,-0.1829,0.9429,-2.6446,-7.1121,-9.0909,-3.9726,-5.4008,0.4081,-2.3187
-1.7088,-2.3118,-1.316,-4.9409,-1.2025,0.3804,-1.0162,4.5463,-2.0599,-2.2905,-0.9443,-1.8593,-0.3058,-0.6826,-2.12,-8.6723,-1.1276,-1.512,0.487,-8.3069,-4.6587,-0.5838,0.8183,-2.9832,-7.1558,-9.2465,-4.3247,-5.724,0.1265,-2.4611
-2.0276,-2.8575,-1.5744,-5.6497,-1.7812,-0.0566,-1.5771,4.3044,-2.3069,-2.9009,-1.2412,-2.268,-0.8874,-1.3192,-2.0734,-9.2729,-1.6421,-1.7745,0.1067,-9.1009,-5.272,-0.9847,0.7035,-3.3419,-7.11,-9.4317,-4.7354,-6.093,-0.0467,-2.5648
-2.2322,-3.225,-1.6659,-6.2499,-2.2511,-0.391,-2.1154,4.0065,-2.6158,-3.5078,-1.5899,-2.7228,-1.467,-1.8828,-1.9323,-9.694,-2.0276,-1.975,-0.2606,-9.7717,-5.7373,-1.3709,0.6,-3.6945,-6.9729,-9.607,-5.1616,-6.4497,-0.0909,-2.6213
-2.3089,-3.407,-1.5853,-6.701,-2.5905,-0.6097,-2.5943,3.6547,-2.9522,-4.0693,-1.9614,-3.1894,-2.0158,-2.3502,-1.7807,-9.9374,-2.2655,-2.1276,-0.61,-10.2998,-6.0448,-1.7259,0.5053,-4.015,-6.7627,-9.7349,-5.5573,-6.7405,-0.0016,-2.6303
-2.2605,-3.4214,-1.3506,-6.9869,-2.796,-0.7188,-2.9907,3.2583,-3.2826,-4.5524,-2.3267,-3.6357,-2.506,-2.7078,-1.6995,-10.0219,-2.3527,-2.2518,-0.9326,-10.6751,-6.2045,-2.0334,0.4135,-4.2812,-6.5158,-9.7877,-5.8826,-6.9276,0.2075,-2.5983
-2.1067,-3.3069,-1.0009,-7.1177,-2.8834,-0.7429,-3.2977,2.8337,-3.5801,-4.9359,-2.66,-4.035,-2.9146,-2.9531,-1.7431,-9.9784,-2.3001,-2.3641,-1.2154,-10.8973,-6.2444,-2.279,0.3164,-4.4779,-6.2791,-9.7528,-6.1098,-6.9941,0.5066,-2.5352
-1.8807,-3.1133,-0.5896,-7.125,-2.8839,-0.7185,-3.5219,2.4035,-3.8287,-5.2101,-2.94,-4.3673,-3.2255,-3.0938,-1.9236,-9.8443,-2.129,-2.4724,-1.4441,-10.9754,-6.2042,-2.4519,0.2064,-4.5979,-6.0992,-9.6326,-6.2267,-6.9435,0.855,-2.4506
-1.6228,-2.8905,-0.1746,-7.0532,-2.8352,-0.683,-3.6775,1.993,-4.0234,-5.3746,-3.1514,-4.62,-3.4305,-3.1452,-2.2087,-9.6575,-1.8688,-2.5742,-1.6071,-10.9266,-6.1265,-2.5469,0.0777,-4.6424,-6.0112,-9.4429,-6.2368,-6.7946,1.2087,-2.3526
-1.3731,-2.6787,0.1934,-6.9489,-2.7734,-0.6655,-3.7801,1.6255,-4.1688,-5.4355,-3.2858,-4.7878,-3.5299,-3.1267,-2.5329,-9.4525,-1.5552,-2.6591,-1.7009,-10.7753,-6.0478,-2.5656,-0.0711,-4.6203,-6.0316,-9.2081,-6.1561,-6.575,1.5276,-2.2488
-1.1656,-2.5031,0.4784,-6.8521,-2.7254,-0.6803,-3.8422,1.3174,-4.2748,-5.4036,-3.3421,-4.873,-3.5321,-3.0589,-2.8183,-9.2572,-1.2283,-2.7144,-1.7347,-10.5512,-5.9915,-2.5179,-0.2364,-4.5474,-6.1567,-8.9572,-6.01,-6.3159,1.7813,-2.1485
-1.0234,-2.3736,0.6625,-6.7914,-2.7058,-0.7277,-3.872,1.0744,-4.3531,-5.2937,-3.3276,-4.8852,-3.4525,-2.9614,-2.9978,-9.0922,-0.9299,-2.7319,-1.731,-10.2868,-5.9656,-2.4214,-0.4098,-4.4447,-6.366,-8.7198,-5.8286,-6.0479,1.9532,-2.0645
-0.9578,-2.2898,0.7436,-6.7832,-2.7191,-0.8007,-3.8745,0.8909,-4.4139,-5.1253,-3.2574,-4.8403,-3.3127,-2.8529,-3.0341,-8.9707,-0.6997,-2.7124,-1.724,-10.0157,-5.9644,-2.3008,-0.5791,-4.3373,-6.6308,-8.523,-5.6429,-5.7996,2.0399,-2.0122
-0.97,-2.2484,0.7288,-6.8351,-2.7652,-0.8939,-3.8563,0.7503,-4.465,-4.9241,-3.1537,-4.7596,-3.14,-2.7519,-2.9291,-8.9002,-0.5709,-2.6681,-1.7526,-9.7708,-5.9753,-2.1847,-0.7315,-4.2519,-6.9223,-8.3893,-5.4816,-5.5962,2.0491,-2.0076
-1.0543,-2.2511,0.6275,-6.9506,-2.8456,-1.0112,-3.8288,0.6298,-4.5127,-4.7216,-3.0431,-4.6673,-2.9655,-2.6786,-2.723,-8.8848,-0.5656,-2.6213,-1.8531,-9.5826,-5.9862,-2.1032,-0.857,-4.2145,-7.219,-8.3344,-5.3678,-5.459,1.9951,-2.0626
-1.2011,-2.3093,0.4475,-7.1329,-2.9679,-1.1681,-3.8104,0.5044,-4.5631,-4.553,-2.9531,-4.5889,-2.8222,-2.6548,-2.4824,-8.9263,-0.6905,-2.5991,-2.0502,-9.4772,-5.993,-2.0824,-0.951,-4.2468,-7.5088,-8.3652,-5.3177,-5.4036,1.8941,-2.1807
-1.3986,-2.4429,0.1959,-7.3857,-3.145,-1.3866,-3.8255,0.3534,-4.6234,-4.4517,-2.9071,-4.5467,-2.74,-2.702,-2.2832,-9.025,-0.935,-2.6273,-2.351,-9.4722,-6.002,-2.1405,-1.0149,-4.3628,-7.7884,-8.4784,-5.3377,-5.4366,1.7613,-2.3533
-1.6325,-2.6735,-0.1171,-7.7105,-3.3901,-1.6869,-3.8987,0.1652,-4.7012,-4.4419,-2.9193,-4.5569,-2.7409,-2.8363,-2.1905,-9.1779,-1.2714,-2.723,-2.7417,-9.573,-6.0276,-2.2828,-1.0553,-4.5637,-8.0573,-8.6591,-5.4236,-5.5523,1.6101,-2.5592
-1.885,-3.0138,-0.4734,-8.102,-3.7098,-2.0776,-4.0491,-0.0595,-4.8032,-4.5329,-2.9908,-4.6254,-2.833,-3.0627,-2.2434,-9.3762,-1.6576,-2.8888,-3.1886,-9.7696,-6.0865,-2.4993,-1.0801,-4.8364,-8.3121,-8.8822,-5.5602,-5.7317,1.4519,-2.7669
-2.1351,-3.4576,-0.8459,-8.544,-4.0978,-2.5499,-4.2845,-0.3077,-4.9338,-4.7164,-3.1088,-4.7459,-3.0085,-3.3705,-2.4455,-9.6034,-2.0428,-3.1108,-3.6437,-10.0355,-6.1895,-2.7651,-1.0952,-5.1541,-8.5415,-9.1152,-5.7236,-5.9435,1.2973,-2.9403
-2.3592,-3.9733,-1.2001,-9.0067,-4.5319,-3.0756,-4.5996,-0.558,-5.0945,-4.9678,-3.25,-4.9015,-3.2444,-3.7322,-2.7643,-9.8351,-2.376,-3.3596,-4.0529,-10.3306,-6.3357,-3.0439,-1.1021,-5.4804,-8.7254,-9.3234,-5.8851,-6.15,1.1554,-3.0453
-2.5338,-4.5046,-1.5007,-9.448,-4.9752,-3.6101,-4.9765,-0.7852,-5.2835,-5.2522,-3.3861,-5.0676,-3.5072,-4.1067,-3.1385,-10.0412,-2.6134,-3.596,-4.3652,-10.6066,-6.5107,-3.295,-1.0965,-5.7762,-8.8387,-9.4758,-6.0173,-6.3143,1.0334,-3.0556
-2.6392,-4.979,-1.7191,-9.8178,-5.3813,-4.0993,-5.3888,-0.9664,-5.4964,-5.5313,-3.4909,-5.2176,-3.7596,-4.4458,-3.4908,-10.1901,-2.7262,-3.7773,-4.5412,-10.8149,-6.6887,-3.4806,-1.0694,-6.0068,-8.859,-9.5494,-6.1001,-6.408,0.9343,-2.9576
-2.6622,-5.3218,-1.8392,-10.0654,-5.7016,-4.4884,-5.8056,-1.0854,-5.7261,-5.7711,-3.5457,-5.328,-3.9675,-4.7031,-3.743,-10.254,-2.7025,-3.8659,-4.5573,-10.9148,-6.8388,-3.5729,-1.0091,-6.1482,-8.7752,-9.5323,-6.1239,-6.4157,0.8568,-2.7523
-2.5994,-5.4731,-1.8586,-10.1492,-5.8953,-4.7325,-6.1961,-1.1355,-5.9627,-5.9478,-3.5435,-5.3827,-4.1067,-4.8436,-3.8313,-10.2141,-2.5476,-3.8351,-4.4086,-10.8805,-6.9332,-3.5591,-0.905,-6.1902,-8.5937,-9.4246,-6.0915,-6.338,0.795,-2.4534
-2.4572,-5.4013,-1.7863,-10.045,-5.938,-4.8054,-6.5332,-1.1207,-6.1954,-6.0526,-3.4893,-5.3764,-4.1669,-4.8517,-3.719,-10.0641,-2.2809,-3.6754,-4.1089,-10.7063,-6.9546,-3.4436,-0.7504,-6.1374,-8.3413,-9.2383,-6.0168,-6.1896,0.7408,-2.0853
-2.2507,-5.1101,-1.6363,-9.7519,-5.8268,-4.7057,-6.7973,-1.0551,-6.4142,-6.0926,-3.3998,-5.3159,-4.1544,-4.7353,-3.4036,-9.8108,-1.9329,-3.3969,-3.6899,-10.4071,-6.9011,-3.2468,-0.5454,-6.0077,-8.0609,-8.9958,-5.9212,-5.997,0.6866,-1.6776
-2.0004,-4.6366,-1.4221,-9.2932,-5.5823,-4.4563,-6.9786,-0.9601,-6.612,-6.0898,-3.2989,-5.2193,-4.0913,-4.5262,-2.9182,-9.4729,-1.5404,-3.0288,-3.1969,-10.0165,-6.7872,-3.0013,-0.2975,-5.8285,-7.8031,-8.7272,-5.8297,-5.7936,0.629,-1.2611
-1.7277,-4.0423,-1.1541,-8.7117,-5.244,-4.099,-7.0782,-0.8604,-6.7869,-6.0758,-3.2133,-5.1144,-4.0114,-4.2736,-2.3243,-9.0759,-1.1423,-2.615,-2.6829,-9.5792,-6.6404,-2.7448,-0.0209,-5.6318,-7.6149,-8.4659,-5.7664,-5.6153,0.5712,-0.8635
-1.4516,-3.3997,-0.8426,-8.0632,-4.8637,-3.6859,-7.108,-0.7792,-6.9429,-6.0856,-3.1675,-5.0344,-3.9557,-4.0355,-1.7001,-8.6472,-0.7749,-2.2061,-2.201,-9.1433,-6.4951,-2.5143,0.2649,-5.4497,-7.5287,-8.2447,-5.7509,-5.4955,0.5231,-0.5061
-1.1871,-2.7795,-0.502,-7.4084,-4.4968,-3.2704,-7.0888,-0.734,-7.0885,-6.1505,-3.1799,-5.0124,-3.9651,-3.8681,-1.126,-8.2132,-0.4676,-1.8511,-1.797,-8.753,-6.3866,-2.3404,0.5378,-5.3108,-7.5556,-8.0905,-5.7958,-5.4609,0.4979,-0.2023
-0.9462,-2.2407,-0.1562,-6.8064,-4.195,-2.9011,-7.0481,-0.7342,-7.2343,-6.292,-3.2605,-5.075,-4.0739,-3.8161,-0.6719,-7.7976,-0.24,-1.5901,-1.5044,-8.4427,-6.345,-2.2452,0.774,-5.2374,-7.684,-8.021,-5.9057,-5.528,0.5074,0.0417
-0.7394,-1.8253,0.1625,-6.3095,-3.9998,-2.6177,-7.015,-0.7804,-7.3885,-6.5171,-3.4088,-5.2358,-4.3038,-3.9063,-0.3878,-7.4223,-0.101,-1.4495,-1.3417,-8.2354,-6.3916,-2.2419,0.9502,-5.2442,-7.884,-8.0412,-6.0768,-5.699,0.5559,0.2251
-0.5769,-1.5549,0.4178,-5.9579,-3.9368,-2.4478,-7.0153,-0.8654,-7.5522,-6.8156,-3.6125,-5.4899,-4.6576,-4.1437,-0.2976,-7.1079,-0.0496,-1.4392,-1.3112,-8.1416,-6.5353,-2.3353,1.0453,-5.3366,-8.1165,-8.1425,-6.2968,-5.9599,0.6373,0.3489
-0.467,-1.4302,0.5775,-5.774,-4.0111,-2.4023,-7.0663,-0.9759,-7.7162,-7.1597,-3.8479,-5.8114,-5.1158,-4.5099,-0.3977,-6.874,-0.078,-1.5527,-1.3987,-8.1605,-6.7702,-2.5221,1.0426,-5.5086,-8.3439,-8.3025,-6.5453,-6.2797,0.7362,0.4135
-0.4142,-1.4311,0.6208,-5.7581,-4.2052,-2.472,-7.1743,-1.0948,-7.861,-7.507,-4.0818,-6.1561,-5.6371,-4.9662,-0.6594,-6.7377,-0.1753,-1.7699,-1.5755,-8.2808,-7.0757,-2.7917,0.9315,-5.7428,-8.5379,-8.4875,-6.7947,-6.6128,0.8323,0.4166
-0.4164,-1.5195,0.5404,-5.886,-4.4805,-2.6253,-7.3338,-1.2038,-7.9605,-7.8072,-4.2759,-6.4691,-6.1638,-5.4595,-1.0353,-6.7113,-0.3325,-2.0615,-1.8022,-8.4832,-7.4185,-3.1269,0.7082,-6.0116,-8.6844,-8.6566,-7.0138,-6.9061,0.9075,0.3537
-0.4643,-1.6462,0.3409,-6.1143,-4.7844,-2.8128,-7.5314,-1.2865,-7.9876,-8.0117,-4.3946,-6.6969,-6.6332,-5.9324,-1.4703,-6.8005,-0.5449,-2.3955,-2.0363,-8.7432,-7.7594,-3.5072,0.3754,-6.2824,-8.783,-8.7694,-7.1724,-7.109,0.951,0.2191
-0.5434,-1.7603,0.034,-6.3894,-5.0621,-2.9774,-7.7503,-1.332,-7.9218,-8.0843,-4.412,-6.7989,-6.9909,-6.3347,-1.9127,-7.0027,-0.8126,-2.7436,-2.2398,-9.0357,-8.0611,-3.9124,-0.0587,-6.5241,-8.8437,-8.7944,-7.2479,-7.1843,0.9615,0.0083
-0.6378,-1.8206,-0.3646,-6.6608,-5.2696,-3.0696,-7.9754,-1.3361,-7.755,-8.0101,-4.3184,-6.7578,-7.2046,-6.6346,-2.325,-7.3064,-1.1372,-3.0855,-2.3872,-9.3396,-8.2979,-4.3263,-0.581,-6.7151,-8.8818,-8.716,-7.2311,-7.1173,0.9449,-0.279
-0.7343,-1.8047,-0.8363,-6.8932,-5.3854,-3.0622,-8.1965,-1.303,-7.4952,-7.7992,-4.1226,-6.5824,-7.272,-6.8258,-2.6886,-7.6914,-1.5165,-3.4111,-2.4696,-9.6401,-8.4616,-4.7387,-1.1733,-6.8479,-8.9132,-8.538,-7.1288,-6.9184,0.911,-0.6362
-0.825,-1.7139,-1.3568,-7.0731,-5.4146,-2.9585,-8.4088,-1.2427,-7.1651,-7.4852,-3.8504,-6.305,-7.2218,-6.927,-3.0033,-8.1305,-1.9396,-3.7184,-2.4949,-9.9302,-8.5626,-5.1456,-1.8123,-6.9304,-8.95,-8.2826,-6.9628,-6.6206,0.8684,-1.0468
-0.9075,-1.5705,-1.8953,-7.2081,-5.3866,-2.7903,-8.6117,-1.1689,-6.7977,-7.1174,-3.5389,-5.9728,-7.1059,-6.976,-3.2815,-8.5913,-2.3856,-4.0109,-2.484,-10.2088,-8.6261,-5.5469,-2.4707,-6.9824,-8.9984,-7.985,-6.7647,-6.2713,0.8229,-1.4851
