FP1,F3,F7,FC3,C3,C5,P3,P7,PO7,PO3,O1,Oz,Pz,CPz,FP2,Fz,F4,F8,FC4,FCz,Cz,C4,C6,P4,P8,PO8,PO4,O2,(corr) HEOG,(corr) VEOG
-0.8983,-0.1178,-0.6211,0.4983,2.0477,0.7739,1.6902,0.7085,1.2994,1.5804,0.8916,0.2189,1.6901,1.9031,-0.7014,0.3846,0.2498,-0.2995,0.8044,1.139,1.8254,2.1501,0.9677,1.2181,0.2686,0.2034,0.8361,0.486,0.8614,-0.9925
-0.9974,-0.5455,-0.9483,0.0352,1.4969,0.1648,1.5266,0.5117,1.1648,1.3485,0.7914,0.2175,1.6483,1.77,-0.7913,0.1908,0.1432,-0.4211,0.77,0.8909,1.5562,2.2444,1.0563,1.3725,0.464,0.4823,1.1674,0.624,0.8924,-0.8757
-1.012,-0.8974,-1.2246,-0.4251,0.8667,-0.4501,1.3251,0.2847,0.9831,1.1048,0.6475,0.191,1.5903,1.6307,-0.795,0.0948,0.1326,-0.4938,0.7665,0.7311,1.298,2.2378,1.0671,1.4698,0.5957,0.7069,1.4509,0.7153,0.9291,-0.7892
-0.9744,-1.1637,-1.4534,-0.8485,0.224,-1.0205,1.1113,0.0594,0.7857,0.8877,0.4952,0.1506,1.5227,1.4884,-0.7443,0.0822,0.1864,-0.5433,0.7583,0.6598,1.0528,2.0998,0.9734,1.4957,0.6517,0.8735,1.6737,0.7625,0.9712,-0.7447
-0.9224,-1.3494,-1.6382,-1.2088,-0.3689,-1.505,0.9101,-0.1374,0.6061,0.7325,0.3753,0.1105,1.4469,1.3398,-0.6803,0.1147,0.2557,-0.6011,0.7016,0.6468,0.8062,1.8128,0.76,1.441,0.6295,0.9817,1.8274,0.7716,1.0173,-0.7401
-0.8886,-1.4695,-1.7774,-1.4879,-0.8622,-1.874,0.7411,-0.2869,0.4742,0.6624,0.3243,0.0842,1.361,1.1786,-0.6422,0.1404,0.2871,-0.695,0.556,0.6409,0.5356,1.3782,0.4273,1.3033,0.5359,1.0325,1.9065,0.749,1.0643,-0.7594
-0.8916,-1.5425,-1.8625,-1.6756,-1.2221,-2.1106,0.616,-0.3804,0.4108,0.6819,0.3651,0.081,1.2628,1.0015,-0.6567,0.1091,0.2372,-0.8404,0.2967,0.5847,0.2215,0.8206,-0.0056,1.0881,0.3855,1.0267,1.9082,0.6991,1.1078,-0.7763
-0.9319,-1.5834,-1.8796,-1.7679,-1.4327,-2.2101,0.5385,-0.4193,0.4229,0.7741,0.5018,0.1038,1.154,0.8127,-0.731,-0.0138,0.0849,-1.0346,-0.0762,0.4344,-0.1411,0.1872,-0.5013,0.8114,0.1994,0.9656,1.8329,0.6239,1.1436,-0.7617
-0.9922,-1.5995,-1.814,-1.7655,-1.4946,-2.179,0.5062,-0.4133,0.5028,0.9048,0.7186,0.1489,1.0422,0.6281,-0.851,-0.2348,-0.1613,-1.2555,-0.5334,0.1747,-0.5349,-0.4574,-1.0082,0.4993,0.0017,0.8526,1.687,0.5243,1.1687,-0.693
-1.0425,-1.5872,-1.6545,-1.6735,-1.4216,-2.0332,0.512,-0.3785,0.6291,1.0301,0.9835,0.2073,0.9413,0.4735,-0.9837,-0.5281,-0.4636,-1.4652,-1.0192,-0.1726,-0.9205,-1.0403,-1.4676,0.1862,-0.1831,0.6944,1.4837,0.4019,1.1832,-0.562
-1.0474,-1.5336,-1.3991,-1.5005,-1.2383,-1.796,0.5458,-0.3338,0.7711,1.1056,1.2553,0.266,0.8672,0.3795,-1.0853,-0.8395,-0.7612,-1.6176,-1.4612,-0.552,-1.2435,-1.4924,-1.8236,-0.0907,-0.3349,0.5016,1.2429,0.2607,1.1912,-0.3789
-0.9753,-1.4208,-1.0571,-1.2596,-0.9758,-1.4961,0.5957,-0.2979,0.8948,1.0958,1.4917,0.3103,0.8325,0.3725,-1.1107,-1.0979,-0.9843,-1.6687,-1.7848,-0.8869,-1.4482,-1.7618,-2.0336,-0.2992,-0.4402,0.2883,0.9886,0.1073,1.1997,-0.1714
-0.806,-1.2321,-0.6508,-0.9682,-0.6689,-1.1668,0.6482,-0.2861,0.9701,0.9802,1.6561,0.3254,0.8407,0.4658,-1.0247,-1.233,-1.0694,-1.5862,-1.9295,-1.0992,-1.4915,-1.8237,-2.0765,-0.4194,-0.4949,0.0706,0.7448,-0.0497,1.2162,0.0213
-0.5367,-0.9592,-0.213,-0.648,-0.3532,-0.8433,0.6905,-0.306,0.9763,0.7566,1.7235,0.2992,0.8829,0.6541,-0.8101,-1.192,-0.9745,-1.358,-1.8621,-1.1294,-1.3554,-1.685,-1.9565,-0.448,-0.5031,-0.135,0.5312,-0.2003,1.2461,0.159
-0.1819,-0.6064,0.2163,-0.3239,-0.0615,-0.5609,0.7123,-0.356,0.9073,0.4417,1.6846,0.2251,0.9393,0.9126,-0.4717,-0.9539,-0.6891,-0.995,-1.584,-0.9514,-1.0517,-1.3819,-1.7015,-0.398,-0.4744,-0.3113,0.3616,-0.3332,1.2896,0.2106
0.2281,-0.1932,0.5957,-0.0219,0.1786,-0.3508,0.7091,-0.4234,0.7746,0.07,1.5479,0.1056,0.9842,1.2024,-0.0357,-0.5342,-0.2357,-0.5296,-1.1296,-0.5783,-0.6197,-0.9706,-1.3556,-0.2931,-0.4193,-0.4412,0.2444,-0.4359,1.3404,0.1628
0.6534,0.2472,0.8877,0.2338,0.3464,-0.2374,0.6829,-0.4859,0.6069,-0.3102,1.3404,-0.0462,0.9935,1.4781,0.4554,0.018,0.3339,-0.011,-0.5589,-0.0587,-0.1181,-0.5145,-0.9687,-0.1599,-0.3444,-0.5065,0.1851,-0.4942,1.3857,0.023
1.0497,0.672,1.0629,0.4219,0.429,-0.2343,0.6419,-0.5156,0.4465,-0.6428,1.1042,-0.2056,0.9504,1.6961,0.9488,0.6288,0.9487,0.5028,0.0544,0.5329,0.3859,-0.072,-0.588,-0.0198,-0.2499,-0.4897,0.1885,-0.4928,1.4087,-0.1831
1.3734,1.0336,1.103,0.5256,0.4197,-0.344,0.5978,-0.485,0.341,-0.8727,0.891,-0.3389,0.849,1.8209,1.3889,1.2129,1.5303,0.952,0.6347,1.1105,0.8259,0.3118,-0.2509,0.1144,-0.1303,-0.3756,0.2595,-0.4162,1.3926,-0.4184
1.5857,1.286,1.0017,0.5326,0.3179,-0.5573,0.5626,-0.3739,0.3329,-0.954,0.7534,-0.408,0.694,1.8282,1.7227,1.6873,2.0037,1.2814,1.1141,1.5889,1.1439,0.6081,0.0163,0.2395,0.0225,-0.1556,0.4021,-0.2511,1.3261,-0.644
1.6566,1.3907,0.7657,0.4359,0.1286,-0.855,0.5476,-0.1761,0.4489,-0.8582,0.7358,-0.3758,0.4995,1.707,1.906,1.9825,2.3076,1.4465,1.4397,1.8963,1.2954,0.8033,0.1978,0.3592,0.2146,0.1696,0.6173,0.0115,1.2089,-0.8272
1.5695,1.3242,0.4144,0.2351,-0.1366,-1.2092,0.5621,0.0976,0.693,-0.5793,0.8665,-0.2125,0.286,1.4601,1.9081,2.053,2.4026,1.4188,1.579,1.9832,1.2538,0.8962,0.2867,0.4809,0.4468,0.5885,0.9017,0.3736,1.0551,-0.9473
1.3258,1.0833,-0.0208,-0.0613,-0.458,-1.5856,0.6139,0.4185,1.042,-0.1357,1.1522,0.0985,0.0785,1.1052,1.7177,1.8841,2.2771,1.1916,1.5232,1.8299,1.0144,0.8952,0.2846,0.6138,0.7136,1.0796,1.2464,0.8283,0.8924,-0.998
0.948,0.6901,-0.4988,-0.4341,-0.8071,-1.9461,0.7092,0.742,1.4477,0.4305,1.5747,0.5558,-0.0949,0.6768,1.3476,1.4957,1.9513,0.7843,1.2899,1.452,0.5999,0.818,0.2031,0.7683,1.005,1.6137,1.6387,1.3582,0.7567,-0.9861
0.4805,0.1933,-0.9713,-0.8508,-1.1472,-2.2525,0.8518,1.0133,1.8427,1.0588,2.0929,1.1374,-0.2036,0.2261,0.8375,0.9433,1.4763,0.2443,0.9237,0.9023,0.063,0.6923,0.0656,0.9555,1.3095,2.1573,2.0632,1.9351,0.6823,-0.9286
-0.0134,-0.3351,-1.3877,-1.2664,-1.4356,-2.4698,1.0412,1.1745,2.151,1.6766,2.6471,1.8008,-0.2162,-0.1805,0.2536,0.3137,0.9306,-0.3555,0.4932,0.269,-0.5142,0.5568,-0.0921,1.1877,1.6159,2.6746,2.5032,2.5203,0.6921,-0.8481
-0.4582,-0.8073,-1.6984,-1.6248,-1.628,-2.5697,1.2726,1.1736,2.3002,2.209,3.1677,2.4881,-0.1037,-0.4676,-0.317,-0.285,0.4104,-0.9242,0.084,-0.334,-1.0272,0.4596,-0.2241,1.4758,1.9142,3.1286,2.9417,3.0676,0.7904,-0.7676
-0.7751,-1.1315,-1.8581,-1.864,-1.6827,-2.5319,1.5373,0.9738,2.2352,2.5884,3.586,3.1336,0.1566,-0.561,-0.7775,-0.7378,0.017,-1.3649,-0.2124,-0.7816,-1.3635,0.4532,-0.2805,1.8269,2.1935,3.4804,3.3597,3.5279,0.9623,-0.7058
-0.8922,-1.2256,-1.8292,-1.9228,-1.5658,-2.3451,1.8252,0.5615,1.9287,2.7647,3.8452,3.6747,0.5761,-0.3992,-1.035,-0.94,-0.1591,-1.5894,-0.3126,-0.9582,-1.4214,0.5855,-0.2158,2.2396,2.439,3.6895,3.7357,3.8545,1.1787,-0.6736
-0.7555,-1.0303,-1.5842,-1.75,-1.2547,-2.0063,2.1284,-0.0477,1.3894,2.7143,3.9115,4.0633,1.1514,0.054,-1.0167,-0.8153,-0.0523,-1.5328,-0.1562,-0.7782,-1.1296,0.8899,0.0007,2.7017,2.6308,3.7164,4.0455,4.0106,1.4046,-0.6724
-0.3375,-0.5203,-1.1105,-1.3134,-0.7408,-1.52,2.444,-0.808,0.6635,2.4463,3.7815,4.2737,1.8637,0.8019,-0.6834,-0.3295,0.3655,-1.1662,0.2826,-0.2041,-0.463,1.3763,0.3779,3.1904,2.7437,3.5269,4.2652,3.9754,1.6088,-0.6946
0.3558,0.2894,-0.4142,-0.6071,-0.0306,-0.8981,2.7753,-1.6474,-0.1694,2.004,3.4851,4.3075,2.6808,1.8125,-0.0393,0.5015,1.0786,-0.5029,0.9885,0.745,0.5512,2.027,0.8987,3.6756,2.7512,3.1,4.3759,3.7488,1.7708,-0.7264
1.2822,1.343,0.4744,0.3435,0.8545,-0.1599,3.1301,-2.4772,-1.0091,1.4598,3.081,4.1924,3.563,3.0238,0.8654,1.6133,2.0284,0.401,1.9062,1.9953,1.838,2.7984,1.5222,4.1263,2.6314,2.4358,4.3701,3.3542,1.8837,-0.7515
2.3661,2.5506,1.5001,1.4828,1.8803,0.667,3.517,-3.2057,-1.7509,0.9047,2.6466,3.9761,4.469,4.3543,1.9406,2.903,3.1221,1.4549,2.9496,3.4332,3.29,3.6295,2.1914,4.5179,2.3745,1.5612,4.2567,2.8363,1.9523,-0.7561
3.5077,3.8014,2.5852,2.7317,3.0031,1.5466,3.9402,-3.7523,-2.3042,0.4341,2.264,3.7174,5.3633,5.7182,3.0706,4.2476,4.2484,2.5484,4.0185,4.9283,4.7902,4.4548,2.8444,4.8385,1.9886,0.5319,4.0629,2.2566,1.9881,-0.7323
4.597,4.9817,3.6377,3.9989,4.1735,2.4355,4.3968,-4.06,-2.6065,0.1328,2.0051,3.4759,6.2209,7.0397,4.1333,5.5262,5.2971,3.5701,5.0172,6.3601,6.2343,5.2172,3.4265,5.0925,1.5021,-0.5719,3.8324,1.6856,2.0035,-0.6811
5.5318,5.9933,4.5639,5.1953,5.3402,3.2857,4.8753,-4.1026,-2.6318,0.0628,1.9204,3.303,7.0303,8.2637,5.0216,6.6406,6.178,4.4264,5.8713,7.6394,7.549,5.8783,3.9002,5.2991,0.9627,-1.6535,3.6197,1.1936,2.0068,-0.6121
6.2326,6.7684,5.2828,6.2463,6.4524,4.0495,5.3565,-3.8861,-2.3908,0.2541,2.0314,3.2355,7.7918,9.3595,5.6604,7.5292,6.8347,5.0561,6.5387,8.7188,8.6987,6.4228,4.2502,5.4881,0.4304,-2.6129,3.4815,0.8423,2.0004,-0.5422
6.6546,7.2773,5.7387,7.1002,7.4615,4.6836,5.8162,-3.4458,-1.9257,0.7014,2.3294,3.2918,8.5121,10.3167,6.0165,8.1712,7.2499,5.4367,7.0113,9.5912,9.68,6.8558,4.4819,5.6917,-0.0319,-3.3598,3.4679,0.6767,1.9811,-0.4925
6.7905,7.5282,5.9091,7.7306,8.3216,5.1542,6.228,-2.8375,-1.2997,1.3654,2.7789,3.4713,9.1965,11.1355,6.0981,8.5813,7.4418,5.5826,7.3091,10.2769,10.5075,7.1953,4.6156,5.9353,-0.3697,-3.8259,3.6127,0.7202,1.9424,-0.4838
6.6674,7.5587,5.8064,8.1338,8.9905,5.4402,6.5671,-2.1284,-0.5855,2.1789,3.3263,3.756,9.8424,11.816,5.9478,8.7985,7.4539,5.5363,7.4691,10.8075,11.197,7.4638,4.678,6.2314,-0.5456,-3.973,3.9281,0.9729,1.8778,-0.533
6.3384,7.4252,5.474,8.3243,9.4328,5.5363,6.8131,-1.3866,0.1459,3.0568,3.9094,4.1158,10.435,12.3514,5.6298,8.8724,7.3427,5.3565,7.5348,11.2114,11.7537,7.6811,4.6952,6.5762,-0.5446,-3.7962,4.4028,1.4128,1.7829,-0.65
5.8714,7.1902,4.9771,8.3295,9.6261,5.4543,6.9529,-0.6721,0.8338,3.9086,4.4683,4.5129,10.9491,12.7285,5.2161,8.8529,7.1661,5.1061,7.5474,11.5083,12.17,7.8623,4.6878,6.9516,-0.3738,-3.3217,5.0041,2.0007,1.6579,-0.8363
5.3385,6.9143,4.392,8.1866,9.5679,5.2237,6.9837,-0.0306,1.434,4.6524,4.9545,4.9088,11.3553,12.9341,4.776,8.7852,6.9763,4.8439,7.5432,11.7118,12.4337,8.0193,4.671,7.331,-0.0582,-2.5997,5.6853,2.6865,1.5082,-1.0863
4.8079,6.6508,3.7963,7.9422,9.2828,4.8898,6.9147,0.5104,1.9221,5.2277,5.3379,5.2704,11.6294,12.9664,4.3691,8.7095,6.8176,4.6191,7.5535,11.8376,12.5414,8.1644,4.6557,7.6879,0.3668,-1.6955,6.3939,3.4171,1.3457,-1.3897
4.3387,6.4453,3.2601,7.6514,8.826,4.5106,6.768,0.9426,2.2947,5.6049,5.6107,5.5752,11.7616,12.8448,4.0424,8.6629,6.7263,4.47,7.6067,11.9123,12.5115,8.3135,4.6524,8.0034,0.8631,-0.6792,7.0825,4.1449,1.1879,-1.7348
3.9768,6.3344,2.8398,7.3747,8.2794,4.1507,6.5786,1.2743,2.5673,5.7894,5.7873,5.8155,11.7623,12.6144,3.8293,8.6801,6.7309,4.4219,7.7282,11.9761,12.3893,8.4859,4.6723,8.2723,1.3967,0.3836,7.716,4.8339,1.0567,-2.1107
3.7517,6.3439,2.573,7.1719,7.7416,3.8729,6.3908,1.5262,2.7694,5.8193,5.8997,5.9991,11.6638,12.3423,3.7485,8.7905,6.8497,4.4864,7.9369,12.0771,12.2418,8.6998,4.7265,8.5045,1.9425,1.4385,8.2775,5.4637,0.9739,-2.5084
3.6735,6.4846,2.4747,7.0917,7.3106,3.7286,6.254,1.7267,2.9378,5.7576,5.9903,6.1472,11.5143,12.1056,3.8023,9.0106,7.0864,4.6585,8.2398,12.2585,12.1418,8.9654,4.8235,8.7219,2.4849,2.4454,8.7681,6.0298,0.9564,-2.9192
3.7313,6.7476,2.5363,7.1617,7.0658,3.7498,6.2159,1.9066,3.1101,5.6803,6.1039,6.2892,11.3704,11.9752,3.9746,9.3372,7.4255,4.9155,8.6252,12.5433,12.1491,9.2785,4.9644,8.9524,3.0162,3.3792,9.2042,6.5409,1.0118,-3.3322
3.8943,7.1035,2.7281,7.3815,7.0532,3.9444,6.3163,2.095,3.3183,5.6635,6.2798,6.4567,11.2864,12.0005,4.2322,9.7431,7.831,5.2186,9.0609,12.9236,12.2938,9.6175,5.1411,9.2223,3.534,4.2278,9.6114,7.0135,1.1361,-3.7332
4.1175,7.506,3.0058,7.7229,7.2786,4.2966,6.5814,2.3156,3.5846,5.7715,6.5466,6.6776,11.3074,12.1992,4.5292,10.1801,8.2511,5.5192,9.498,13.3595,12.5688,9.9464,5.3371,9.5509,4.0379,4.9887,10.0184,7.4661,1.3137,-4.1035
4.3513,7.9007,3.3203,8.1363,7.7103,4.7718,7.02,2.5842,3.9188,6.0474,6.9186,6.9714,11.4647,12.557,4.8161,10.5892,8.6276,5.7689,9.8812,13.7886,12.9346,10.2239,5.5315,9.947,4.5276,5.6653,10.4508,7.914,1.5196,-4.4219
4.5515,8.2374,3.627,8.5634,8.29,5.3253,7.6225,2.9064,4.3168,6.5081,7.3938,7.3463,11.7743,13.0345,5.0504,10.9151,8.9098,5.9302,10.1619,14.1437,13.3328,10.4157,5.7063,10.4091,5.0018,6.2632,10.9274,8.3656,1.7243,-4.6672
4.6896,8.4807,3.8942,8.9513,8.9492,5.9117,8.3614,3.276,4.7602,7.1422,7.9537,7.7972,12.2381,13.5798,5.2065,11.1208,9.0671,5.9859,10.311,14.3729,13.705,10.5056,5.8523,10.9277,5.4582,6.7876,11.4569,8.8211,1.8984,-4.8227
4.7574,8.6181,4.1074,9.2648,9.625,6.493,9.1949,3.6748,5.2182,7.9129,8.5656,8.3068,12.8448,14.1425,5.2819,11.1979,9.0963,5.9428,10.3271,14.4541,14.0094,10.5028,5.9733,11.4885,5.8943,7.2424,12.0379,9.2724,2.0185,-4.8797
4.7676,8.6608,4.2682,9.4932,10.2717,7.0427,10.0713,4.0736,5.6509,8.7644,9.1853,8.8468,13.5715,14.6835,5.2964,11.1679,9.0222,5.8299,10.2363,14.4005,14.2307,10.4417,6.0863,12.0762,6.3085,7.63,12.6591,9.705,2.0712,-4.8401
4.7472,8.6388,4.3895,9.6489,10.8649,7.547,10.9345,4.4348,6.0139,9.6292,9.7625,9.3811,14.3839,15.1801,5.2853,11.0746,8.8897,5.6897,10.0852,14.2548,14.3799,10.3746,6.2178,12.6771,6.7009,7.9522,13.3014,10.101,2.0546,-4.7165
4.7276,8.5898,4.4885,9.7597,11.3983,8.0011,11.7287,4.7177,6.2641,10.4375,10.2457,9.8702,15.2375,15.6238,5.2876,10.9695,8.7503,5.5667,9.928,14.0732,14.4848,10.3587,6.3962,13.2797,7.0736,8.2119,13.9399,10.442,1.9779,-4.5306
4.7324,8.5471,4.5786,9.8554,11.8754,8.4047,12.4037,4.8844,6.3678,11.1245,10.5902,10.2759,16.0788,16.014,5.3335,10.8946,8.6463,5.4942,9.8103,13.906,14.5756,10.4408,6.6432,13.8741,7.4296,8.4136,14.547,10.7127,1.8573,-4.3093
4.7693,8.5278,4.6637,9.9557,12.2988,8.7564,12.919,4.9081,6.3074,11.6389,10.7655,10.5668,16.8493,16.3494,5.4339,10.8683,8.5982,5.4847,9.7566,13.7803,14.6696,10.6435,6.9664,14.4494,7.7713,8.5643,15.0958,10.9045,1.7118,-4.0796
4.825,8.527,4.7362,10.0611,12.6629,9.0503,13.2491,4.7801,6.0882,11.9495,10.7625,10.7242,17.4913,16.6223,5.5761,10.8782,8.5983,5.5254,9.7632,13.6904,14.7626,10.9582,7.3546,14.9921,8.0986,8.6733,15.5631,11.0181,1.5592,-3.8636
4.868,8.5179,4.7776,10.1505,12.9503,9.2741,13.3865,4.5145,5.7403,12.0501,10.5975,10.7464,17.956,16.817,5.7255,10.8835,8.6121,5.5806,9.7986,13.5999,14.8279,11.3453,7.7779,15.4851,8.4072,8.7519,15.9335,11.0649,1.4132,-3.6751
4.8554,8.4587,4.763,10.1862,13.1344,9.4106,13.3437,4.1476,5.3147,11.9611,10.3119,10.6504,18.2105,16.9125,5.8339,10.8259,8.5878,5.6006,9.813,13.4529,14.8244,11.7434,8.1925,15.9082,8.6884,8.8115,16.2005,11.0657,1.2828,-3.5181
4.7439,8.3042,4.6663,10.1245,13.1866,9.4405,13.1524,3.7328,4.8759,11.7265,9.9651,10.4703,18.2444,16.8898,5.8504,10.6456,8.4696,5.5334,9.7509,13.1922,14.7107,12.083,8.5489,16.2411,8.9298,8.8621,16.3679,11.0472,1.1727,-3.3879
4.4995,8.0191,4.4664,9.9291,13.0856,9.3484,12.8595,3.3322,4.4899,11.4059,9.6247,10.2528,18.0722,16.7388,5.7328,10.298,8.2124,5.3373,9.5663,12.7767,14.4587,12.303,8.8013,16.4665,9.1173,8.9102,16.4478,11.0368,1.0847,-3.2754
4.1066,7.5888,4.153,9.5835,12.8269,9.1282,12.5217,3.0054,4.2136,11.0659,9.3545,10.0496,17.7323,16.4648,5.4578,9.7663,7.7934,4.9914,9.2347,12.1955,14.0646,12.3644,8.9174,16.5739,9.2384,8.9574,16.4581,11.057,1.0185,-3.1705
3.5733,7.0271,3.7315,9.0986,12.4291,8.7884,12.1984,2.8012,4.0857,10.7692,9.2038,9.9088,17.282,16.0913,5.0266,9.0675,7.2186,4.5011,8.7603,11.4719,13.5524,12.2586,8.8852,16.5637,9.2854,9.0011,16.4194,11.121,0.9735,-3.0668
2.9326,6.3773,3.2252,8.5154,11.9358,8.3548,11.9448,2.7502,4.1214,10.5672,9.2001,9.8673,16.7917,15.6599,4.4664,8.2507,6.5236,3.8997,8.1772,10.6608,12.9714,12.0097,8.7162,16.4489,9.2585,9.0356,16.352,11.2308,0.9502,-2.9637
2.239,5.7067,2.6753,7.9002,11.4126,7.87,11.8063,2.8631,4.3115,10.4955,9.3471,9.9458,16.3362,15.2266,3.8275,7.3898,5.7679,3.2439,7.5442,9.8378,12.388,11.6689,8.4444,16.2562,9.1677,9.0547,16.2753,11.3791,0.9504,-2.8661
1.5615,5.0969,2.1373,7.3353,10.939,7.3891,11.8149,3.1316,4.6271,10.5727,9.6273,10.1475,15.9874,14.8562,3.1753,6.5708,5.0259,2.6055,6.9349,9.0866,11.8766,11.3049,8.121,16.0253,9.0327,9.0558,16.2077,11.5531,0.9773,-2.7837
0.9723,4.63,1.6727,6.9058,10.5967,6.9733,11.9879,3.5323,5.027,10.8032,10.0091,10.4601,15.8074,14.616,2.5797,5.8789,4.3744,2.0602,6.4256,8.4863,11.5093,10.9922,7.8059,15.8051,8.8805,9.0417,16.1678,11.7404,1.0344,-2.728
0.5344,4.3747,1.3396,6.6861,10.458,6.6812,12.3277,4.0325,5.4674,11.1794,10.4538,10.8596,15.8425,14.5666,2.1027,5.3849,3.881,1.6745,6.0824,8.1004,11.3477,10.7982,7.5579,15.6491,8.7419,9.0223,16.175,11.9335,1.1238,-2.7105
0.2897,4.3755,1.1818,6.7277,10.5735,6.5595,12.8224,4.5943,5.9095,11.6838,10.923,11.3149,16.1179,14.7543,1.7889,5.1358,3.5932,1.4945,5.9507,7.9702,11.4346,10.7729,7.4251,15.608,8.6459,9.0129,16.2483,12.1314,1.244,-2.7407
0.2523,4.6453,1.2201,7.0507,10.9643,6.6356,13.4467,5.1796,6.3245,12.2909,11.3828,11.7926,16.6352,15.2028,1.6587,5.1495,3.5329,1.5383,6.0487,8.1112,11.7886,10.9423,7.437,15.7217,8.6149,9.0313,16.4031,12.3386,1.3891,-2.8258
0.4072,5.1656,1.4494,7.6414,11.6188,6.9133,14.1639,5.7527,6.6949,12.9672,11.8061,12.26,17.3712,15.9084,1.7075,5.4147,3.6952,1.7945,6.3672,8.5131,12.4012,11.3058,7.6012,16.0118,8.6611,9.0926,16.6474,12.5605,1.5484,-2.971
0.7162,5.8917,1.8402,8.4555,12.4953,7.3724,14.9301,6.2829,7.0128,13.6736,12.1734,12.6885,18.2822,16.8407,1.9101,5.8974,4.0542,2.227,6.8755,9.144,13.2382,11.8405,7.9049,16.4784,8.7856,9.2054,16.978,12.7991,1.7087,-3.1804
1.1287,6.7631,2.3472,9.4274,13.5307,7.9738,15.7004,6.7467,7.2775,14.3693,12.473,13.0561,19.3114,17.9494,2.2286,6.5507,4.5726,2.7855,7.5318,9.9585,14.2475,12.5102,8.3212,17.1001,8.9801,9.37,17.3803,13.0495,1.8567,-3.4587
1.5944,7.7161,2.9195,10.4827,14.6529,8.6678,16.4378,7.1293,7.4937,15.0172,12.702,13.3498,20.4002,19.1756,2.6228,7.328,5.2128,3.4179,8.2971,10.9084,15.3713,13.2771,8.8182,17.8397,9.2304,9.5782,17.8299,13.3,1.9824,-3.8124
2.0742,8.696,3.5103,11.5528,15.7942,9.4044,17.121,7.4274,7.6701,15.5905,12.8679,13.5673,21.4992,20.4661,3.0579,8.1934,5.9471,4.0821,9.1456,11.9537,16.5594,14.1128,9.3692,18.6529,9.5214,9.8177,18.2977,13.535,2.0799,-4.2497
2.5457,9.6649,4.0847,12.5867,16.9043,10.1432,17.749,7.6494,7.8193,16.0785,12.9873,13.7176,22.5779,21.7846,3.5106,9.1288,6.7626,4.7532,10.0707,13.0712,17.7814,15.0062,9.959,19.4979,9.8411,10.0756,18.7558,13.7403,2.1476,-4.7798
3.0048,10.6061,4.6219,13.5581,17.957,10.8601,18.3416,7.815,7.9563,16.4877,13.0838,13.8179,23.6287,23.1176,3.9704,10.135,7.661,5.4262,11.0843,14.2579,19.0319,15.9635,10.5871,20.3434,10.1838,10.3437,19.1839,13.9078,2.1858,-5.4102
3.4606,11.5223,5.1155,14.4672,18.952,11.5499,18.9338,7.9511,8.096,16.8406,13.1824,13.8895,24.6652,24.4734,4.4383,11.227,8.6536,6.1123,12.2095,15.5286,20.3289,17.0042,11.2651,21.1729,10.5511,10.6207,19.5727,14.0386,2.1944,-6.1434
3.9295,12.4303,5.5707,15.336,19.9106,12.2238,19.5667,8.0867,8.2495,17.1695,13.3028,13.9511,25.7152,25.8742,4.9237,12.4252,9.753,6.8328,13.4695,16.9075,21.704,18.1505,12.0108,21.9852,10.9491,10.9109,19.9251,14.1425,2.1718,-6.9741
4.4275,13.3532,6.0005,16.1995,20.8651,12.9032,20.2765,8.247,8.4211,17.5094,13.4553,14.0141,26.8102,27.3442,5.4394,13.7448,10.9653,7.6099,14.8753,18.417,23.1888,19.4159,12.8385,22.7889,11.3842,11.2207,20.2534,14.2344,2.1153,-7.8876
4.9638,14.311,6.4212,17.0934,21.8468,13.6105,21.0849,8.4487,8.6072,17.8911,13.6384,14.0807,27.9729,28.8967,5.9968,15.1867,12.2816,8.4574,16.4152,20.0643,24.7998,20.7942,13.7501,23.5955,11.8566,11.5516,20.5739,14.3288,2.0234,-8.8589
5.5368,15.3114,6.8465,18.0408,22.8732,14.3596,21.9912,8.6979,8.7993,18.3353,13.8427,14.1459,29.208,30.5236,6.5999,16.7296,13.6735,9.3727,18.0494,21.8312,26.5259,22.2521,14.7268,24.4106,12.3545,11.8952,20.9007,14.4346,1.8977,-9.8541
6.1322,16.3441,7.2826,19.0427,23.9386,15.1488,22.97,8.9906,8.9883,18.8502,14.0559,14.2024,30.4956,32.1897,7.2405,18.3274,15.0921,10.3319,19.7096,23.6685,28.3224,23.7286,15.7263,25.2272,12.8517,12.2302,21.2401,14.5524,1.7455,-10.8331
6.7238,17.3791,7.725,20.0729,25.011,15.9575,23.9734,9.3152,9.1691,19.4314,14.2689,14.2471,31.7916,33.8342,7.896,19.9119,16.4715,11.291,21.3077,25.499,30.1135,25.1408,16.6862,26.0229,13.3098,12.5251,21.588,14.6747,1.5796,-11.7547
7.2768,18.3705,8.1578,21.0816,26.0366,16.7474,24.9383,9.6552,9.343,20.0645,14.4795,14.2842,33.0338,35.3792,8.5306,21.4024,17.7372,12.1913,22.7487,27.2282,31.804,26.3982,17.5341,26.7631,13.6852,12.7442,21.931,14.7883,1.4168,-12.5827
7.7529,19.2653,8.5563,22.0045,26.9499,17.4686,25.7976,9.993,9.5168,20.7286,14.6929,14.3267,34.154,36.7438,9.1004,22.7188,18.8189,12.9717,23.9493,28.761,33.2962,27.4199,18.2029,27.4087,13.9399,12.8584,22.2509,14.8798,1.2739,-13.2918
8.1169,20.0137,8.892,22.7775,27.689,18.0687,26.4929,10.3122,9.7005,21.4009,14.9188,14.3931,35.0918,37.8599,9.5617,23.797,19.6631,13.5806,24.8536,30.0203,34.5102,28.1527,18.6462,27.9271,14.0528,12.854,22.5316,14.9415,1.1639,-13.8726
8.3433,20.5793,9.1383,23.3501,28.2092,18.5038,26.9861,10.5996,9.9039,22.06,15.168,14.5032,35.8082,38.6869,9.8795,24.6003,20.2433,13.9875,25.4453,30.9623,35.4,28.5832,18.8503,28.302,14.027,12.739,22.7656,14.9752,1.0924,-14.3326
8.4205,20.9444,9.2759,23.6961,28.4928,18.7473,27.2666,10.8464,10.1323,22.6879,15.4465,14.6715,36.2942,39.2199,10.0336,25.1249,20.5649,14.1889,25.7492,31.5826,35.9621,28.7412,18.8382,28.5388,13.8912,12.5437,22.9567,14.9939,1.0577,-14.693
8.3527,21.1121,9.296,23.817,28.5528,18.7956,27.3519,11.0478,10.3832,23.2687,15.7524,14.9021,36.5715,39.4911,10.0228,25.3986,20.6625,14.2074,25.8245,31.9152,36.2345,28.6934,18.665,28.6648,13.6938,12.3144,23.1194,15.0187,1.051,-14.9828
8.1592,21.1031,9.2012,23.7403,28.4287,18.6694,27.2829,11.2027,10.6444,23.7878,16.0738,15.1854,36.6878,39.5631,9.8635,25.4715,20.5918,14.0857,25.7507,32.0212,36.2872,28.529,18.4065,28.722,13.492,12.1026,23.2746,15.0727,1.0593,-15.2319
7.8697,20.9507,9.0049,23.5123,28.1779,18.4101,27.1147,11.3125,10.8953,24.2308,16.3907,15.4985,36.7059,39.5165,9.5865,25.4049,20.418,13.8765,25.611,31.9758,36.2071,28.3418,18.144,28.7585,13.3389,11.953,23.4425,15.1731,1.0685,-15.4643
7.5191,20.6949,8.7296,23.1891,27.8649,18.0737,26.9055,11.381,11.1108,24.5849,16.6796,15.8093,36.6913,39.4362,9.2315,25.2593,20.2037,13.6323,25.4764,31.8526,36.0816,28.2136,17.9491,28.818,13.2726,11.8934,23.6369,15.3256,1.0657,-15.6952
7.143,20.3769,8.404,22.8273,27.5492,17.7209,26.7072,11.4143,11.2672,24.842,16.9198,16.0832,36.7007,39.3961,8.8415,25.0858,19.9994,13.3965,25.3958,31.7126,35.984,28.2007,17.8719,28.932,13.3097,11.9303,23.8616,15.522,1.0425,-15.9292
6.7728,20.0353,8.0595,22.4758,27.2771,17.4082,26.5572,11.4209,11.349,25.0011,17.098,16.2903,36.7725,39.4485,8.4572,24.9214,19.8382,13.199,25.3913,31.5972,35.9625,28.3277,17.9344,29.1142,13.4434,12.049,24.1094,15.742,0.9948,-16.1623
6.4338,19.7029,7.7266,22.17,27.0759,17.1781,26.4748,11.4121,11.3525,25.0688,17.2109,16.412,36.9217,39.6154,8.1126,24.7869,19.734,13.0544,25.4601,31.525,36.0353,28.5861,18.129,29.359,13.6472,12.2192,24.3635,15.9581,0.9239,-16.3844
6.1441,19.4045,7.4313,21.9292,26.9528,17.0531,26.4616,11.4011,11.2881,25.0586,17.2644,16.4437,37.1386,39.8863,7.8318,24.6882,19.684,12.9632,25.5794,31.4928,36.1903,28.9394,18.4222,29.6422,13.881,12.4023,24.6004,16.1422,0.8351,-16.5815
5.9141,19.1553,7.1913,21.7556,26.8973,17.0328,26.504,11.4026,11.1773,24.9873,17.2705,16.3945,37.3916,40.2213,7.6275,24.6181,19.6729,12.9145,25.7138,31.4796,36.3898,29.3313,18.7623,29.9253,14.1,12.56,24.7934,16.2715,0.7374,-16.7392
5.7463,18.9604,7.0147,21.6365,26.8863,17.0958,26.5789,11.4309,11.0486,24.8731,17.2431,16.2832,37.6347,40.5598,7.5006,24.5591,19.6773,12.8901,25.8232,31.4518,36.5794,29.6967,19.0893,30.1621,14.2623,12.6597,24.9161,16.3314,0.6422,-16.8443
5.6365,18.8144,6.8995,21.5483,26.8903,17.2048,26.6598,11.4969,10.9299,24.7325,17.1946,16.1326,37.8166,40.8329,7.4416,24.4874,19.6715,12.8683,25.8706,31.371,36.699,29.9735,19.3465,30.3064,14.3364,12.6787,24.945,16.3166,0.5617,-16.8867
5.5745,18.703,6.8349,21.4615,26.8797,17.3153,26.7221,11.6047,10.8421,24.5791,17.1329,15.9632,37.8915,40.9779,7.4322,24.3763,19.6311,12.8282,25.8279,31.2014,36.6953,30.1129,19.4906,30.3207,14.3055,12.6049,24.8625,16.2284,0.5076,-16.8607
5.5451,18.6045,6.8043,21.3462,26.8289,17.3837,26.7474,11.7494,10.7937,24.4214,17.0596,15.788,37.8273,40.9498,7.4477,24.2004,19.5361,12.7527,25.6798,30.9166,36.5315,30.0872,19.4993,30.1827,14.1693,12.4368,24.6584,16.0718,0.4884,-16.7646
5.5296,18.4926,6.7873,21.1761,26.7196,17.3753,26.7249,11.9149,10.779,24.2615,16.9701,15.6107,37.611,40.7297,7.4595,23.9387,19.372,12.6306,25.4246,30.5043,36.1942,29.8926,19.374,29.8895,13.9427,12.1818,24.3315,15.8524,0.5081,-16.601
5.5069,18.3386,6.7624,20.932,26.5416,17.2689,26.6508,12.0764,10.7797,24.0946,16.8546,15.4268,37.2499,40.3263,7.4379,23.577,19.1298,12.4564,25.0728,29.9676,35.695,29.5479,19.1369,29.4577,13.6519,11.855,23.8907,15.5752,0.5645,-16.3755
5.4561,18.1154,6.709,20.6036,26.2925,17.0583,26.5258,12.2044,10.7707,23.91,16.7018,15.227,36.7688,39.7724,7.356,23.1104,18.8061,12.2297,24.6429,29.3243,35.0671,29.0891,18.825,28.9205,13.3292,11.4777,23.3559,15.2461,0.6489,-16.0956
5.3585,17.8008,6.6086,20.1895,25.9764,16.7513,26.3523,12.2714,10.7266,23.6941,16.5026,15.0025,36.2042,39.1162,7.1936,22.5438,18.4025,11.9531,24.1573,28.6023,34.3568,28.5609,18.4796,28.3216,13.0074,11.0757,22.7579,14.8731,0.7466,-15.7702
5.2009,17.3813,6.4471,19.6972,25.6019,16.3661,26.1312,12.2583,10.6286,23.4352,16.2534,14.7486,35.5966,38.411,6.9414,21.8918,17.9256,11.6309,23.6375,27.8353,33.6134,28.0077,18.138,27.7089,12.7149,10.6773,22.1364,14.469,0.8386,-15.4088
4.9782,16.8556,6.2166,19.1414,25.1805,15.9266,25.8608,12.1598,10.4682,23.1277,15.9586,14.4668,34.9828,37.7042,6.6037,21.177,17.3881,11.2684,23.1012,27.0561,32.8794,27.466,17.8257,27.1262,12.4722,10.3105,21.5363,14.0511,0.9044,-15.0214
4.6949,16.2357,5.9174,18.5425,24.7248,15.4586,25.5365,11.9857,10.2495,22.7744,15.6304,14.1644,34.3905,37.0297,6.1988,20.4279,16.8082,10.8727,22.5613,26.2926,32.1834,26.9591,17.5532,26.6078,12.2897,9.9995,21.0008,13.6404,0.9262,-14.619
4.3657,15.5477,5.5609,17.9252,24.2479,14.987,25.1539,11.7599,9.9878,22.3877,15.2875,13.8531,33.8348,36.404,5.7568,19.6755,16.21,10.453,22.0261,25.5649,31.5378,26.4952,17.3167,26.174,12.1672,9.7612,20.5652,13.2587,0.892,-14.2143
4.0135,14.8296,5.1694,17.3168,23.763,14.5345,24.712,11.5156,9.7076,21.9883,14.9525,13.5466,33.3197,35.8276,5.3147,18.9508,15.6217,10.0229,21.5012,24.8847,30.9416,26.0699,17.1024,25.8294,12.0948,9.6016,20.2496,12.9254,0.7994,-13.8217
3.6661,14.1272,4.7759,16.7456,23.2847,14.1212,24.2181,11.2897,9.4387,21.6031,14.6492,13.2583,32.8417,35.2907,4.91,18.2812,15.0732,9.5999,20.9922,24.2575,30.3855,25.6711,16.8928,25.5648,12.0548,9.5153,20.0559,12.6547,0.6569,-13.4569
3.3518,13.4885,4.4193,16.2393,22.8288,13.7643,23.6895,11.1159,9.2127,21.2619,14.4,13.0003,32.3953,34.7801,4.5745,17.689,14.5928,9.2052,20.5065,23.6851,29.8598,25.285,16.6737,25.3605,12.0263,9.4867,19.9681,12.4531,0.4827,-13.1359
3.0948,12.9582,4.139,15.8226,22.412,13.4772,23.1531,11.0185,9.0583,20.994,14.2236,12.782,31.978,34.2872,4.3287,17.1898,14.2035,8.8612,20.0544,23.1687,29.3599,24.9028,16.4392,25.1925,11.9896,9.4934,19.9561,12.3189,0.3016,-12.8733
2.9114,12.5705,3.9666,15.5143,22.0503,13.2671,22.6415,11.0079,8.9965,20.823,14.1322,12.6095,31.5921,33.8112,4.1793,16.7915,13.9198,8.5886,19.6489,22.711,28.8892,24.5239,16.1947,25.0375,11.9308,9.5117,19.9823,12.2426,0.14,-12.6804
2.8068,12.3443,3.9185,15.3232,21.7557,13.133,22.1871,11.0779,9.0362,20.762,14.1293,12.4848,31.2441,33.3601,4.1188,16.4949,13.7452,8.4023,19.3038,22.3166,28.4577,24.1574,15.9559,24.8767,11.8445,9.5204,20.0083,12.2077,0.0191,-12.5634
2.7751,12.2793,3.9903,15.245,21.5327,13.0634,21.8154,11.2068,9.1709,20.8079,14.2069,12.4046,30.9401,32.9463,4.1282,16.2938,13.6719,8.3081,19.031,21.9902,28.0784,23.8191,15.7448,24.6977,11.7342,9.5033,19.9996,12.1929,-0.0489,-12.5218
2.8009,12.3552,4.1552,15.2616,21.3762,13.0366,21.5391,11.3614,9.3774,20.9383,14.3433,12.3584,30.6814,32.5817,4.1818,16.1759,13.6814,8.3003,18.8371,21.7351,27.7614,23.5268,15.5826,24.493,11.6086,9.4497,19.928,12.1736,-0.0645,-12.5469
2.8638,12.5345,4.3694,15.3419,21.2711,13.0231,21.3546,11.5029,9.6175,21.1119,14.5029,12.3274,30.4604,32.2721,4.2526,16.1244,13.7479,8.3632,18.7217,21.5507,27.51,23.2944,15.4833,24.2574,11.4769,9.3525,19.7723,12.1245,-0.041,-12.6211
2.9436,12.7688,4.5811,15.4472,21.195,12.9909,21.2412,11.5945,9.8424,21.2722,14.6376,12.2843,30.2593,32.0141,4.3192,16.1201,13.8431,8.4739,18.6762,21.4324,27.3194,23.1273,15.448,23.9853,11.344,9.2069,19.5174,12.0215,-0.0013,-12.7191
3.0255,13.0068,4.7438,15.538,21.1224,12.9123,21.1628,11.6082,10.0006,21.3568,14.692,12.1958,30.0513,31.7947,4.3694,16.1434,13.9409,8.6076,18.685,21.3709,27.177,23.0186,15.4634,23.6684,11.2078,9.0097,19.1542,11.8452,0.0276,-12.8099
3.1026,13.2023,4.8275,15.5811,21.0292,12.7696,21.073,11.53,10.0469,21.309,14.6115,12.0266,29.8047,31.5928,4.402,16.1751,14.0206,8.7426,18.7263,21.353,27.0643,22.9489,15.5029,23.2966,11.0592,8.7597,18.6806,11.5833,0.0219,-12.8614
3.1749,13.3208,4.8255,15.554,20.8957,12.5579,20.923,11.3618,9.951,21.0901,14.3533,11.7467,29.4873,31.3815,4.4236,16.1963,14.0679,8.8626,18.7743,21.3604,26.9585,22.8877,15.5311,22.86,10.8848,8.4596,18.1027,11.2334,-0.0318,-12.8456
3.2445,13.3418,4.7533,15.4469,20.7083,12.2854,20.6699,11.1209,9.7034,20.6892,13.8961,11.339,29.0726,31.131,4.4427,16.1866,14.0722,8.956,18.7994,21.3688,26.8332,22.7971,15.5091,22.3521,10.6715,8.1177,17.4367,10.8048,-0.1311,-12.7443
3.3102,13.2586,4.6408,15.2614,20.4597,11.9696,20.2873,10.8356,9.3185,20.1285,13.2492,10.8059,28.5442,30.8115,4.4624,16.1244,14.0245,9.0136,18.7712,21.3484,26.6593,22.6371,15.401,21.7738,10.4102,7.7484,16.7091,10.3181,-0.2573,-12.5543
3.3632,13.076,4.5212,15.0081,20.149,11.6333,19.7726,10.5412,8.8347,19.4621,12.4563,10.1734,27.9002,30.3974,4.4761,15.9878,13.915,9.0244,18.6609,21.2662,26.4084,22.3732,15.1797,21.1352,10.0989,7.3711,15.9553,9.804,-0.3787,-12.2888
3.3865,12.8079,4.4192,14.7031,19.783,11.2998,19.1512,10.274,8.3107,18.7678,11.5938,9.4898,27.1554,29.8716,4.4665,15.7598,13.734,8.9751,18.4465,21.0916,26.0564,21.9833,14.8313,20.457,9.7436,7.008,15.2162,9.2993,-0.458,-11.9769
3.3583,12.4744,4.3442,14.3663,19.3762,10.99,18.4756,10.0671,7.8178,18.1345,10.7605,8.8198,26.341,29.23,4.4101,15.4334,13.4751,8.8507,18.1172,20.8046,25.5905,21.4632,14.3582,19.768,9.3579,6.6802,14.5329,8.8416,-0.4621,-11.6582
3.2585,12.1003,4.2883,14.0191,18.9517,10.7201,17.8174,9.945,7.4283,17.645,10.0614,8.2336,25.501,28.485,4.2852,15.0174,13.1394,8.6393,17.6782,20.4029,25.0144,20.8301,13.7795,19.1015,8.9599,6.4042,13.9416,8.4632,-0.3716,-11.375
3.0762,11.7126,4.2306,13.6834,18.5388,10.5005,17.2548,9.9207,7.2011,17.3596,9.5866,7.7932,24.6867,27.6665,4.0802,14.5382,12.7387,8.3371,17.1524,19.9062,24.3522,20.121,13.1298,18.4901,8.5705,6.1894,13.4686,8.1855,-0.1875,-11.1633
2.8146,11.338,4.1448,13.3798,18.1698,10.3362,16.8575,9.9924,7.1676,17.3033,9.3919,7.5399,23.9484,26.8192,3.7998,14.0369,12.2966,7.9534,16.5788,19.3558,23.647,19.3881,12.4547,17.9605,8.2112,6.0373,13.1273,8.0156,0.0669,-11.0445
2.4923,10.9999,4.0084,13.1251,17.874,10.2262,16.6726,10.1431,7.3234,17.4596,9.4846,7.4858,23.3276,25.9963,3.4652,13.5616,11.8452,7.5115,16.006,18.8059,22.9549,18.6901,11.8053,17.5294,7.9017,5.943,12.9167,7.9457,0.349,-11.0211
2.139,10.7139,3.8093,12.9291,17.6715,10.1635,16.713,10.3426,7.6271,17.7725,9.8211,7.6105,22.8493,25.2505,3.1098,13.156,11.4179,7.0458,15.4828,18.3119,22.3344,18.0815,11.2296,17.2007,7.6584,5.8972,12.8218,7.9546,0.6063,-11.075
1.7882,10.4848,3.5487,12.7919,17.5672,10.1351,16.952,10.5514,8.0076,18.1572,10.3135,7.8648,22.5174,24.624,2.7694,12.8477,11.0414,6.5948,15.047,17.9164,21.8334,17.6019,10.7652,16.9651,7.492,5.8883,12.8152,8.011,0.7882,-11.172
1.4683,10.3043,3.2406,12.7028,17.5484,10.1234,17.3264,10.7262,8.3788,18.5156,10.8462,8.1788,22.3139,24.1401,2.474,12.6404,10.7286,6.1929,14.7173,17.6384,21.4792,17.2698,10.4334,16.8014,7.4059,5.905,12.8596,8.0783,0.8575,-11.2686
1.1971,10.1547,2.9088,12.6422,17.5866,10.1088,17.7456,10.8269,8.6569,18.7554,11.2981,8.4739,22.2025,23.7998,2.241,12.5144,10.4774,5.8647,14.4908,17.4707,21.2736,17.0806,10.2371,16.6812,7.3953,5.9367,12.9135,8.1194,0.7995,-11.3225
0.9815,10.0151,2.5841,12.5876,17.6451,10.0752,18.1095,10.824,8.7778,18.8066,11.5648,8.6764,22.1366,23.5841,2.0755,12.4345,10.275,5.6228,14.3479,17.3854,21.195,17.012,10.1636,16.5745,7.4479,5.9754,12.9363,8.1016,0.6245,-11.302
0.8215,9.872,2.3013,12.5227,17.6893,10.0156,18.3279,10.7036,8.7094,18.6335,11.577,8.7292,22.0698,23.4618,1.9753,12.3641,10.1082,5.4716,14.2635,17.3465,21.2078,17.0339,10.1917,16.4569,7.547,6.0149,12.895,8.001,0.3652,-11.1942
0.7174,9.728,2.096,12.4448,17.6969,9.9363,18.3396,10.4703,8.4562,18.2388,11.3117,8.6003,21.9656,23.3992,1.9384,12.2807,9.9734,5.4121,14.2188,17.3242,21.2741,17.1192,10.2992,16.3143,7.6737,6.0507,12.7684,7.8056,0.0682,-11.009
0.676,9.6061,2.002,12.3685,17.6649,9.8561,18.1243,10.1461,8.0558,17.661,10.7931,8.2859,21.8033,23.3685,1.9693,12.1862,9.8846,5.4478,14.2112,17.3063,21.3642,17.2514,10.4693,16.1451,7.8109,6.0789,12.5499,7.5172,-0.2176,-10.7778
0.7113,9.546,2.0456,12.3234,17.6089,9.8023,17.7057,9.7659,7.5684,16.9637,10.0846,7.8085,21.579,23.3522,2.0804,12.1087,9.8726,5.5858,14.2557,17.3016,21.462,17.4274,10.6929,15.9583,7.9444,6.0965,12.2472,7.1504,-0.4522,-10.5483
0.8411,9.5927,2.2394,12.3448,17.5566,9.8015,17.1433,9.3712,7.063,16.2225,9.2749,7.2114,21.3016,23.3419,2.2877,12.0936,9.9769,5.8338,14.3791,17.3348,21.5631,17.6527,10.9659,15.7682,8.0645,6.1012,11.8799,6.7311,-0.6123,-10.3734
1.0779,9.7804,2.5757,12.4606,17.5361,9.87,16.516,9.0029,6.6028,15.511,8.4592,6.5498,20.9844,23.333,2.601,12.1873,10.2308,6.1924,14.607,17.4342,21.6683,17.9325,11.2837,15.5884,8.165,6.0924,11.4762,6.2923,-0.6939,-10.2992
1.4192,10.1161,3.022,12.6783,17.5635,10.0059,15.9025,8.6954,6.2347,14.888,7.7221,5.8817,20.6382,23.3169,3.0141,12.418,10.6443,6.6473,14.9486,17.6166,21.774,18.2617,11.6343,15.4265,8.2429,6.0715,11.0675,5.8688,-0.7096,-10.3535
1.8387,10.5701,3.5207,12.9768,17.6347,10.1863,15.3638,8.4726,5.9839,14.3907,7.1251,5.2595,20.2658,23.2764,3.4971,12.7802,11.1919,7.1627,15.3854,17.8749,21.8654,18.6177,11.9933,15.281,8.2962,6.0425,10.6849,5.4922,-0.6838,-10.5386
2.2841,11.0745,3.9956,13.3056,17.7226,10.3697,14.9323,8.3461,5.8542,14.0329,6.7011,4.7242,19.8622,23.1846,3.9951,13.2284,11.8082,7.6806,15.8666,18.1724,21.9141,18.9588,12.3242,15.1427,8.3234,6.0111,10.3546,5.1872,-0.6457,-10.8289
2.6824,11.5342,4.3643,13.5932,17.7824,10.5054,14.6108,8.3159,5.8341,13.8086,6.456,4.3038,19.4191,23.0096,4.4345,13.6814,12.3953,8.1266,16.3151,18.4462,21.8814,19.2303,12.5824,14.9985,8.3233,5.9843,10.0966,4.9692,-0.624,-11.1766
2.9531,11.8461,4.5545,13.7624,17.7627,10.545,14.3796,8.3719,5.9038,13.6995,6.3766,4.0135,18.9328,22.7236,4.7357,14.0383,12.8412,8.4231,16.6419,18.6183,21.7274,19.3754,12.7243,14.8375,8.296,5.9691,9.9234,4.8447,-0.6416,-11.5212
3.0255,11.9224,4.5198,13.7475,17.6186,10.4548,14.2075,8.4967,6.0421,13.682,6.4386,3.8582,18.4114,22.3125,4.8303,14.2006,13.043,8.5049,16.7665,18.6138,21.422,19.3493,12.7183,14.6561,8.2438,5.9723,9.8408,4.8138,-0.7131,-11.8019
2.8563,11.7116,4.2503,13.5111,17.3236,10.223,14.0624,8.6661,6.2283,13.7319,6.6134,3.8349,17.8774,21.7835,4.6766,14.0959,12.9317,8.3354,16.6365,18.3786,20.9547,19.1308,12.5528,14.461,8.173,5.9996,9.8486,4.8723,-0.843,-11.9703
2.4426,11.2117,3.7759,13.0526,16.8768,9.862,13.9187,8.85,6.4414,13.8252,6.8698,3.9338,17.366,21.1668,4.2714,13.6966,12.4895,7.917,16.2415,17.894,20.3408,18.7287,12.2414,14.2683,8.0934,6.0556,9.9412,5.0139,-1.0249,-11.9989
1.826,10.472,3.1604,12.4093,16.3032,9.4042,13.758,9.014,6.6572,13.9361,7.1738,4.1387,16.9173,20.511,3.6536,13.0283,11.7563,7.2939,15.6173,17.1838,19.6212,18.1816,11.8215,14.0992,8.0176,6.1422,10.1079,5.2295,-1.2431,-11.8843
1.0873,9.5841,2.4892,11.6493,15.6482,8.8947,13.567,9.1213,6.8466,14.036,7.4877,4.4265,16.5659,19.8736,2.8993,12.1661,10.8238,6.5461,14.8403,16.312,18.8564,17.5506,11.3475,13.9729,7.9578,6.2575,10.3318,5.5061,-1.4753,-11.6449
0.3325,8.6634,1.8533,10.857,14.9688,8.3816,13.334,9.1374,6.9757,14.0928,7.7694,4.766,16.3309,19.3088,2.109,11.2204,9.8177,5.7758,14.0117,15.3718,18.1162,16.9078,10.8807,13.8997,7.9228,6.3936,10.5899,5.8232,-1.6968,-11.3139
-0.3274,7.8269,1.3325,10.1173,14.3215,7.9073,13.046,9.0356,7.0099,14.0732,7.9747,5.118,16.2085,18.8565,1.3896,10.314,8.8723,5.0883,13.2375,14.4687,17.4669,16.3225,10.4776,13.8759,7.9145,6.5345,10.8512,6.1512,-1.8853,-10.9305
-0.7996,7.1703,0.9815,9.4992,13.7523,7.5018,12.6893,8.8024,6.9196,13.9465,8.0615,5.4369,16.1703,18.5337,0.8342,9.5575,8.1047,4.5721,12.6079,13.6997,16.9589,15.8495,10.1791,13.8811,7.9253,6.6558,11.0777,6.4508,-2.0264,-10.5325
-1.0287,6.7506,0.8212,9.0436,13.2877,7.1788,12.2538,8.4417,6.6867,13.6887,7.9954,5.6745,16.1668,18.3319,0.5043,9.0268,7.5913,4.2817,12.18,13.1352,16.617,15.5193,10.0035,13.8798,7.9378,6.7247,11.2248,6.6755,-2.1163,-10.1503
-1.008,6.5759,0.836,8.7569,12.9311,6.9356,11.7376,7.9757,6.311,13.2878,7.756,5.7848,16.1355,18.2189,0.418,8.7485,7.3546,4.2268,11.9682,12.804,16.4361,15.3335,9.9426,13.8266,7.926,6.7038,11.2453,6.777,-2.163,-9.8041
-0.7795,6.6062,0.9792,8.6111,12.6633,6.7548,11.1515,7.4441,5.814,12.7463,7.342,5.731,16.0126,18.1453,0.5476,8.6962,7.3615,4.3717,11.9431,12.6887,16.3819,15.2653,9.9644,13.6737,7.8586,6.5561,11.0938,6.7127,-2.1839,-9.5028
-0.4227,6.7636,1.1837,8.5516,12.4479,6.6091,10.5192,6.8993,5.2378,12.0829,6.7732,5.491,15.7432,18.0529,0.8276,8.7991,7.5342,4.6449,12.0403,12.7295,16.3968,15.2649,10.0189,13.3787,7.705,6.2528,10.7338,6.4529,-2.2005,-9.2451
-0.0342,6.9512,1.3771,8.5099,12.2396,6.4671,9.8745,6.3995,4.6412,11.3319,6.0898,5.0619,15.2906,17.8836,1.1705,8.9596,7.7704,4.9555,12.1752,12.838,16.4104,15.2685,10.0483,12.9128,7.4417,5.7802,10.1447,5.9871,-2.2326,-9.0215
0.2943,7.0745,1.4971,8.4184,11.9939,6.2992,9.2551,6.0001,4.0896,10.5384,5.3479,4.4623,14.6409,17.588,1.4872,9.0765,7.9676,5.2144,12.2615,12.9169,16.3517,15.2109,9.9982,12.2667,7.0579,5.1455,9.3287,5.3283,-2.2925,-8.8186
0.495,7.0612,1.5026,8.2247,11.6759,6.0827,8.6952,5.7444,3.6444,9.7524,4.6125,3.731,13.8036,17.1308,1.7057,9.067,8.0448,5.3517,12.2284,12.8802,16.1603,15.0366,9.8279,11.4537,6.5597,4.3789,8.3142,4.5143,-2.3817,-8.6223
0.5353,6.8747,1.3801,7.901,11.2657,5.8053,8.22,5.6555,3.352,9.0215,3.949,2.9246,12.8089,16.4953,1.7827,8.8813,7.9562,5.329,12.0316,12.669,15.7957,14.709,9.517,10.5083,5.9701,3.5315,7.1557,3.6048,-2.4909,-8.4208
0.4197,6.5171,1.1425,7.4472,10.7604,5.4661,7.8411,5.7311,3.2351,8.3831,3.4148,2.1109,11.7019,15.6837,1.7073,8.5076,7.6942,5.1416,11.6583,12.2591,15.2412,14.2145,9.0678,9.4822,5.3263,2.6695,5.9296,2.6752,-2.603,-8.2061
0.1822,6.0239,0.8224,6.8885,10.1726,5.0743,7.5557,5.9425,3.2881,7.8606,3.0516,1.362,10.5365,14.7166,1.4959,7.9678,7.2827,4.8135,11.1239,11.6607,14.5048,13.5634,8.5028,8.437,4.6734,1.8647,4.7256,1.8078,-2.6979,-7.9737
-0.1271,5.4511,0.4636,6.2669,9.527,4.6471,7.348,6.2382,3.4784,7.4613,2.8807,0.7461,9.3693,13.6307,1.1809,7.3052,6.7647,4.3868,10.4646,10.9109,13.6154,12.7855,7.8593,7.4361,4.0578,1.1846,3.6353,1.0803,-2.7564,-7.7226
-0.4568,4.8602,0.1112,5.6313,8.8553,4.206,7.194,6.553,3.7526,7.1795,2.9017,0.3189,8.2556,12.4751,0.7997,6.5716,6.1875,3.9082,9.7275,10.0624,12.6189,11.9254,7.1819,6.5368,3.5201,0.6817,2.7406,0.5554,-2.7642,-7.4539
-0.7666,4.3048,-0.1965,5.0276,8.1923,3.7741,7.0674,6.8188,4.047,7.0007,3.0942,0.1174,7.2458,11.308,0.3856,5.8155,5.5918,3.4192,8.9611,9.1731,11.5717,11.035,6.5152,5.7844,3.0891,0.386,2.1032,0.2722,-2.7134,-7.1714
-1.0331,3.8226,-0.4322,4.492,7.5718,3.3746,6.9458,6.9772,4.2998,6.9074,3.4224,0.1547,6.3833,10.1924,-0.0359,5.0761,5.0059,2.949,8.2088,8.2971,10.5354,10.1674,5.8973,5.2083,2.7794,0.3015,1.7565,0.2407,-2.6032,-6.8806
-1.2499,3.432,-0.5821,4.048,7.0246,3.0291,6.8159,6.9895,4.4623,6.8813,3.8399,0.4175,5.7035,9.1919,-0.4463,4.3823,4.4466,2.5143,7.5051,7.4807,9.5721,9.3711,5.3562,4.8217,2.5911,0.4066,1.7034,0.4417,-2.4393,-6.5882
-1.421,3.1346,-0.6448,3.7065,6.5761,2.7573,6.6753,6.8437,4.5055,6.905,4.294,0.8667,5.2318,8.3657,-0.8298,3.7561,3.9238,2.1229,6.8763,6.7613,8.7398,8.6863,4.9087,4.6226,2.5119,0.6596,1.9163,0.8301,-2.2335,-6.3008
-1.5535,2.9204,-0.6284,3.4682,6.2449,2.5756,6.5308,6.556,4.4218,6.9603,4.7294,1.4403,4.9818,7.7637,-1.1693,3.217,3.4476,1.7802,6.343,6.169,8.0878,8.1435,4.5634,4.5969,2.5213,1.0066,2.3428,1.3422,-2.0026,-6.0238
-1.6498,2.7745,-0.5473,3.3266,6.0401,2.4958,6.3942,6.1664,4.2215,7.026,5.0902,2.0597,4.9519,7.419,-1.4443,2.7848,3.0337,1.495,5.9226,5.7275,7.6521,7.7621,4.3224,4.721,2.5949,1.3892,2.9116,1.9037,-1.7669,-5.7609
-1.7054,2.6818,-0.4181,3.2705,5.9595,2.5223,6.2762,5.7306,3.9267,7.0754,5.3242,2.638,5.122,7.3421,-1.632,2.4794,2.7042,1.2819,5.6302,5.4535,7.4501,7.5492,4.1848,4.9624,2.7075,1.7522,3.5416,2.439,-1.5476,-5.5149
-1.71,2.6317,-0.257,3.2858,5.9881,2.649,6.1816,5.308,3.5648,7.0767,5.3874,3.0909,5.4521,7.5153,-1.7118,2.3175,2.485,1.1595,5.4773,5.3546,7.4766,7.4985,4.1464,5.2808,2.8342,2.0482,4.1494,2.8789,-1.3634,-5.2897
-1.6527,2.6181,-0.0787,3.3561,6.0983,2.8587,6.1059,4.9497,3.164,6.994,5.2502,3.3477,5.8818,7.8911,-1.6714,2.3074,2.3991,1.1455,5.4676,5.4264,7.7024,7.5889,4.1986,5.6281,2.9511,2.2402,4.6571,3.1672,-1.2269,-5.0911
-1.5278,2.6389,0.1033,3.4637,6.2526,3.123,6.0347,4.6897,2.7513,6.7924,4.903,3.3617,6.3349,8.3951,-1.5114,2.4441,2.4583,1.2496,5.5928,5.6494,8.076,7.7846,4.3261,5.9503,3.0346,2.3033,4.9985,3.2661,-1.1424,-4.9273
-1.3397,2.6926,0.2766,3.5899,6.4078,3.4061,5.946,4.5395,2.3529,6.4445,4.361,3.1166,6.7265,8.9335,-1.2495,2.7051,2.6572,1.4667,5.8297,5.9887,8.5289,8.0373,4.506,6.1908,3.0617,2.2249,5.1244,3.1589,-1.1056,-4.8066
-1.1049,2.7746,0.4288,3.7148,6.5204,3.6691,5.8135,4.4885,1.9943,5.938,3.6647,2.6293,6.972,9.4034,-0.9199,3.0501,2.9685,1.7741,6.1389,6.3941,8.9819,8.2897,4.7069,6.2958,3.0118,2.0055,5.0064,2.8514,-1.1051,-4.7343
-0.8499,2.8742,0.5486,3.8175,6.5516,3.8756,5.6114,4.509,1.6995,5.2803,2.8764,1.9467,6.9979,9.7056,-0.5696,3.423,3.3448,2.1314,6.4675,6.8033,9.3536,8.4823,4.8913,6.2212,2.8691,1.658,4.6386,2.3704,-1.1257,-4.7087
-0.6071,2.9726,0.6268,3.8762,6.4705,3.9953,5.3187,4.5632,1.4887,4.5008,2.0711,1.1389,6.75,9.7566,-0.2513,3.7576,3.723,2.4856,6.7548,7.1462,9.5672,8.5601,5.0196,5.9389,2.6259,1.2073,4.0379,1.7592,-1.1511,-4.7187
-0.4078,3.0446,0.6587,3.8691,6.2572,4.0065,4.9233,4.6115,1.3726,3.648,1.3246,0.2874,6.2013,9.499,-0.0135,3.9865,4.0345,2.7797,6.9397,7.3516,9.5582,8.4791,5.0543,5.4411,2.2847,0.687,3.2419,1.0715,-1.1685,-4.7431
-0.2759,3.062,0.646,3.7766,5.9035,3.8975,4.4239,4.6189,1.3476,2.7817,0.7006,-0.5262,5.3555,8.9088,0.1081,4.0505,4.2161,2.9617,6.9695,7.3555,9.2812,8.2119,4.9659,4.7432,1.8591,0.1365,2.3056,0.3645,-1.1696,-4.7533
-0.2227,2.9994,0.5977,3.5847,5.414,3.6675,3.8315,4.5593,1.3931,1.9643,0.241,-1.2318,4.2482,7.9995,0.0974,3.9088,4.2207,2.9942,6.8078,7.11,8.7157,7.7514,4.7375,3.883,1.3727,-0.4043,1.2962,-0.3082,-1.152,-4.717
-0.2452,2.84,0.5289,3.2877,4.8064,3.327,3.1696,4.4181,1.4741,1.2515,-0.0384,-1.7772,2.9439,6.821,-0.0398,3.5454,4.0252,2.8611,6.4401,6.5919,7.8711,7.1114,4.3684,2.9169,0.856,-0.8988,0.2872,-0.9015,-1.1175,-4.6043
-0.3271,2.5807,0.4582,2.8917,4.1111,2.8976,2.473,4.1928,1.5482,0.6857,-0.1462,-2.1323,1.5307,5.4544,-0.2781,2.9734,3.6341,2.5698,5.877,5.8102,6.7887,6.3263,3.8748,1.9149,0.3432,-1.3178,-0.648,-1.3819,-1.0699,-4.3939
-0.4439,2.2345,0.4035,2.4156,3.3692,2.4106,1.7854,3.8923,1.5758,0.2927,-0.1089,-2.2876,0.1112,4.0038,-0.5793,2.2338,3.0793,2.1499,5.1539,4.8086,5.5404,5.4476,3.2889,0.9528,-0.1321,-1.6417,-1.443,-1.7285,-1.0136,-4.0784
-0.5679,1.8295,0.3775,1.8904,2.63,1.9049,1.1566,3.5368,1.5306,0.0815,0.0379,-2.2518,-1.2069,2.5844,-0.8998,1.3911,2.4144,1.6476,4.3276,3.6638,4.2232,4.5389,2.6553,0.1046,-0.5401,-1.8618,-2.045,-1.9326,-0.9515,-3.6674
-0.6747,1.4056,0.3856,1.357,1.946,1.423,0.6374,3.1562,1.4074,0.0463,0.2584,-2.0468,-2.3214,1.3114,-1.1982,0.5256,1.7077,1.1183,3.4698,2.4777,2.9491,3.6706,2.0261,-0.5653,-0.8581,-1.9789,-2.4193,-1.996,-0.8851,-3.1886
-0.7465,1.0081,0.4251,0.8617,1.3686,1.0068,0.2744,2.7885,1.2257,0.1707,0.5244,-1.7036,-3.146,0.2875,-1.4409,-0.277,1.0324,0.6185,2.659,1.3641,1.832,2.9118,1.4548,-1.0087,-1.0716,-2.0022,-2.5526,-1.9298,-0.8149,-2.6839
-0.7742,0.6807,0.487,0.4502,0.9416,0.6926,0.1033,2.4765,1.0273,0.4315,0.8199,-1.2578,-3.6179,-0.4078,-1.6048,-0.9366,0.4566,0.1984,1.9703,0.4332,0.9723,2.3234,0.9902,-1.1982,-1.1751,-1.946,-2.453,-1.7519,-0.7412,-2.2032
-0.7562,0.4591,0.5588,0.1606,0.6952,0.5064,0.1416,2.263,0.8686,0.8021,1.1418,-0.7464,-3.7052,-0.7259,-1.6793,-1.3894,0.0346,-0.1035,1.4653,-0.2245,0.443,1.9501,0.6705,-1.1297,-1.172,-1.8277,-2.1474,-1.4849,-0.6668,-1.7955
-0.6966,0.3655,0.6272,0.0182,0.6422,0.4593,0.3851,2.1845,0.8086,1.2552,1.4965,-0.2049,-3.4085,-0.6546,-1.6655,-1.5962,-0.2002,-0.2638,1.1841,-0.5512,0.2791,1.8152,0.518,-0.8215,-1.073,-1.665,-1.6766,-1.1531,-0.5982,-1.4999
-0.6029,0.4061,0.6815,0.0315,0.7758,0.5473,0.808,2.2655,0.8964,1.7651,1.8944,0.3365,-2.7596,-0.2167,-1.5741,-1.5465,-0.2374,-0.2751,1.1407,-0.5288,0.4746,1.9178,0.5369,-0.3096,-0.8952,-1.4742,-1.0884,-0.7804,-0.5453,-1.3392
-0.4838,0.5726,0.7161,0.1918,1.0723,0.7526,1.3685,2.5141,1.1611,2.3096,2.3447,0.8556,-1.8145,0.5352,-1.4223,-1.2575,-0.0899,-0.1453,1.3228,-0.1779,0.9865,2.2344,0.7134,0.3586,-0.6585,-1.2689,-0.4301,-0.3865,-0.5186,-1.3174
-0.3476,0.8444,0.7304,0.4761,1.4957,1.0485,2.0186,2.9203,1.6062,2.8717,2.8517,1.3406,-0.6441,1.529,-1.2295,-0.7694,0.2115,0.105,1.6953,0.4479,1.7453,2.7237,1.0193,1.1328,-0.3835,-1.0594,0.2588,0.0142,-0.5259,-1.42
-0.2016,1.193,0.7283,0.8512,2.004,1.4039,2.7134,3.4563,2.2096,3.4407,3.4132,1.7915,0.6754,2.6838,-1.0144,-0.1374,0.6232,0.445,2.2075,1.2732,2.6685,3.3337,1.4169,1.9667,-0.0887,-0.8515,0.9503,0.4138,-0.5685,-1.6189
-0.0521,1.586,0.7154,1.2793,2.5552,1.7886,3.4185,4.0805,2.9284,4.0113,4.02,2.2177,2.0707,3.9198,-0.7928,0.5763,1.0965,0.838,2.8001,2.2126,3.6738,4.0089,1.8647,2.8219,0.2114,-0.6479,1.6292,0.8095,-0.6399,-1.8772
0.0953,1.9908,0.6976,1.722,3.1116,2.1758,4.1117,4.7427,3.706,4.5813,4.6565,2.6337,3.4755,5.165,-0.5769,1.3103,1.5836,1.2452,3.4139,3.1813,4.6879,4.6969,2.3233,3.6689,0.5063,-0.4485,2.2899,1.2012,-0.7271,-2.156
