FP1,F3,F7,FC3,C3,C5,P3,P7,PO7,PO3,O1,Oz,Pz,CPz,FP2,Fz,F4,F8,FC4,FCz,Cz,C4,C6,P4,P8,PO8,PO4,O2,(corr) HEOG,(corr) VEOG
-2.1749,-3.2417,-1.5799,-3.2124,-3.5351,-2.3699,-2.3395,-0.942,-0.4663,-1.7454,-1.7645,-0.9572,-2.7933,-2.8207,-3.0383,-3.8981,-2.7037,0.1749,-1.8879,-3.7703,-3.5674,-2.0532,-1.2981,-1.8581,-0.8849,-0.7605,-1.9265,-1.6885,-1.7568,3.0307
-2.4632,-3.5333,-1.8643,-3.5792,-3.8821,-2.6658,-2.7203,-1.1,-0.718,-2.123,-2.0676,-1.2326,-3.1384,-3.2826,-3.3215,-4.3767,-3.3195,-0.0893,-2.3379,-4.3602,-4.0779,-2.503,-1.6387,-2.1522,-0.9222,-0.8543,-1.9329,-1.8778,-1.9112,3.1686
-2.5555,-3.6222,-1.894,-3.8375,-4.0794,-2.7999,-3.0118,-1.2336,-1.003,-2.4827,-2.3399,-1.4334,-3.405,-3.6576,-3.4913,-4.6872,-3.7815,-0.308,-2.6839,-4.7927,-4.4841,-2.8646,-1.9319,-2.4149,-0.9865,-1.0281,-1.9399,-2.0954,-1.945,3.2965
-2.4529,-3.5152,-1.6828,-3.981,-4.1249,-2.7731,-3.1981,-1.3206,-1.2806,-2.7819,-2.5427,-1.5176,-3.5797,-3.9232,-3.5515,-4.8111,-4.0553,-0.4758,-2.8986,-5.0332,-4.7568,-3.1126,-2.1639,-2.6243,-1.0725,-1.2469,-1.9254,-2.3062,-1.8623,3.403
-2.1873,-3.2472,-1.2894,-4.0169,-4.0358,-2.6103,-3.2758,-1.3479,-1.5115,-2.9855,-2.6468,-1.4598,-3.6599,-4.0721,-3.5189,-4.7557,-4.1361,-0.5922,-2.9756,-5.069,-4.8836,-3.2398,-2.3313,-2.7663,-1.1696,-1.4646,-1.8646,-2.4733,-1.6929,3.4745
-1.8137,-2.8728,-0.8027,-3.9623,-3.8422,-2.3521,-3.2522,-1.3139,-1.6651,-3.0699,-2.6377,-1.2547,-3.6533,-4.1123,-3.4197,-4.5517,-4.0492,-0.6629,-2.9314,-4.9135,-4.8712,-3.2584,-2.4406,-2.8363,-1.2648,-1.6353,-1.7367,-2.5658,-1.4823,3.4983
-1.3976,-2.4539,-0.3202,-3.8383,-3.5789,-2.0447,-3.1407,-1.2266,-1.7242,-3.0261,-2.5164,-0.9186,-3.5751,-4.063,-3.2834,-4.2467,-3.842,-0.6979,-2.8011,-4.6028,-4.7431,-3.1964,-2.5065,-2.8391,-1.3464,-1.7243,-1.531,-2.5658,-1.2782,3.4662
-1,-2.0453,0.0751,-3.6628,-3.2761,-1.7282,-2.9561,-1.1,-1.6864,-2.8584,-2.2977,-0.4852,-3.4425,-3.9471,-3.1349,-3.8932,-3.5715,-0.7075,-2.629,-4.1877,-4.5321,-3.0889,-2.549,-2.7853,-1.4066,-1.7167,-1.2486,-2.4717,-1.1164,3.3761
-0.6637,-1.6827,0.3334,-3.4455,-2.9524,-1.4268,-2.7092,-0.9484,-1.5617,-2.5799,-2.0053,0.001,-3.2675,-3.7831,-2.9879,-3.5355,-3.2883,-0.6969,-2.4559,-3.7199,-4.2703,-2.9671,-2.586,-2.686,-1.4428,-1.619,-0.9015,-2.2977,-1.0116,3.2321
-0.4041,-1.3748,0.4471,-3.1855,-2.6116,-1.1449,-2.4047,-0.7822,-1.3675,-2.2081,-1.6658,0.4927,-3.0522,-3.5787,-2.8416,-3.198,-3.0232,-0.6642,-2.3062,-3.2393,-3.9787,-2.8483,-2.627,-2.5476,-1.4566,-1.455,-0.5086,-2.0691,-0.9551,3.0428
-0.2078,-1.1041,0.4489,-2.8727,-2.2439,-0.8689,-2.0415,-0.605,-1.1238,-1.7605,-1.3033,0.949,-2.787,-3.3291,-2.6816,-2.8808,-2.7806,-0.6004,-2.1812,-2.7644,-3.6623,-2.7302,-2.6664,-2.369,-1.4512,-1.2568,-0.0913,-1.8151,-0.9201,2.8189
-0.0387,-0.8335,0.3996,-2.4943,-1.8321,-0.5744,-1.6165,-0.415,-0.8495,-1.2532,-0.9352,1.3413,-2.4547,-3.0204,-2.4843,-2.5611,-2.5393,-0.4918,-2.0591,-2.2905,-3.3106,-2.5918,-2.6832,-2.1421,-1.4281,-1.0545,0.332,-1.5614,-0.8724,2.5709
0.1505,-0.5195,0.3707,-2.0415,-1.3606,-0.2366,-1.1307,-0.2085,-0.5608,-0.7011,-0.5709,1.6569,-2.0374,-2.6369,-2.2226,-2.2014,-2.261,-0.3235,-1.9018,-1.7953,-2.9046,-2.4001,-2.6437,-1.8549,-1.3844,-0.8676,0.7487,-1.3251,-0.7828,2.3067
0.4034,-0.1255,0.4249,-1.5174,-0.824,0.1593,-0.5946,0.0162,-0.2705,-0.12,-0.2121,1.8991,-1.5255,-2.1704,-1.8728,-1.7628,-1.9036,-0.0843,-1.6669,-1.2497,-2.427,-2.121,-2.5099,-1.4968,-1.3121,-0.7001,1.1537,-1.1121,-0.6367,2.0294
0.7469,0.3664,0.6017,-0.9417,-0.2339,0.6113,-0.0315,0.2557,0.0114,0.4721,0.1449,2.0842,-0.9252,-1.6282,-1.4219,-1.219,-1.4367,0.2273,-1.3214,-0.6324,-1.8727,-1.7323,-2.2517,-1.0645,-1.1996,-0.5401,1.5488,-0.9176,-0.4371,1.7368
1.1815,0.9484,0.909,-0.3517,0.3791,1.0978,0.5236,0.5009,0.2779,1.0539,0.5061,2.2363,-0.2609,-1.0358,-0.8748,-0.5681,-0.8546,0.598,-0.8542,0.0574,-1.2564,-1.2337,-1.8584,-0.5662,-1.0344,-0.3635,1.9407,-0.7298,-0.2012,1.4219
1.6793,1.5863,1.3228,0.2016,0.9691,1.5804,1.029,0.7382,0.525,1.602,0.8752,2.381,0.4264,-0.4357,-0.2572,0.1615,-0.1839,0.9978,-0.2833,0.7932,-0.6144,-0.6523,-1.3476,-0.0221,-0.8069,-0.1402,2.339,-0.5328,0.0468,1.0759
2.1883,2.2252,1.7926,0.6621,1.482,2.0114,1.4441,0.9513,0.7514,2.092,1.2495,2.5394,1.0859,0.1201,0.3855,0.9122,0.5186,1.3835,0.3448,1.5215,0.0003,-0.0408,-0.7666,0.5375,-0.5137,0.1584,2.755,-0.3118,0.2832,0.6933
2.6433,2.7995,2.2523,0.9779,1.8659,2.3424,1.7367,1.1235,0.957,2.501,1.6155,2.7219,1.6667,0.5796,0.9954,1.6072,1.1754,1.7065,0.963,2.1711,0.5277,0.5326,-0.1852,1.0777,-0.1596,0.5515,3.2,-0.057,0.4907,0.2778
2.9804,3.2457,2.6328,1.1126,2.0809,2.5342,1.8882,1.2388,1.1398,2.8079,1.9461,2.9237,2.126,0.9017,1.513,2.1657,1.705,1.925,1.4981,2.6679,0.9128,0.9978,0.3197,1.5647,0.2423,1.0422,3.6833,0.2321,0.6598,-0.1531
3.1522,3.5154,2.8771,1.0525,2.1067,2.5641,1.8953,1.2835,1.2923,2.9936,2.2003,3.1225,2.4353,1.0635,1.8901,2.5213,2.0408,2.0141,1.8871,2.953,1.1179,1.2999,0.6817,1.9718,0.6712,1.6134,4.2075,0.5422,0.7895,-0.5677
3.1392,3.5859,2.9528,0.8122,1.9475,2.4318,1.7695,1.2467,1.4001,3.0414,2.3272,3.2797,2.5847,1.0662,2.1002,2.6387,2.1485,1.9739,2.0924,2.9993,1.1322,1.4124,0.8617,2.283,1.101,2.2266,4.7657,0.8455,0.8843,-0.9242
2.9563,3.4674,2.8617,0.4341,1.6333,2.1608,1.5337,1.122,1.4422,2.9375,2.2738,3.3472,2.5829,0.9352,2.1458,2.525,2.0365,1.8322,2.1128,2.8217,0.9764,1.3464,0.8582,2.4948,1.5037,2.8257,5.3376,1.1014,0.9515,-1.1804
2.6511,3.2033,2.6406,-0.0162,1.2166,1.7961,1.2184,0.9084,1.3937,2.6731,1.9952,3.2768,2.4555,0.7176,2.0582,2.2314,1.7575,1.6405,1.9855,2.4783,0.7019,1.1502,0.7089,2.6162,1.8526,3.3446,5.89,1.2625,0.9979,-1.3042
2.2962,2.8642,2.3549,-0.4591,0.766,1.3966,0.8578,0.6109,1.2306,2.2471,1.4657,3.0325,2.241,0.4743,1.8914,1.8452,1.3998,1.4651,1.7799,2.0616,0.3826,0.9009,0.4842,2.6663,2.1265,3.7171,6.3781,1.2839,1.0275,-1.2834
1.9749,2.5355,2.0841,-0.8135,0.356,1.0267,0.4858,0.24,0.9349,1.6687,0.6854,2.6005,1.984,0.2696,1.7109,1.4728,1.07,1.374,1.5833,1.6802,0.1017,0.6885,0.2717,2.6693,2.3114,3.8877,6.7492,1.133,1.0399,-1.1297
1.766,2.302,1.9051,-1.0097,0.0557,0.7453,0.1323,-0.1891,0.4993,0.9585,-0.3161,1.9961,1.7281,0.1595,1.5806,1.2183,0.8701,1.4222,1.481,1.4372,-0.0649,0.5966,0.157,2.6495,2.4004,3.8196,6.9476,0.7973,1.0314,-0.8763
1.7294,2.2328,1.8769,-1,-0.0828,0.5978,-0.1788,-0.6581,-0.0703,0.1488,-1.4831,1.2631,1.5088,0.1812,1.5506,1.1627,0.8762,1.6413,1.5374,1.4077,-0.0628,0.683,0.2043,2.6254,2.3921,3.4991,6.9209,0.2879,0.9969,-0.5695
1.8957,2.3688,2.0307,-0.766,-0.032,0.6095,-0.431,-1.1466,-0.7526,-0.7185,-2.7399,0.4677,1.3485,0.3468,1.6487,1.3478,1.1229,2.0325,1.7809,1.6248,0.1295,0.9676,0.441,2.6056,2.2872,2.9351,6.6282,-0.3616,0.9329,-0.2566
2.2613,2.7161,2.3666,-0.3202,0.2061,0.7821,-0.6151,-1.633,-1.5126,-1.5939,-3.9996,-0.3125,1.2551,0.6418,1.8773,1.769,1.5963,2.568,2.1983,2.073,0.4982,1.4276,0.8513,2.5877,2.0868,2.1564,6.0496,-1.1016,0.8414,0.024
2.7891,3.2448,2.8562,0.2959,0.6009,1.094,-0.7281,-2.0946,-2.3028,-2.4237,-5.1741,-1.0014,1.2226,1.0289,2.2146,2.3771,2.2384,3.196,2.7383,2.6932,0.9976,2.0036,1.381,2.5593,1.7905,1.2062,5.1929,-1.8745,0.7316,0.2494
3.4155,3.8943,3.4487,1.0189,1.0993,1.5043,-0.7715,-2.5083,-3.0687,-3.1541,-6.1835,-1.5369,1.2358,1.4564,2.6199,3.0899,2.9601,3.8509,3.3235,3.3964,1.5608,2.6129,1.9506,2.5023,1.3977,0.1366,4.0971,-2.6244,0.6192,0.4137
4.0623,4.5858,4.0794,1.7746,1.6367,1.9603,-0.7491,-2.8508,-3.7532,-3.7351,-6.9642,-1.8795,1.2762,1.8694,3.043,3.8096,3.6599,4.4639,3.8673,4.0831,2.1144,3.1672,2.4741,2.3983,0.9111,-0.9959,2.8304,-3.3036,0.523,0.5237
4.6514,5.2368,4.6803,2.4902,2.1499,2.4078,-0.6643,-3.1002,-4.3033,-4.1245,-7.4742,-2.0154,1.3291,2.2221,3.435,4.4436,4.2455,4.9742,4.2927,4.6648,2.5948,3.5914,2.8787,2.2358,0.3404,-2.1333,1.4836,-3.8761,0.4587,0.5929
5.1193,5.7784,5.1922,3.108,2.5908,2.8021,-0.5175,-3.2371,-4.6738,-4.2908,-7.6948,-1.9532,1.3901,2.4875,3.7588,4.9231,4.6526,5.3385,4.5493,5.0815,2.9615,3.8387,3.1192,2.0164,-0.2924,-3.2176,0.16,-4.3171,0.435,0.6343
5.4294,6.1681,5.5746,3.5943,2.9349,3.1167,-0.3052,-3.2465,-4.8313,-4.2155,-7.6288,-1.7172,1.4687,2.6629,3.9963,5.2157,4.8573,5.5371,4.6233,5.3116,3.2043,3.8997,3.1867,1.758,-0.9522,-4.1919,-1.0355,-4.61,0.4523,0.6555
5.5777,6.3969,5.8144,3.9438,3.1847,3.3482,-0.0201,-3.1198,-4.7561,-3.8938,-7.2971,-1.3396,1.5876,2.7688,4.1515,5.3284,4.8792,5.5757,4.5392,5.3731,3.3426,3.8017,3.1068,1.4938,-1.5924,-5.0034,-2.008,-4.7441,0.5043,0.6577
5.5914,6.4887,5.9276,4.1763,3.3653,3.5152,0.3465,-2.8566,-4.4439,-3.3366,-6.7339,-0.8546,1.7764,2.8418,4.247,5.3024,4.7743,5.483,4.3524,5.3148,3.4163,3.6001,2.9304,1.2665,-2.1611,-5.6066,-2.6829,-4.7127,0.583,0.6366
5.521,6.491,5.9554,4.3282,3.5148,3.6519,0.7997,-2.466,-3.9072,-2.5708,-5.9835,-0.2963,2.0623,2.9232,4.3167,5.2,4.6206,5.3041,4.1345,5.2017,3.4727,3.3635,2.7198,1.1191,-2.6097,-5.9688,-3.0145,-4.5154,0.6821,0.5869
5.4276,6.4618,5.9524,4.4399,3.6718,3.7974,1.3365,-1.9679,-3.1754,-1.6399,-5.0977,0.3,2.459,3.0464,4.3952,5.0879,4.4976,5.0927,3.9554,5.0974,3.551,3.156,2.5327,1.0842,-2.9008,-6.0736,-2.9905,-4.1605,0.8006,0.506
5.368,6.4534,5.9717,4.5437,3.8633,3.9838,1.9403,-1.393,-2.2946,-0.6021,-4.1343,0.8971,2.9583,3.2269,4.5086,5.0207,4.4675,4.9017,3.8674,5.0493,3.6712,3.0227,2.409,1.1764,-3.014,-5.9241,-2.6337,-3.6688,0.9417,0.3964
5.3815,6.4998,6.0511,4.6549,4.0963,4.2262,2.5799,-0.7804,-1.3238,0.4739,-3.1544,1.455,3.5263,3.4572,4.6673,5.0293,4.5606,4.7752,3.8937,5.0784,3.8284,2.9807,2.3643,1.3876,-2.9477,-5.5417,-1.9992,-3.0743,1.1099,0.2673
5.4823,6.6099,6.2026,4.7696,4.3558,4.5183,3.2111,-0.1747,-0.3296,1.5155,-2.218,1.9341,4.1068,3.7081,4.8639,5.1161,4.7701,4.7424,4.0258,5.1773,3.9954,3.0182,2.3895,1.6891,-2.7169,-4.9645,-1.1672,-2.4229,1.3066,0.132
5.6571,6.7676,6.4099,4.8678,4.6081,4.8331,3.7829,0.3795,0.621,2.4546,-1.3799,2.2989,4.6301,3.936,5.0759,5.257,5.0551,4.8124,4.2267,5.3147,4.1306,3.1015,2.4588,2.0378,-2.3496,-4.2419,-0.2337,-1.7672,1.5265,0.0049
5.8701,6.9384,6.633,4.9217,4.81,5.1292,4.2453,0.8429,1.4686,3.2352,-0.6835,2.5229,5.0257,4.0921,5.2712,5.4096,5.3512,4.9713,4.4414,5.4446,4.1893,3.1843,2.5388,2.3843,-1.8812,-3.4295,0.7008,-1.1595,1.7578,-0.1027
6.0714,7.0789,6.8189,4.9051,4.9186,5.3604,4.5576,1.1863,2.1674,3.8199,-0.1572,2.5926,5.2342,4.1331,5.4156,5.5236,5.5848,5.1824,4.6079,5.5167,4.1338,3.2194,2.5985,2.6819,-1.3508,-2.5838,1.5429,-0.6446,1.9833,-0.1848
6.208,7.1462,6.9142,4.7998,4.901,5.486,4.6952,1.3945,2.6905,4.1927,0.1887,2.5093,5.2181,4.0297,5.4788,5.5513,5.6882,5.3904,4.669,5.4866,3.9411,3.1663,2.6137,2.8936,-0.798,-1.7571,2.2178,-0.2538,2.1846,-0.2404
6.2344,7.1055,6.877,4.5999,4.7406,5.4788,4.6532,1.4683,3.0321,4.3595,0.3623,2.2897,4.9676,3.7711,5.4397,5.455,5.611,5.529,4.5811,5.3222,3.6055,2.9971,2.5683,2.9966,-0.2604,-0.9936,2.6787,-0.001,2.345,-0.2704
6.1208,6.9351,6.6861,4.3105,4.4393,5.3309,4.4474,1.4248,3.2076,4.3454,0.389,1.9639,4.5026,3.3665,5.2875,5.2116,5.3286,5.5321,4.3201,5.0076,3.1381,2.6989,2.4518,2.9839,0.2283,-0.3276,2.9132,0.1177,2.4523,-0.2729
5.858,6.628,6.3439,3.945,4.0174,5.0544,4.1124,1.2952,3.2509,4.1908,0.3077,1.5723,3.8701,2.8429,5.0218,4.8143,4.8447,5.3463,3.884,4.5434,2.5637,2.2748,2.259,2.8641,0.6405,0.2184,2.9442,0.1216,2.5008,-0.2406
5.4572,6.1917,5.8749,3.52,3.5093,4.6783,3.6971,1.1211,3.2095,3.9466,0.1664,1.1598,3.1374,2.2412,4.6505,4.2711,4.1882,4.9421,3.2913,3.9452,1.9161,1.7432,1.9898,2.6584,0.9569,0.6331,2.8244,0.0413,2.4914,-0.1597
4.9463,5.6447,5.3192,3.0519,2.958,4.243,3.257,0.9483,3.137,3.6671,0.015,0.7684,2.3819,1.6093,4.1872,3.6022,3.4067,4.3222,2.5773,3.24,1.2334,1.1343,1.6497,2.3968,1.1677,0.9148,2.6235,-0.0882,2.4312,-0.0131
4.3637,5.0133,4.723,2.554,2.4081,3.7922,2.8463,0.8187,3.0841,3.4034,-0.1033,0.43,1.6783,0.9955,3.6489,2.8369,2.5564,3.522,1.7871,2.4624,0.5539,0.4856,1.2503,2.1114,1.2723,1.0693,2.4111,-0.2338,2.3333,0.2151
3.7519,4.3278,4.1301,2.0364,1.8988,3.3657,2.5093,0.7632,3.0895,3.1959,-0.1587,0.1605,1.0877,0.4415,3.055,2.0101,1.6934,2.6036,0.9693,1.6508,-0.0878,-0.1638,0.8093,1.8318,1.2791,1.1077,2.2414,-0.3701,2.2155,0.5337
3.1512,3.6197,3.5755,1.5082,1.4593,2.9937,2.2742,0.7955,3.1735,3.0698,-0.1398,-0.0426,0.6475,-0.0219,2.4269,1.1608,0.8656,1.6439,0.1706,0.8442,-0.6623,-0.7776,0.3501,1.5809,1.2045,1.0461,2.1426,-0.4821,2.0988,0.9398
2.596,2.9212,3.0826,0.9804,1.1064,2.6942,2.1504,0.9107,3.3348,3.0325,-0.0543,-0.197,0.3694,-0.3766,1.7894,0.3304,0.1098,0.7223,-0.5676,0.0802,-1.1464,-1.3245,-0.0968,1.3745,1.0723,0.9059,2.1152,-0.5651,2.004,1.4155
2.1122,2.2644,2.6643,0.4686,0.8456,2.4739,2.1297,1.0871,3.5522,3.0754,0.0744,-0.3297,0.2411,-0.6161,1.1711,-0.4391,-0.5493,-0.0912,-1.2108,-0.6064,-1.5224,-1.7794,-0.4952,1.2228,0.9126,0.7154,2.1376,-0.622,1.9475,1.9291
1.7167,1.6807,2.3262,-0.006,0.6746,2.3309,2.1909,1.2925,3.7914,3.1784,0.2144,-0.468,0.2345,-0.7421,0.6035,-1.1078,-1.0975,-0.7448,-1.7329,-1.1858,-1.7771,-2.1227,-0.8052,1.1332,0.7601,0.5099,2.1781,-0.6586,1.9378,2.44
1.4174,1.1992,2.0705,-0.4178,0.5878,2.259,2.3065,1.4919,4.0127,3.3162,0.3334,-0.6313,0.3159,-0.7615,0.1196,-1.6426,-1.5297,-1.2105,-2.1179,-1.635,-1.9023,-2.3408,-0.9903,1.1133,0.6507,0.329,2.2073,-0.6786,1.9745,2.9059
1.2133,0.8426,1.8977,-0.7419,0.5795,2.2506,2.4495,1.6556,4.1802,3.4643,0.4065,-0.8244,0.4557,-0.6822,-0.251,-2.0213,-1.8477,-1.4844,-2.361,-1.9404,-1.8943,-2.4268,-1.0254,1.1714,0.6163,0.2115,2.209,-0.6807,2.0494,3.2911
1.0961,0.6236,1.8072,-0.9596,0.6455,2.2982,2.5995,1.7638,4.2687,3.6037,0.4207,-1.0355,0.6352,-0.5114,-0.486,-2.2364,-2.0588,-1.5842,-2.4698,-2.0983,-1.7552,-2.3816,-0.9045,1.3161,0.6791,0.1881,2.1855,-0.657,2.1508,3.5731
1.0514,0.5426,1.7955,-1.0623,0.783,2.3951,2.7457,1.8099,4.2679,3.7235,0.3777,-1.2374,0.8496,-0.2539,-0.5761,-2.2955,-2.1742,-1.5414,-2.4619,-2.1143,-1.492,-2.2135,-0.6436,1.5545,0.8475,0.2753,2.1577,-0.5948,2.2669,3.7456
1.0621,0.5877,1.8534,-1.0536,0.9901,2.5349,2.8889,1.7995,4.1832,3.821,0.2912,-1.3934,1.1069,0.0889,-0.5273,-2.2185,-2.2057,-1.3943,-2.3611,-1.9995,-1.1152,-1.9362,-0.2773,1.8911,1.1138,0.4715,2.1606,-0.4799,2.3894,3.8169
1.1115,0.7379,1.9644,-0.9463,1.2644,2.7109,3.039,1.7474,4.0329,3.8999,0.1835,-1.4645,1.4247,0.5194,-0.3616,-2.0314,-2.1625,-1.1794,-2.1906,-1.7652,-0.6354,-1.5651,0.1504,2.3262,1.4564,0.7578,2.2351,-0.3012,2.5136,3.8045
1.1873,0.9686,2.1053,-0.758,1.6033,2.9166,3.2124,1.6728,3.8428,3.9677,0.0792,-1.4195,1.8242,1.0437,-0.1124,-1.7587,-2.047,-0.9278,-1.9649,-1.4171,-0.0599,-1.1128,0.5991,2.8564,1.8439,1.1012,2.4195,-0.0552,2.638,3.7274
1.2841,1.258,2.251,-0.5037,2.0038,3.146,3.4264,1.5944,3.64,4.0335,0.0005,-1.2413,2.3249,1.6706,0.1838,-1.4159,-1.8525,-0.6633,-1.6846,-0.9524,0.6101,-0.5849,1.0427,3.4745,2.2417,1.4616,2.7408,0.2514,2.7605,3.5975
1.4046,1.5934,2.3803,-0.1911,2.4641,3.3956,3.6955,1.5271,3.4467,4.1061,-0.0362,-0.9317,2.9409,2.4104,0.497,-1.0043,-1.5633,-0.4028,-1.3346,-0.3582,1.3813,0.0208,1.4748,4.1705,2.6182,1.7991,3.2089,0.6009,2.8753,3.4147
1.5592,1.9745,2.4835,0.1835,2.9847,3.6662,4.0284,1.4808,3.2778,4.1938,-0.0221,-0.5106,3.678,3.2724,0.8125,-0.5105,-1.1584,-0.1569,-0.8879,0.3857,2.2669,0.7122,1.9073,4.9315,2.9497,2.0814,3.8144,0.9684,2.9717,3.166
1.7632,2.4134,2.565,0.6351,3.569,3.9632,4.427,1.4606,3.1409,4.3048,0.0448,-0.01,4.5338,4.2622,1.1337,0.0903,-0.6178,0.0711,-0.3142,1.3004,3.2828,1.4991,2.3632,5.7439,3.2239,2.2891,4.5317,1.3272,3.035,2.8293
2.0324,2.9307,2.6428,1.1861,4.2225,4.2962,4.8878,1.469,3.0379,4.448,0.1616,0.5333,5.4994,5.3797,1.479,0.8251,0.0692,0.2861,0.41,2.3998,4.4413,2.3877,2.8683,6.5942,3.4396,2.4192,5.3262,1.6558,3.051,2.3811
2.3787,3.5477,2.7431,1.8604,4.9505,4.677,5.4042,1.5067,2.9689,4.6341,0.3232,1.0868,6.5613,6.6177,1.8731,1.7132,0.8962,0.5001,1.2924,3.6826,5.7451,3.3763,3.4432,7.4712,3.6067,2.4849,6.1638,1.9433,3.011,1.806
2.8052,4.2783,2.8929,2.6748,5.7557,5.1163,5.9689,1.5738,2.9336,4.8747,0.5236,1.6281,7.7037,7.961,2.3368,2.7558,1.8366,0.729,2.3191,5.1269,7.1818,4.4535,4.0979,8.3667,3.7428,2.5134,7.0197,2.1918,2.9157,1.1041
3.3047,5.1219,3.1132,3.6321,6.6353,5.6215,6.5751,1.6695,2.9335,5.1803,0.7563,2.1457,8.9093,9.3871,2.8779,3.9316,2.8451,0.9876,3.4556,6.6892,8.7231,5.5981,4.831,9.2756,3.8706,2.5402,7.8823,2.4144,2.775,0.2966
3.8596,6.0613,3.4138,4.7165,7.5792,6.1943,7.2169,1.7917,2.9702,5.556,1.0122,2.6361,10.1593,10.867,3.4876,5.1969,3.8655,1.2867,4.6517,8.3095,10.3272,6.7812,5.6298,10.1939,4.0131,2.6011,8.7506,2.6284,2.604,-0.575
4.445,7.0633,3.7919,5.8939,8.5707,6.8301,7.8876,1.937,3.0449,5.998,1.277,3.0979,11.4326,12.3673,4.1425,6.493,4.841,1.6321,5.8507,9.9194,11.9439,7.9708,6.4729,11.1162,4.1882,2.7231,9.6276,2.8478,2.418,-1.4542
5.033,8.0855,4.2335,7.116,9.5874,7.5176,8.5775,2.1013,3.156,6.4898,1.5296,3.5253,12.7051,13.8527,4.8105,7.7566,5.7254,2.0258,6.9997,11.453,13.5225,9.1362,7.3341,12.0332,4.4048,2.9166,10.5095,3.076,2.2286,-2.2801
5.5976,9.084,4.7182,8.3285,10.6045,8.2405,9.273,2.2805,3.298,7.0026,1.7433,3.9056,13.9498,15.289,5.4586,8.9324,6.4931,2.4667,8.0586,12.857,15.0183,10.2521,8.1861,12.9301,4.6602,3.171,11.3785,3.3032,2.042,-2.9998
6.1203,10.0231,5.2257,9.4816,11.5984,8.9803,9.9575,2.472,3.462,7.4986,1.8905,4.2196,15.1388,16.6457,6.0602,9.9829,7.1433,2.949,9.0062,14.0977,16.3987,11.3015,9.0056,13.7868,4.9399,3.4561,12.199,3.5085,1.8603,-3.5803
6.5928,10.8829,5.7404,10.5391,12.551,9.7197,10.6134,2.6746,3.6367,7.9379,1.9493,4.4465,16.2449,17.8982,6.5992,10.8944,7.6991,3.4603,9.8406,15.1632,17.6445,12.2758,9.7756,14.5801,5.2213,3.7291,12.9203,3.6659,1.6836,-4.0153
7.0188,11.6626,6.2541,11.485,13.4514,10.4454,11.2252,2.8882,3.8102,8.2859,1.9091,4.571,17.2446,19.0286,7.071,11.6768,8.1995,3.9794,10.5753,16.0607,18.7502,13.1724,10.4865,15.2857,5.4786,3.9446,13.4851,3.7515,1.5124,-4.3267
7.4116,12.3794,6.7661,12.3252,14.2967,11.1493,11.781,3.1125,3.9715,8.5199,1.774,4.5877,18.1195,20.0254,7.4798,12.3575,8.6882,4.4792,11.2318,16.8114,19.7198,13.9906,11.134,15.8812,5.6883,4.065,13.841,3.7497,1.3489,-4.5592
7.7899,13.0623,7.28,13.0832,15.0898,11.8276,12.274,3.346,4.1117,8.6329,1.5621,4.5043,18.8575,20.8837,7.8358,12.9736,9.202,4.9314,11.8323,17.444,20.5642,14.7291,11.7161,16.349,5.8341,4.0693,13.9536,3.6562,1.1975,-4.7703
8.1714,13.7413,7.7991,13.7905,15.8367,12.4783,12.7018,3.5853,4.2255,8.6342,1.302,4.3397,19.4529,21.6051,8.1508,13.5615,9.762,5.314,12.3945,17.9889,21.2981,15.3841,12.2285,16.6784,5.9093,3.956,13.8158,3.478,1.0646,-5.0168
8.5671,14.4363,8.3207,14.4754,16.5415,13.097,13.0649,3.8256,4.3118,8.5467,1.0276,4.1197,19.906,22.1967,8.4351,14.1489,10.3693,5.616,12.9284,18.4741,21.9378,15.9502,12.6628,16.8672,5.9168,3.7417,13.4531,3.2311,0.9576,-5.3434
8.9753,15.1474,8.831,15.1509,17.202,13.6731,13.3638,4.061,4.3724,8.4005,0.7715,3.8715,20.2215,22.6692,8.6947,14.7473,11.0046,5.8391,13.4352,18.9205,22.4988,16.4215,13.0066,16.9217,5.8674,3.4562,12.9207,2.9376,0.8825,-5.7735
9.3791,15.8503,9.3019,15.8072,17.8059,14.1876,13.5963,4.2843,4.411,8.2264,0.5584,3.619,20.4059,23.0341,8.9287,15.3482,11.6315,5.9929,13.9075,19.3381,22.9911,16.7931,13.2467,16.8563,5.7774,3.1352,12.2936,2.6226,0.8415,-6.3054
9.747,16.4985,9.6917,16.4103,18.3298,14.6138,13.756,4.4863,4.4301,8.0483,0.4009,3.38,20.4657,23.2995,9.1293,15.9233,12.2028,6.0893,14.3299,19.7226,23.4168,17.0622,13.3749,16.691,5.6655,2.8152,11.6521,2.312,0.8311,-6.9147
10.0384,17.032,9.9513,16.9083,18.7416,14.9209,13.8327,4.6561,4.4299,7.8796,0.2979,3.1664,20.4069,23.469,9.2825,16.4296,12.6695,6.1364,14.6822,20.0557,23.7672,17.2297,13.393,16.4504,5.5516,2.5286,11.0655,2.0309,0.8415,-7.5598
10.2125,17.3911,10.0358,17.2441,19.0072,15.081,13.8161,4.7823,4.409,7.7232,0.2371,2.9858,20.2363,23.5421,9.3722,16.8187,12.9912,6.1382,14.9438,20.3092,24.0257,17.3011,13.3165,16.161,5.4552,2.3019,10.5805,1.8023,0.8587,-8.1904
10.2391,17.5321,9.9177,17.3716,19.1008,15.0777,13.7007,4.8554,4.3662,7.5745,0.2009,2.8446,19.9647,23.5181,9.3857,17.0501,13.147,6.0984,15.1004,20.455,24.1741,17.2884,13.1755,15.8507,5.3944,2.1555,10.2156,1.6468,0.8667,-8.7573
10.1088,17.4416,9.5992,17.2716,19.0147,14.9139,13.4915,4.8713,4.3033,7.4272,0.1735,2.7489,19.6099,23.4017,9.319,17.1035,13.142,6.0259,15.1504,20.4766,24.2023,17.2115,13.0105,15.5474,5.3844,2.1037,9.9646,1.5816,0.8509,-9.221
9.8388,17.1438,9.1178,16.9614,18.7666,14.6159,13.2073,4.8343,4.2277,7.278,0.1461,2.7044,19.1994,23.2074,9.1802,16.9883,13.0091,5.937,15.1089,20.38,24.117,17.0979,12.8661,15.2772,5.4361,2.1543,9.8042,1.6189,0.8006,-9.5585
9.4715,16.6991,8.5425,16.4954,18.4,14.2323,12.8802,4.7579,4.1519,7.1288,0.1186,2.7133,18.7675,22.9606,8.9888,16.7443,12.8023,5.8532,15.0064,20.1979,23.9452,16.9796,12.7811,15.0616,5.5528,2.3067,9.7045,1.7636,0.7106,-9.7664
9.0666,16.1931,7.9616,15.9559,17.9767,13.8249,12.5498,4.6635,4.0916,6.9869,0.0979,2.7711,18.3506,22.6929,8.7715,16.4342,12.5845,5.7951,14.8825,19.9836,23.7306,16.8865,12.7788,14.9128,5.7281,2.5495,9.6354,2.0092,0.5815,-9.8609
8.6878,15.7175,7.4639,15.4346,17.5623,13.4558,12.2541,4.5754,4.0607,6.8603,0.0938,2.8639,17.9779,22.4349,8.5556,16.1287,12.4113,5.7754,14.7749,19.7975,23.5222,16.8385,12.8595,14.8298,5.9441,2.8585,9.57,2.3363,0.4203,-9.872
8.3868,15.3487,7.1164,15.0115,17.21,13.1721,12.0187,4.5156,4.0677,6.7536,0.1138,2.9688,17.6639,22.2062,8.3624,15.887,12.316,5.7947,14.7078,19.6875,23.3591,16.838,12.9978,14.7954,6.1728,3.1973,9.4837,2.7119,0.2391,-9.8362
8.1913,15.1289,6.9488,14.7361,16.9462,12.9943,11.85,4.4969,4.1109,6.6638,0.1583,3.0564,17.4028,22.009,8.2019,15.7412,12.3006,5.8403,14.6841,19.6728,23.2581,16.8673,13.1471,14.7777,6.3801,3.5215,9.3521,3.0933,0.0537,-9.7863
8.0989,15.0569,6.9459,14.6168,16.7651,12.9129,11.7325,4.5197,4.1776,6.5783,0.2191,3.0962,17.1698,21.8259,8.072,15.6872,12.3355,5.8897,14.6836,19.7357,23.2067,16.8908,13.2494,14.7345,6.5308,3.7845,9.1489,3.4334,-0.1198,-9.7424
8.0804,15.0905,7.0551,14.6221,16.6321,12.8933,11.6344,4.5716,4.2463,6.4776,0.2805,3.0624,16.9268,21.6249,7.9609,15.6873,12.3687,5.9165,14.67,19.8262,23.167,16.8641,13.249,14.6219,6.5945,3.9445,8.8464,3.6884,-0.2686,-9.7068
8.0903,15.1604,7.2041,14.693,16.4976,12.8891,11.5174,4.6307,4.2917,6.3412,0.3228,2.9388,16.634,21.3695,7.8528,15.6844,12.3434,5.898,14.6039,19.878,23.0889,16.7466,13.1065,14.4037,6.551,3.9708,8.4203,3.8254,-0.3855,-9.6645
8.0827,15.1923,7.3247,14.7626,16.3145,12.8581,11.3502,4.6729,4.2917,6.1548,0.3284,2.7234,16.2626,21.0315,7.7349,15.6206,12.2163,5.8225,14.4583,19.8313,22.9274,16.5148,12.8104,14.0613,6.3934,3.849,7.8558,3.8278,-0.4699,-9.5899
8.0252,15.1286,7.3727,14.7758,16.0546,12.7755,11.1183,4.6778,4.2339,5.916,0.2876,2.4281,15.8046,20.602,7.6032,15.458,11.9739,5.6945,14.2302,19.6533,22.6592,16.1719,12.383,13.5985,6.1294,3.5826,7.154,3.6982,-0.527,-9.4574
7.9084,14.9447,7.3384,14.7038,15.7174,12.6408,10.8283,4.6341,4.1184,5.6361,0.2007,2.0764,15.2766,20.0965,7.4651,15.1909,11.6381,5.5358,13.9453,19.35,22.2922,15.7505,11.8784,13.0427,5.7797,3.1928,6.3349,3.4568,-0.5666,-9.2518
7.7472,14.6547,7.244,14.5488,15.3297,12.4742,10.5043,4.5401,3.9564,5.3367,0.0775,1.6963,14.716,19.5524,7.337,14.848,11.2615,5.3821,13.6509,18.9652,21.8635,15.3055,11.3717,12.4391,5.3741,2.7136,5.4349,3.1361,-0.6021,-8.9752
7.5739,14.3048,7.1311,14.3379,14.9345,12.3071,10.1784,4.4015,3.765,5.0418,-0.0676,1.3128,14.1705,19.0184,7.2381,14.4825,10.9114,5.2745,13.4013,18.5667,21.4285,14.9001,10.9412,11.8395,4.946,2.1849,4.5003,2.7731,-0.6477,-8.6483
7.4263,13.9581,7.0432,14.1114,14.5765,12.1688,9.88,4.2274,3.5605,4.7697,-0.2211,0.9403,13.6848,18.5415,7.1828,14.1547,10.6501,5.2473,13.2395,18.2249,21.0436,14.588,10.6481,11.2911,4.5261,1.6455,3.579,2.4013,-0.7157,-8.305
7.3347,13.6765,7.0121,13.9076,14.2881,12.0766,9.6263,4.0266,3.3535,4.5274,-0.375,0.5805,13.2894,18.1536,7.174,13.9131,10.5165,5.3177,13.1831,17.9924,20.7494,14.3999,10.5209,10.8257,4.1381,1.127,2.713,2.0455,-0.8127,-7.9846
7.3128,13.5035,7.0495,13.7521,14.0811,12.0307,9.4196,3.8061,3.1469,4.3099,-0.5285,0.2233,12.9937,17.8645,7.2008,13.7808,10.5154,5.477,13.218,17.8892,20.56,14.3351,10.5485,10.4549,3.7965,0.6509,1.9341,1.7193,-0.9377,-7.7222
7.3531,13.4537,7.1458,13.6516,13.9457,12.0161,9.2487,3.5712,2.9369,4.1033,-0.6872,-0.1469,12.7865,17.661,7.2405,13.7492,10.6178,5.6899,13.303,17.8992,20.4606,14.3648,10.685,10.1705,3.5068,0.2283,1.2623,1.4262,-1.0818,-7.5417
7.4295,13.5105,7.2738,13.5943,13.8556,12.0078,9.0944,3.3273,2.7166,3.8906,-0.8599,-0.544,12.6405,17.5124,7.2643,13.7825,10.77,5.9,13.3829,17.976,20.4131,14.441,10.8647,9.9503,3.2681,-0.1382,0.7074,1.1629,-1.2321,-7.4505
7.505,13.6304,7.3951,13.5542,13.7776,11.9794,8.9362,3.0817,2.48,3.658,-1.0547,-0.9717,12.5215,17.38,7.245,13.8277,10.9091,6.044,13.405,18.0573,20.3675,14.5117,11.0214,9.7665,3.0761,-0.4508,0.2709,0.9232,-1.3755,-7.4392
7.5414,13.7547,7.4683,13.4988,13.6808,11.9103,8.759,2.8448,2.2264,3.3997,-1.2758,-1.4187,12.3983,17.2281,7.1653,13.8305,10.9799,6.0696,13.335,18.0811,20.2759,14.5351,11.1067,9.5945,2.9263,-0.7134,-0.0503,0.7025,-1.5022,-7.4842
7.5099,13.8239,7.4586,13.3978,13.5453,11.7909,8.5574,2.6302,1.9627,3.1216,-1.5198,-1.8569,12.2511,17.0332,7.0233,13.7488,10.9488,5.9527,13.1659,18.0019,20.1049,14.4895,11.101,9.42,2.8153,-0.9292,-0.2612,0.5008,-1.6066,-7.5528
7.3978,13.7924,7.347,13.2309,13.3665,11.6258,8.3377,2.4538,1.7039,2.8409,-1.7749,-2.2455,12.0763,16.7897,6.8339,13.5632,10.8097,5.7065,12.9186,17.801,19.8436,14.3767,11.0147,9.2418,2.7423,-1.0985,-0.3659,0.3248,-1.6882,-7.6103
7.211,13.6383,7.137,12.9931,13.1549,11.4323,8.1165,2.3307,1.4709,2.5836,-2.0215,-2.5382,11.8861,16.5102,6.6244,13.2799,10.5811,5.3792,12.6333,17.4884,19.5052,14.2181,10.8811,9.0708,2.7081,-1.219,-0.3672,0.1863,-1.7502,-7.626
6.9697,13.3676,6.8552,12.6951,12.9317,11.2357,7.9157,2.2711,1.2848,2.3783,-2.2361,-2.6941,11.7028,16.2207,6.4264,12.9264,10.297,5.0412,12.3551,17.0982,19.1226,14.0458,10.7442,8.9253,2.7145,-1.286,-0.2682,0.0995,-1.7999,-7.5792
6.7016,13.0094,6.5452,12.359,12.7204,11.0618,7.7561,2.276,1.1604,2.2475,-2.3968,-2.6874,11.5503,15.9513,6.2649,12.5409,9.9937,4.7649,12.1203,16.6761,18.7374,13.8909,10.6445,8.8234,2.7623,-1.2947,-0.0758,0.0744,-1.8464,-7.4626
6.4316,12.6049,6.2561,12.01,12.5379,10.9285,7.6499,2.3343,1.1008,2.201,-2.489,-2.5154,11.4438,15.7263,6.1502,12.1601,9.6995,4.6062,11.9448,16.2654,18.3877,13.7732,10.6077,8.7752,2.8492,-1.2427,0.1954,0.112,-1.8988,-7.2835
6.1737,12.1943,6.0294,11.6669,12.3881,10.8399,7.5967,2.4237,1.0955,2.2308,-2.5092,-2.201,11.383,15.5552,6.0736,11.8074,9.4267,4.5897,11.8197,15.894,18.0965,13.6933,10.6358,8.7766,2.9674,-1.1337,0.5193,0.2005,-1.965,-7.0619
5.9276,11.8048,5.8877,11.3366,12.2595,10.7844,7.5822,2.5152,1.1235,2.3133,-2.4649,-1.7885,11.3507,15.4296,6.0102,11.4871,9.1706,4.7022,11.7136,15.5672,17.8656,13.6312,10.7048,8.8076,3.1024,-0.9792,0.8584,0.3151,-2.0505,-6.8248
5.6793,11.4447,5.8285,11.013,12.1299,10.7381,7.5827,2.5802,1.16,2.4148,-2.3708,-1.3349,11.3172,15.3259,5.9263,11.1849,8.9133,4.8953,11.5814,15.2686,17.6772,13.5513,10.7698,8.8355,3.2332,-0.7989,1.1671,0.4236,-2.1589,-6.6002
5.408,11.1044,5.8254,10.6815,11.9733,10.6719,7.5714,2.5982,1.1848,2.5017,-2.243,-0.8975,11.2493,15.214,5.79,10.8757,8.6324,5.0972,11.3774,14.9686,17.5015,13.4132,10.7772,8.8236,3.3359,-0.6171,1.3996,0.4937,-2.292,-6.4105
5.0951,10.7642,5.836,10.3278,11.7704,10.5609,7.5266,2.5611,1.1878,2.549,-2.0935,-0.5227,11.1214,15.0682,5.5823,10.5352,8.3101,5.231,11.0701,14.6372,17.3086,13.1851,10.6816,8.7423,3.3894,-0.4572,1.5203,0.5031,-2.4488,-6.2691
4.733,10.4055,5.8158,9.9474,11.5165,10.3927,7.4373,2.4739,1.1707,2.5464,-1.9278,-0.2386,10.9244,14.877,5.3042,10.1504,7.9412,5.236,10.6529,14.2568,17.0803,12.8566,10.4617,8.5792,3.3815,-0.335,1.5135,0.4463,-2.6232,-6.1782
4.331,10.0207,5.7321,9.5515,11.2247,10.1715,7.3051,2.3521,1.1451,2.499,-1.7448,-0.0518,10.669,14.6474,4.9781,9.7263,7.5356,5.0841,10.1479,13.8296,16.8164,12.4437,10.1294,8.3438,3.3134,-0.2538,1.39,0.3376,-2.8014,-6.1303
3.914,9.6174,5.5741,9.1676,10.924,9.9177,7.1429,2.2158,1.1267,2.4235,-1.5403,0.0492,10.3844,14.4035,4.6418,9.2851,7.1161,4.7876,9.6007,13.3767,16.5346,11.9861,9.7276,8.0666,3.2001,-0.2034,1.1863,0.2082,-2.9608,-6.1111
3.5161,9.2174,5.3537,8.8324,10.6514,9.6622,6.9688,2.0851,1.1298,2.3416,-1.3111,0.0885,10.1098,14.1788,4.3371,8.8582,6.7099,4.3949,9.068,12.9302,16.2633,11.5362,9.3176,7.7907,3.0666,-0.1638,0.9574,0.0976,-3.0719,-6.1033
3.1711,8.848,5.0983,8.5809,10.441,9.437,6.8002,1.9753,1.1616,2.2724,-1.0592,0.0937,9.8848,14.0052,4.0985,8.4751,6.341,3.977,8.603,12.5211,16.031,11.1444,8.9605,7.5604,2.941,-0.1119,0.7635,0.0422,-3.1041,-6.0913
2.9023,8.5338,4.8393,8.4345,10.3144,9.2658,6.6478,1.8945,1.22,2.2261,-0.7947,0.0878,9.7383,13.9031,3.9437,8.1534,6.0235,3.6088,8.2431,12.1684,15.8561,10.8463,8.7014,7.4097,2.8474,-0.029,0.6557,0.0648,-3.0336,-6.0646
2.7176,8.2885,4.6019,8.3934,10.2749,9.1585,6.5133,1.8428,1.2929,2.202,-0.5356,0.0836,9.6819,13.8753,3.8714,7.8935,5.7598,3.3503,8.0045,11.8746,15.7417,10.6553,8.5599,7.3543,2.8007,0.0937,0.6641,0.1686,-2.8523,-6.0185
2.608,8.1114,4.3991,8.4349,10.3074,9.1093,6.3905,1.8138,1.3613,2.1896,-0.3052,0.0826,9.7069,13.9065,3.8646,7.6799,5.543,3.2327,7.8816,11.6262,15.6749,10.5618,8.5287,7.3887,2.8043,0.2537,0.7917,0.3371,-2.5738,-5.9528
2.5512,7.9874,4.2324,8.5176,10.3828,9.0996,6.268,1.7967,1.4043,2.173,-0.1268,0.0777,9.7868,13.9678,3.8986,7.4859,5.3596,3.2528,7.851,11.4001,15.6318,10.538,8.5795,7.4881,2.8511,0.4385,1.0142,0.5394,-2.2355,-5.867
2.5177,7.8912,4.0946,8.5896,10.4651,9.1043,6.1343,1.7792,1.4046,2.137,-0.0185,0.0588,9.8835,14.0238,3.9491,7.2819,5.1937,3.3761,7.8773,11.1716,15.5843,10.5453,8.672,7.6146,2.926,0.6292,1.2881,0.7393,-1.8937,-5.7581
2.477,7.7926,3.9757,8.6,10.5194,9.0976,5.9805,1.7506,1.3541,2.0724,0.0112,0.0191,9.9546,14.0415,3.9984,7.0426,5.0298,3.5474,7.9204,10.9209,15.507,10.5437,8.7641,7.7242,3.009,0.8054,1.5606,0.9045,-1.612,-5.6196
2.4034,7.6631,3.8665,8.5087,10.5172,9.0584,5.8025,1.7038,1.256,1.9786,-0.0343,-0.0414,9.9619,13.9964,4.0373,6.7523,4.8553,3.7057,7.9419,10.6382,15.3821,10.499,8.8191,7.7752,3.0799,0.9489,1.7814,1.0138,-1.446,-5.4453
2.2804,7.4819,3.7607,8.2943,10.4412,8.9735,5.6005,1.6362,1.1248,1.8627,-0.1412,-0.1143,9.8776,13.8769,4.0634,6.408,4.6624,3.799,7.9123,10.3252,15.203,10.3889,8.8113,7.7353,3.1213,1.046,1.9113,1.0594,-1.4294,-5.2337
2.1021,7.2395,3.6552,7.9576,10.2862,8.8382,5.3773,1.5491,0.9815,1.7357,-0.2881,-0.1869,9.6886,13.6843,4.0777,6.0192,4.4495,3.7952,7.8147,9.994,14.9742,10.2058,8.7276,7.5862,3.1217,1.0896,1.9267,1.0457,-1.5667,-4.9928
1.8732,6.9391,3.549,7.5208,10.0588,8.6553,5.1359,1.4459,0.8481,1.6078,-0.4516,-0.2465,9.3979,13.4312,4.0812,5.6064,4.2212,3.6871,7.6471,9.6648,14.7099,9.9568,8.5675,7.3261,3.0777,1.0795,1.8195,0.9853,-1.8341,-4.742
1.6066,6.5963,3.442,7.0225,9.7752,8.4337,4.8787,1.3309,0.7419,1.4839,-0.6109,-0.2865,9.0225,13.1369,4.0734,5.1975,3.9882,3.4923,7.4214,9.3616,14.4307,9.6619,8.3423,6.9686,2.9937,1.0217,1.5936,0.8937,-2.1876,-4.5102
1.321,6.2355,3.335,6.5118,9.4579,8.1858,4.6061,1.2073,0.6718,1.3617,-0.7512,-0.3097,8.59,12.8228,4.0538,4.8242,3.7665,3.2499,7.1615,9.1084,14.16,9.3496,8.0725,6.5403,2.8812,0.9282,1.2602,0.7849,-2.5734,-4.3312
1.0376,5.8871,3.2291,6.0396,9.1313,7.9259,4.3183,1.0781,0.638,1.2327,-0.8654,-0.3286,8.1322,12.5087,4.0249,4.5179,3.5764,3.0126,6.8987,8.9258,13.9198,9.0527,7.7849,6.0763,2.7558,0.8144,0.8341,0.6693,-2.939,-4.2361
0.7776,5.5816,3.1268,5.6512,8.8187,7.6685,4.016,0.9463,0.634,1.0858,-0.9535,-0.3624,7.6799,12.2094,3.9934,4.305,3.4403,2.8367,6.6677,8.8273,13.7276,8.8027,7.5081,5.6151,2.6335,0.6976,0.3328,0.5531,-3.2421,-4.2466
0.5586,5.3454,3.0309,5.3801,8.5385,7.4269,3.702,0.8156,0.6494,0.9112,-1.0211,-0.4327,7.2575,11.9343,3.9702,4.2014,3.378,2.7699,6.4989,8.8168,13.5932,8.6234,7.2673,5.1929,2.5277,0.5938,-0.224,0.4395,-3.4558,-4.3681
0.3926,5.1958,2.944,5.2434,8.3022,7.2121,3.3816,0.6903,0.673,0.7041,-1.0767,-0.5578,6.8807,11.6868,3.9663,4.2079,3.4007,2.8389,6.4127,8.8857,13.5164,8.5265,7.0794,4.8393,2.4466,0.5156,-0.8133,0.3303,-3.5717,-4.5876
0.2838,5.1371,2.8673,5.2383,8.1124,7.0312,3.0626,0.5744,0.6949,0.4665,-1.1297,-0.75,6.5552,11.4656,3.9881,4.3084,3.5063,3.0435,6.4144,9.0126,13.4868,8.5091,6.9516,4.5735,2.3932,0.4708,-1.4095,0.2267,-3.5984,-4.8742
0.2275,5.1585,2.8001,5.3416,7.9641,6.8866,2.7543,0.4708,0.707,0.2072,-1.1886,-1.0138,6.2786,11.2662,4.0343,4.4712,3.6773,3.3547,6.4939,9.1656,13.4848,8.5544,6.8825,4.402,2.3656,0.4617,-1.9867,0.1296,-3.5574,-5.1847
0.2117,5.2352,2.7395,5.5128,7.8455,6.7757,2.4674,0.3802,0.7024,-0.0605,-1.2598,-1.3467,6.0422,11.0824,4.0934,4.6554,3.8839,3.7206,6.6272,9.3074,13.4861,8.6354,6.8636,4.3184,2.3588,0.4855,-2.5216,0.0393,-3.4774,-5.4723
0.219,5.3328,2.6832,5.7001,7.7415,6.692,2.2123,0.3007,0.6753,-0.3211,-1.3466,-1.7403,5.8341,10.9079,4.145,4.8179,4.0892,4.0749,6.7809,9.4024,13.4664,8.7191,6.8809,4.3046,2.3656,0.5348,-2.9967,-0.0444,-3.3875,-5.696
0.2306,5.414,2.6317,5.8499,7.6369,6.6271,1.9982,0.2295,0.6213,-0.5592,-1.4496,-2.181,5.6417,10.7364,4.1633,4.9223,4.2561,4.3477,6.9172,9.4237,13.4063,8.772,6.9158,4.3337,2.3774,0.5985,-3.403,-0.123,-3.3113,-5.8285
0.2294,5.4468,2.5911,5.9175,7.5198,6.5724,1.8318,0.1639,0.5382,-0.762,-1.5658,-2.6503,5.4539,10.5622,4.123,4.9448,4.3537,4.4772,7.0009,9.3594,13.2958,8.7652,6.9469,4.3736,2.3846,0.6627,-3.741,-0.1984,-3.262,-5.8598
0.2035,5.4115,2.573,5.8762,7.3833,6.5217,1.7158,0.103,0.4277,-0.9204,-1.6889,-3.1243,5.2621,10.3802,4.006,4.8777,4.3627,4.4223,7.0053,9.2144,13.1354,8.6794,6.9532,4.3925,2.3776,0.7135,-4.0188,-0.2725,-3.241,-5.7983
0.1482,5.3053,2.5927,5.7221,7.2267,6.4719,1.6481,0.0492,0.2963,-1.0294,-1.8099,-3.574,5.0609,10.1867,3.8071,4.7294,4.2796,4.1715,6.9188,9.0093,12.936,8.5092,6.918,4.3638,2.3476,0.7382,-4.2487,-0.347,-3.2387,-5.6675
0.0658,5.1414,2.665,5.4736,7.055,6.423,1.6209,0.0076,0.1547,-1.0896,-1.9184,-3.9676,4.8473,9.98,3.5376,4.5211,4.1169,3.7467,6.7476,8.7749,12.7148,8.2637,6.8325,4.2698,2.2881,0.7277,-4.444,-0.4225,-3.2377,-5.5015
-0.0357,4.9443,2.7979,5.1648,6.8758,6.3765,1.6212,-0.0148,0.0163,-1.1065,-2.0042,-4.2749,4.619,9.7601,3.2236,4.2816,3.9002,3.1983,6.5138,8.5439,12.4907,7.9639,6.697,4.103,2.196,0.6771,-4.6162,-0.4993,-3.2181,-5.3381
-0.1456,4.7418,2.9878,4.8356,6.6965,6.3329,1.631,-0.0117,-0.1057,-1.091,-2.0598,-4.4733,4.3739,9.5282,2.9023,4.0407,3.6625,2.593,6.2486,8.3417,12.2781,7.6364,6.5185,3.8651,2.0709,0.5854,-4.7753,-0.5781,-3.1629,-5.2112
-0.2525,4.5571,3.2157,4.5219,6.5219,6.2901,1.6298,0.0199,-0.2014,-1.0573,-2.0818,-4.554,4.1097,9.2857,2.6142,3.8238,3.4367,1.9996,5.9837,8.1808,12.0833,7.306,6.307,3.5641,1.9145,0.4535,-4.9306,-0.6617,-3.0642,-5.144
-0.3465,4.4043,3.4484,4.2485,6.3533,6.243,1.5989,0.0778,-0.2648,-1.0204,-2.0716,-4.5253,3.8259,9.034,2.3973,3.6489,3.25,1.4765,5.7427,8.059,11.9037,6.9904,6.0721,3.2123,1.7301,0.2827,-5.0921,-0.7553,-2.927,-5.1465
-0.4196,4.2885,3.6434,4.0265,6.1904,6.1848,1.5256,0.1548,-0.2951,-0.9929,-2.0345,-4.4124,3.5262,8.7753,2.2798,3.5255,3.1199,1.0656,5.5372,7.9623,11.7303,6.698,5.8209,2.8255,1.5227,0.0743,-5.2696,-0.8656,-2.7696,-5.2148
-0.4674,4.207,3.7587,3.8537,6.0325,6.1091,1.4069,0.2392,-0.2953,-0.982,-1.9795,-4.254,3.2199,8.5125,2.2756,3.4559,3.0531,0.7895,5.3666,7.8711,11.5516,6.4287,5.5586,2.4218,1.2992,-0.1694,-5.4711,-0.9996,-2.6198,-5.3359
-0.4892,4.1527,3.7634,3.7178,5.8802,6.0109,1.25,0.3166,-0.2724,-0.9898,-1.9176,-4.0953,2.9206,8.2493,2.3808,3.435,3.046,0.6556,5.2214,7.7659,11.3578,6.1765,5.2893,2.022,1.0694,-0.4431,-5.7013,-1.1611,-2.508,-5.4912
-0.4897,4.1163,3.6459,3.5998,5.7351,5.8884,1.0699,0.3729,-0.2364,-1.0145,-1.8614,-3.9807,2.6437,7.9897,2.5735,3.4519,3.0857,0.6602,5.0878,7.6318,11.1424,5.9343,5.0184,1.6487,0.8465,-0.7358,-5.9606,-1.348,-2.4581,-5.6619
-0.4784,4.0868,3.418,3.4779,5.5978,5.7427,0.8853,0.3967,-0.1999,-1.0532,-1.823,-3.9461,2.4014,7.737,2.8181,3.4907,3.1545,0.7941,4.9538,7.4604,10.9031,5.6966,4.7537,1.3238,0.6466,-1.0294,-6.245,-1.5512,-2.4805,-5.8307
-0.4689,4.0528,3.1116,3.3316,5.4668,5.5775,0.7131,0.3819,-0.1769,-1.1048,-1.8128,-4.014,2.1994,7.4928,3.073,3.5322,3.2328,1.044,4.8128,7.2496,10.6407,5.4633,4.5069,1.0658,0.4871,-1.2993,-6.5475,-1.7542,-2.5685,-5.9841
-0.476,4.003,2.7704,3.1454,5.337,5.3984,0.5635,0.3287,-0.1804,-1.172,-1.8373,-4.1913,2.0334,7.2562,3.2982,3.5558,3.3038,1.3909,4.6653,7.0023,10.3575,5.2395,4.2929,0.8866,0.3847,-1.5183,-6.859,-1.9364,-2.7011,-6.1119
-0.5131,3.9265,2.4401,2.9112,5.1996,5.2113,0.4378,0.2437,-0.221,-1.2622,-1.8995,-4.4705,1.8895,7.0233,3.463,3.542,3.3552,1.8067,4.5181,6.7231,10.0546,5.0339,4.1269,0.7871,0.3511,-1.6625,-7.1705,-2.0783,-2.8488,-6.2065
-0.5888,3.814,2.1587,2.6291,5.0423,5.0205,0.3268,0.1368,-0.3056,-1.3869,-1.9992,-4.8332,1.7457,6.7868,3.5502,3.474,3.3804,2.2526,4.381,6.4167,9.7316,4.8558,4.022,0.756,0.3897,-1.7178,-7.4755,-2.1672,-2.9823,-6.26
-0.7057,3.6584,1.9507,2.3062,4.8511,4.8274,0.2131,0.0183,-0.437,-1.5605,-2.1352,-5.2562,1.5758,6.5361,3.5575,3.3406,3.3771,2.6812,4.2634,6.0858,9.3847,4.7111,3.9847,0.7701,0.4934,-1.6852,-7.7726,-2.2016,-3.0813,-6.2632
-0.8602,3.455,1.8231,1.9526,4.6121,4.6291,0.0739,-0.1046,-0.615,-1.7976,-2.3074,-5.7156,1.3543,6.2589,3.4945,3.1364,3.345,3.0412,4.1693,5.7312,9.0081,4.5987,4.0112,0.797,0.6438,-1.5817,-8.0664,-2.1925,-3.1388,-6.205
-1.0451,3.2018,1.7653,1.5772,4.3137,4.4189,-0.1144,-0.2294,-0.8369,-2.1096,-2.5168,-6.1897,1.0619,5.9431,3.3779,2.8626,3.2811,3.285,4.0933,5.3521,8.5951,4.5086,4.0854,0.8008,0.8141,-1.4374,-8.3678,-2.1604,-3.1611,-6.0751
-1.2522,2.8992,1.751,1.1843,3.9494,4.1876,-0.3711,-0.3593,-1.0983,-2.5016,-2.7651,-6.6601,0.6899,5.5797,3.2249,2.5261,3.1771,3.3775,4.0187,4.9479,8.1415,4.4224,4.18,0.7491,0.9744,-1.2879,-8.6903,-2.1294,-3.1643,-5.868
-1.4753,2.5504,1.7432,0.7728,3.5206,3.9266,-0.7066,-0.5007,-1.3923,-2.969,-3.0512,-7.1104,0.2444,5.1671,3.0476,2.1385,3.0186,3.3022,3.9192,4.5195,7.6488,4.3167,4.2616,0.6204,1.0976,-1.1659,-9.0449,-2.1202,-3.1679,-5.5869
-1.7118,2.1607,1.7009,0.3374,3.0379,3.6305,-1.1186,-0.6613,-1.7084,-3.4957,-3.3686,-7.5246,-0.254,4.7137,2.8506,1.7134,2.7875,3.0637,3.7641,4.0706,7.127,4.1687,4.2973,0.4099,1.1663,-1.0928,-9.4347,-2.1442,-3.19,-5.2437
-1.9622,1.7369,1.5857,-0.1278,2.5203,3.2993,-1.5913,-0.8465,-2.0318,-4.0536,-3.7036,-7.8868,-0.7716,4.2382,2.6306,1.2644,2.467,2.6841,3.5261,3.6074,6.594,3.9626,4.2628,0.1307,1.1755,-1.0753,-9.8513,-2.2017,-3.2433,-4.8575
-2.2295,1.2865,1.368,-0.6261,1.9927,2.9379,-2.0963,-1.057,-2.3432,-4.6052,-4.036,-8.1814,-1.2669,3.7677,2.3794,0.8026,2.0477,2.1974,3.1888,3.1378,6.0737,3.693,4.1467,-0.1875,1.1341,-1.1046,-10.2744,-2.2822,-3.3346,-4.4497
-2.5171,0.8166,1.0311,-1.1553,1.4812,2.5555,-2.5962,-1.2876,-2.6205,-5.1082,-4.3413,-8.3947,-1.6974,3.3328,2.0877,0.3352,1.5324,1.6419,2.7512,2.6697,5.59,3.3664,3.9518,-0.5051,1.0616,-1.1603,-10.6743,-2.3678,-3.4646,-4.041
-2.8268,0.3344,0.5747,-1.7057,1.0095,2.1639,-3.0499,-1.5269,-2.8422,-5.5218,-4.5953,-8.5174,-2.0263,2.9617,1.7507,-0.1342,0.9387,1.0556,2.2292,2.2105,5.162,2.9986,3.6922,-0.7805,0.9829,-1.2171,-11.0166,-2.4374,-3.6268,-3.649
-3.1564,-0.1514,0.0157,-2.2595,0.5962,1.7772,-3.4172,-1.7589,-2.9898,-5.8121,-4.7782,-8.5471,-2.2278,2.675,1.3707,-0.6033,0.2978,0.4737,1.6526,1.7663,4.8008,2.6104,3.3878,-0.9791,0.9218,-1.251,-11.2685,-2.4715,-3.8065,-3.2875
-3.4971,-0.6285,-0.6112,-2.7912,0.2547,1.4128,-3.664,-1.9643,-3.0507,-5.9571,-4.8773,-8.4895,-2.2893,2.4836,0.9596,-1.0681,-0.3496,-0.0703,1.0597,1.3439,4.5083,2.2231,3.0594,-1.0799,0.8941,-1.2467,-11.4063,-2.4566,-3.9804,-2.9665
-3.8318,-1.0784,-1.2561,-3.2695,-0.0055,1.0917,-3.7664,-2.1226,-3.0192,-5.9499,-4.8888,-8.36,-2.2125,2.3871,0.5389,-1.5194,-0.9589,-0.5432,0.4908,0.952,4.2802,1.8544,2.7241,-1.0802,0.9032,-1.2019,-11.4223,-2.3897,-4.118,-2.6917
-4.1362,-1.4772,-1.859,-3.661,-0.1779,0.8377,-3.7153,-2.2146,-2.8971,-5.7993,-4.8173,-8.1831,-2.0121,2.3759,0.1368,-1.9409,-1.4887,-0.9129,-0.0183,0.6026,4.1091,1.5166,2.3941,-0.9958,0.938,-1.1294,-11.3294,-2.2803,-4.1882,-2.4643
-4.3822,-1.7987,-2.3591,-3.9364,-0.2593,0.6738,-3.5184,-2.2264,-2.6944,-5.5299,-4.6758,-7.9907,-1.7144,2.4337,-0.2154,-2.3098,-1.9064,-1.151,-0.4405,0.3114,3.9885,1.2167,2.0772,-0.8579,0.9757,-1.0548,-11.1611,-2.1503,-4.1671,-2.2811
-4.5436,-2.02,-2.7053,-4.077,-0.2514,0.6169,-3.202,-2.153,-2.4304,-5.1793,-4.4841,-7.818,-1.355,2.5404,-0.4885,-2.5996,-2.1919,-1.2375,-0.7584,0.0967,3.9156,0.9585,1.7786,-0.7061,0.9879,-1.0101,-10.9655,-2.0311,-4.0457,-2.1353
-4.6023,-2.1277,-2.8665,-4.0799,-0.1623,0.6718,-2.8078,-2.0019,-2.1336,-4.795,-4.2682,-7.699,-0.9745,2.6768,-0.6608,-2.7848,-2.3385,-1.1665,-0.9637,-0.0221,3.8922,0.7458,1.5036,-0.5796,0.9486,-1.0252,-10.7938,-1.9562,-3.8348,-2.0186
-4.5523,-2.1219,-2.8391,-3.9598,-0.0076,0.8282,-2.3882,-1.7936,-1.84,-4.4278,-4.0575,-7.6595,-0.6147,2.8279,-0.7208,-2.8458,-2.3512,-0.9499,-1.0547,-0.028,3.9247,0.5848,1.2601,-0.5084,0.8424,-1.1196,-10.6871,-1.953,-3.5637,-1.9238
-4.4016,-2.0163,-2.6493,-3.7474,0.1905,1.0608,-1.9977,-1.5598,-1.5888,-4.1253,-3.881,-7.7125,-0.3129,2.9855,-0.6691,-2.7735,-2.2439,-0.6202,-1.0344,0.0901,4.0207,0.4851,1.0594,-0.5066,0.6697,-1.296,-10.6662,-2.0352,-3.2736,-1.8473
-4.1709,-1.8365,-2.3482,-3.4832,0.4062,1.3326,-1.6846,-1.3388,-1.4162,-3.9258,-3.7633,-7.855,-0.0974,3.1479,-0.5184,-2.5723,-2.0378,-0.2269,-0.91,0.3333,4.1861,0.4586,0.9166,-0.5702,0.4474,-1.5385,-10.7278,-2.1979,-3.0071,-1.7908
-3.8903,-1.6141,-2.0027,-3.2099,0.6133,1.6014,-1.4839,-1.1681,-1.3481,-3.8525,-3.7202,-8.0681,0.0156,3.318,-0.2923,-2.2619,-1.7589,0.1701,-0.6944,0.6881,4.4198,0.515,0.848,-0.6799,0.2055,-1.8157,-10.8473,-2.4186,-2.7978,-1.7605
-3.5952,-1.3819,-1.6822,-2.9652,0.7893,1.8272,-1.4121,-1.0775,-1.3954,-3.9112,-3.7558,-8.3204,0.0247,3.4991,-0.0237,-1.8762,-1.438,0.5106,-0.4078,1.1248,4.7104,0.6573,0.8671,-0.8062,-0.0187,-2.0859,-10.9884,-2.6609,-2.6635,-1.7654
-3.3205,-1.1688,-1.445,-2.775,0.9191,1.98,-1.4643,-1.0818,-1.5498,-4.0883,-3.8611,-8.5725,-0.0561,3.6914,0.2485,-1.4599,-1.1082,0.7449,-0.0789,1.5989,5.0355,0.8774,0.9792,-0.9171,-0.1885,-2.3051,-11.1132,-2.8821,-2.6051,-1.8133
-3.0966,-0.9958,-1.328,-2.6511,0.9969,2.045,-1.6143,-1.1765,-1.7839,-4.3512,-4.0133,-8.7835,-0.1983,3.8905,0.4849,-1.0629,-0.8031,0.8411,0.2563,2.0565,5.3637,1.1542,1.1774,-0.9842,-0.2745,-2.4343,-11.1919,-3.0407,-2.6094,-1.9061
-2.9459,-0.876,-1.342,-2.5909,1.0268,2.0247,-1.8177,-1.3368,-2.0535,-4.6506,-4.1779,-8.9167,-0.3629,4.0865,0.6506,-0.7331,-0.5541,0.7896,0.557,2.4419,5.6595,1.4546,1.4404,-0.9884,-0.2602,-2.4463,-11.2078,-3.1034,-2.6563,-2.0369
-2.882,-0.8157,-1.4728,-2.5824,1.0203,1.937,-2.0184,-1.5213,-2.3043,-4.9263,-4.3133,-8.9459,-0.5068,4.2651,0.7211,-0.5099,-0.3876,0.6014,0.7826,2.7074,5.8891,1.7378,1.7346,-0.923,-0.1451,-2.3308,-11.1587,-3.0504,-2.7252,-2.1897
-2.9102,-0.8168,-1.6889,-2.6098,0.9923,1.8088,-2.1588,-1.6813,-2.4816,-5.1165,-4.3782,-8.8605,-0.5916,4.41,0.6862,-0.4187,-0.322,0.3046,0.8984,2.8209,6.0259,1.9621,2.0193,-0.7944,0.0551,-2.0973,-11.0551,-2.8786,-2.8006,-2.3426
-3.0284,-0.8797,-1.9511,-2.6592,0.9554,1.6689,-2.192,-1.7727,-2.5416,-5.1691,-4.3406,-8.6675,-0.5925,4.5052,0.5509,-0.467,-0.3635,-0.0614,0.8826,2.7713,6.0542,2.0932,2.2541,-0.6201,0.3118,-1.7735,-10.9153,-2.6018,-2.873,-2.4749
-3.2279,-1.0036,-2.2222,-2.7223,0.9169,1.5403,-2.0929,-1.7679,-2.4616,-5.0542,-4.186,-8.39,-0.5038,4.5378,0.3335,-0.6433,-0.5039,-0.4518,0.733,2.5699,5.9714,2.1114,2.4066,-0.4247,0.5885,-1.4012,-10.759,-2.2488,-2.9379,-2.5728
-3.4925,-1.1842,-2.4738,-2.7967,0.8761,1.4357,-1.8664,-1.6638,-2.2463,-4.7722,-3.9226,-8.0625,-0.3401,4.5013,0.062,-0.9192,-0.7191,-0.8219,0.4695,2.2476,5.7878,2.017,2.4586,-0.233,0.8491,-1.0275,-10.6017,-1.8576,-2.9937,-2.6332
-3.7982,-1.4112,-2.689,-2.8834,0.8261,1.3557,-1.5483,-1.4838,-1.9285,-4.3571,-3.5823,-7.7235,-0.1324,4.3968,-0.2319,-1.2539,-0.9731,-1.1312,0.1309,1.8496,5.5241,1.8303,2.4081,-0.0646,1.0648,-0.6958,-10.4492,-1.4681,-3.041,-2.6622
-4.1143,-1.6662,-2.8623,-2.9829,0.7559,1.2901,-1.1996,-1.2735,-1.5638,-3.8713,-3.2157,-7.4072,0.0785,4.2336,-0.519,-1.6016,-1.2257,-1.3477,-0.2331,1.4268,5.2081,1.5864,2.2678,0.0708,1.2191,-0.4368,-10.2955,-1.1146,-3.0826,-2.671
-4.4072,-1.9224,-2.9971,-3.0924,0.6545,1.222,-0.8949,-1.0896,-1.2193,-3.3939,-2.8818,-7.1373,0.2517,4.027,-0.7778,-1.92,-1.4412,-1.4507,-0.5738,1.0275,4.8698,1.3279,2.0602,0.1746,1.3096,-0.2644,-10.1235,-0.8206,-3.1242,-2.6707
-4.6464,-2.1493,-3.1021,-3.2045,0.5133,1.1322,-0.7059,-0.987,-0.96,-3.0039,-2.6369,-6.9232,0.3542,3.7957,-0.9983,-2.1772,-1.5967,-1.4333,-0.8538,0.6898,4.5359,1.0944,1.8123,0.2574,1.3458,-0.1752,-9.9092,-0.5956,-3.1737,-2.6697
-4.8104,-2.3189,-3.1886,-3.3092,0.3282,1.0045,-0.6869,-1.0069,-0.8349,-2.7642,-2.5219,-6.7604,0.3664,3.5571,-1.1823,-2.3568,-1.6851,-1.3035,-1.0543,0.4355,4.2262,0.9157,1.5497,0.3344,1.3443,-0.1528,-9.6287,-0.4367,-3.2392,-2.6726
-4.8915,-2.413,-3.2681,-3.3972,0.1003,0.8293,-0.8625,-1.1682,-0.8676,-2.7075,-2.5548,-6.635,0.2851,3.3242,-1.3399,-2.4584,-1.7136,-1.0819,-1.175,0.2692,3.9502,0.8061,1.2923,0.4206,1.3237,-0.1746,-9.2658,-0.3314,-3.3266,-2.6815
-4.8971,-2.4294,-3.3504,-3.4639,-0.1648,0.6055,-1.2232,-1.4643,-1.0518,-2.8309,-2.7272,-6.5292,0.122,3.1042,-1.4852,-2.4951,-1.6986,-0.7975,-1.2304,0.1789,3.7079,0.7644,1.0517,0.5263,1.2998,-0.2175,-8.8178,-0.2619,-3.4375,-2.6971
-4.8474,-2.3826,-3.4427,-3.5113,-0.4572,0.3408,-1.7277,-1.866,-1.3543,-3.0966,-3.0067,-6.4274,-0.0999,2.8979,-1.6304,-2.4889,-1.659,-0.4809,-1.2429,0.1409,3.491,0.7762,0.8309,0.6547,1.2839,-0.2625,-8.298,-0.2091,-3.5683,-2.7191
-4.7705,-2.3009,-3.5477,-3.5477,-0.7645,0.0503,-2.3115,-2.3274,-1.7225,-3.4428,-3.3441,-6.3192,-0.3513,2.702,-1.7825,-2.4644,-1.6111,-0.1592,-1.2358,0.1262,3.2872,0.819,0.6274,0.802,1.2814,-0.2969,-7.7342,-0.1562,-3.7108,-2.7465
