FP1,F3,F7,FC3,C3,C5,P3,P7,PO7,PO3,O1,Oz,Pz,CPz,FP2,Fz,F4,F8,FC4,FCz,Cz,C4,C6,P4,P8,PO8,PO4,O2,(corr) HEOG,(corr) VEOG
1.325,-0.2932,2.3803,-0.4319,-1.1563,-0.4808,-1.0898,-0.2554,-1.2673,-1.4672,-1.6326,-2.4038,-0.5094,-1.1345,-0.1426,-1.2413,-1.8137,0.2163,-1.6386,-1.9225,-1.8513,-1.5944,-1.9804,-0.4273,0.1559,-0.4534,-0.5294,-0.4756,-0.1054,1.8872
1.1352,-0.5684,2.1487,-0.6535,-1.4769,-0.7352,-1.2791,-0.3901,-1.3499,-1.6092,-1.6509,-2.4458,-0.5032,-1.1863,-0.3417,-1.2496,-1.8204,0.2048,-1.7491,-1.9867,-1.902,-1.4498,-1.79,-0.4584,0.0012,-0.5537,-0.4549,-0.59,-0.1251,2.3187
1.0171,-0.8102,1.8927,-0.8617,-1.7461,-0.9451,-1.4863,-0.442,-1.3902,-1.736,-1.6043,-2.4697,-0.5638,-1.2914,-0.4574,-1.2018,-1.8083,0.1648,-1.8696,-1.99,-1.9695,-1.3587,-1.6179,-0.5968,-0.2191,-0.7065,-0.4917,-0.7435,-0.1218,2.6546
0.9693,-1.0133,1.6409,-1.0525,-1.9522,-1.1044,-1.6981,-0.4123,-1.3903,-1.8437,-1.5021,-2.4754,-0.6828,-1.4455,-0.4929,-1.1362,-1.8105,0.0965,-2.0029,-1.9543,-2.0708,-1.3391,-1.4662,-0.8287,-0.4808,-0.8881,-0.6289,-0.9158,-0.0988,2.8599
0.9805,-1.1736,1.4281,-1.2232,-2.0953,-1.2165,-1.9049,-0.3203,-1.3653,-1.9363,-1.3684,-2.4661,-0.8498,-1.6423,-0.4623,-1.0902,-1.8496,0.0073,-2.1451,-1.9087,-2.2197,-1.3949,-1.3339,-1.1332,-0.7577,-1.0778,-0.8469,-1.0911,-0.0614,2.9274
1.0315,-1.2885,1.287,-1.3721,-2.1854,-1.2914,-2.1027,-0.1992,-1.3403,-2.0264,-1.239,-2.4512,-1.0544,-1.8732,-0.387,-1.0905,-1.9331,-0.0917,-2.2854,-1.8816,-2.4216,-1.5163,-1.2218,-1.4871,-1.0274,-1.2632,-1.123,-1.2614,-0.0171,2.8773
1.099,-1.3568,1.2403,-1.499,-2.2383,-1.3427,-2.2925,-0.0883,-1.344,-2.1333,-1.1531,-2.4455,-1.288,-2.1271,-0.2914,-1.1466,-2.0523,-0.1919,-2.4091,-1.8926,-2.6706,-1.6825,-1.1347,-1.8683,-1.2748,-1.4423,-1.437,-1.4274,0.0264,2.7497
1.159,-1.3789,1.2947,-1.6036,-2.2706,-1.3831,-2.4788,-0.024,-1.4006,-2.2771,-1.1436,-2.4674,-1.5433,-2.3903,-0.1986,-1.2491,-2.1849,-0.2891,-2.5007,-1.9473,-2.949,-1.8664,-1.0807,-2.2581,-1.4938,-1.6214,-1.7733,-1.5958,0.0625,2.5911
1.1917,-1.3561,1.4402,-1.6849,-2.2952,-1.4205,-2.6665,-0.0307,-1.5233,-2.4729,-1.2281,-2.535,-1.8149,-2.6475,-0.1254,-1.3726,-2.3004,-0.3833,-2.5472,-2.0353,-3.2292,-2.0395,-1.0675,-2.6405,-1.6837,-1.8099,-2.1211,-1.7749,0.0873,2.4423
1.1866,-1.2907,1.6528,-1.7398,-2.3181,-1.4553,-2.8575,-0.1147,-1.7091,-2.7244,-1.4048,-2.6603,-2.0969,-2.8821,-0.0788,-1.4828,-2.3669,-0.4742,-2.5404,-2.1328,-3.478,-2.1759,-1.0986,-3.0015,-1.8446,-2.014,-2.4703,-1.969,0.1006,2.3286
1.1465,-1.1861,1.9022,-1.7625,-2.3376,-1.4795,-3.0472,-0.263,-1.9384,-3.0202,-1.6517,-2.8451,-2.3817,-3.0779,-0.0547,-1.5457,-2.3582,-0.557,-2.4783,-2.209,-3.6624,-2.2536,-1.1708,-3.3258,-1.9718,-2.2298,-2.8073,-2.1737,0.1058,2.2575
1.0894,-1.0467,2.159,-1.7447,-2.345,-1.4785,-3.2233,-0.445,-2.1768,-3.333,-1.9309,-3.0788,-2.6588,-3.2207,-0.0389,-1.5358,-2.259,-0.6199,-2.3642,-2.2331,-3.7555,-2.2562,-1.2726,-3.5959,-2.0533,-2.4397,-3.1113,-2.374,0.1086,2.2208
1.0453,-0.8785,2.4008,-1.6783,-2.3282,-1.4356,-3.366,-0.6195,-2.3814,-3.6243,-2.1969,-3.3396,-2.9145,-3.2998,-0.0118,-1.4421,-2.0693,-0.6451,-2.206,-2.1827,-3.7413,-2.1733,-1.3852,-3.7911,-2.0707,-2.6131,-3.3543,-2.5469,0.1155,2.2018
1.05,-0.6898,2.6155,-1.5578,-2.2752,-1.3373,-3.4518,-0.7435,-2.5101,-3.8517,-2.4071,-3.5995,-3.1323,-3.3093,0.046,-1.2708,-1.8057,-0.6139,-2.0161,-2.0492,-3.6184,-2.0023,-1.4853,-3.8897,-2.0043,-2.7114,-3.504,-2.6662,0.1319,2.1827
1.1347,-0.4909,2.7998,-1.3829,-2.1782,-1.1783,-3.4589,-0.7811,-2.5309,-3.9784,-2.5312,-3.832,-3.2952,-3.2488,0.1455,-1.0444,-1.5003,-0.5134,-1.8108,-1.8407,-3.4002,-1.7503,-1.5498,-3.8727,-1.8398,-2.6973,-3.5301,-2.7107,0.1606,2.1503
1.3157,-0.2955,2.9559,-1.1614,-2.0371,-0.9651,-3.3733,-0.7113,-2.4306,-3.983,-2.5591,-4.0184,-3.3867,-3.1231,0.2843,-0.7978,-1.1976,-0.3434,-1.6109,-1.581,-3.1122,-1.4357,-1.5614,-3.7288,-1.5759,-2.5451,-3.4133,-2.6706,0.2011,2.0994
1.5842,-0.1203,3.0855,-0.9096,-1.8602,-0.7165,-3.1941,-0.5322,-2.2194,-3.8655,-2.5035,-4.1524,-3.3933,-2.9411,0.4447,-0.5732,-0.9479,-0.1212,-1.4412,-1.3059,-2.7872,-1.0865,-1.5125,-3.4589,-1.2292,-2.2511,-3.1519,-2.5523,0.2492,2.0312
1.9031,0.0156,3.1864,-0.6516,-1.6645,-0.4613,-2.9358,-0.2619,-1.9312,-3.6486,-2.3977,-4.2404,-3.306,-2.7139,0.5966,-0.4124,-0.7979,0.1174,-1.3278,-1.0566,-2.4594,-0.7371,-1.4062,-3.0783,-0.8355,-1.8391,-2.7665,-2.3782,0.2972,1.9502
2.2112,0.0939,3.2503,-0.4156,-1.4716,-0.2323,-2.6268,0.0647,-1.6189,-3.3741,-2.2893,-4.2982,-3.1211,-2.4526,0.7048,-0.3489,-0.78,0.3233,-1.2932,-0.8706,-2.1573,-0.4208,-1.2527,-2.615,-0.4462,-1.3591,-2.2985,-2.1825,0.3345,1.8611
2.4374,0.1034,3.2669,-0.2275,-1.3025,-0.0597,-2.3042,0.4004,-1.3464,-3.0945,-2.2303,-4.3444,-2.8395,-2.165,0.7396,-0.3996,-0.9002,0.4449,-1.3487,-0.7733,-1.8983,-0.1612,-1.0612,-2.1049,-0.1185,-0.8803,-1.8036,-2.0022,0.349,1.7672
2.5214,0.0465,3.2301,-0.1032,-1.1707,0.038,-2.005,0.6937,-1.1784,-2.8615,-2.2661,-4.3938,-2.4648,-1.8528,0.6871,-0.5578,-1.1314,0.442,-1.487,-0.7702,-1.6838,0.0354,-0.8312,-1.5844,0.0957,-0.4769,-1.3417,-1.8688,0.3288,1.671
2.4345,-0.0558,3.1452,-0.042,-1.0769,0.0592,-1.759,0.896,-1.1687,-2.7165,-2.4246,-4.4523,-2.0022,-1.5107,0.5568,-0.7902,-1.4136,0.2996,-1.6769,-0.8434,-1.4985,0.1837,-0.5464,-1.0831,0.1623,-0.2147,-0.966,-1.8015,0.2642,1.5764
2.1943,-0.1643,3.0342,-0.0241,-1.0064,0.0214,-1.5833,0.9686,-1.3519,-2.6833,-2.7091,-4.5152,-1.458,-1.127,0.3849,-1.0406,-1.6648,0.0368,-1.8661,-0.9531,-1.3125,0.3177,-0.1764,-0.62,0.072,-0.1385,-0.716,-1.806,0.1498,1.4898
1.8666,-0.2286,2.9348,-0.0143,-0.9324,-0.0422,-1.4823,0.8859,-1.7379,-2.7678,-3.0975,-4.57,-0.8415,-0.6883,0.2295,-1.2396,-1.7997,-0.2928,-1.9901,-1.0459,-1.089,0.4817,0.3131,-0.2044,-0.1589,-0.2677,-0.6147,-1.8775,-0.014,1.4199
1.5549,-0.199,2.8941,0.0303,-0.8228,-0.0907,-1.451,0.6366,-2.3135,-2.9624,-3.5482,-4.6025,-0.1683,-0.185,0.161,-1.3194,-1.7527,-0.6095,-1.9884,-1.0658,-0.7933,0.7179,0.9459,0.1596,-0.4948,-0.596,-0.6712,-2.008,-0.2202,1.3762
1.3779,-0.0395,2.9581,0.1495,-0.649,-0.0847,-1.4807,0.2223,-3.0463,-3.2529,-4.0109,-4.6037,0.5368,0.383,0.2488,-1.2283,-1.4957,-0.8236,-1.8188,-0.967,-0.4019,1.0533,1.7214,0.4668,-0.8916,-1.0985,-0.8854,-2.1922,-0.455,1.3656
1.4429,0.2631,3.1616,0.3716,-0.3925,0.0049,-1.562,-0.3439,-3.8922,-3.6245,-4.439,-4.5746,1.2395,1.0032,0.5481,-0.9415,-1.0442,-0.8534,-1.4677,-0.7217,0.092,1.493,2.6085,0.7074,-1.3076,-1.7393,-1.2534,-2.4323,-0.6997,1.3884
1.8212,0.6984,3.5198,0.7097,-0.0474,0.1931,-1.6862,-1.0379,-4.802,-4.064,-4.7995,-4.5273,1.8997,1.6531,1.0889,-0.4625,-0.4498,-0.6399,-0.9505,-0.322,0.6803,2.0204,3.5499,0.8672,-1.7112,-2.4785,-1.7687,-2.737,-0.9318,1.437
2.5335,1.2383,4.0259,1.1638,0.3819,0.4805,-1.843,-1.8247,-5.7265,-4.5579,-5.0795,-4.4833,2.4781,2.306,1.8703,0.1822,0.219,-0.155,-0.304,0.2247,1.345,2.6049,4.4763,0.9324,-2.082,-3.277,-2.421,-3.1176,-1.1288,1.4959
3.5463,1.8476,4.654,1.7254,0.8854,0.8567,-2.0176,-2.6587,-6.6215,-5.0893,-5.2877,-4.4671,2.9448,2.9378,2.8603,0.9536,0.9005,0.5983,0.4273,0.9027,2.0665,3.2129,5.3248,0.8965,-2.4083,-4.0971,-3.1906,-3.58,-1.27,1.5451
4.7801,2.4953,5.3651,2.3835,1.452,1.3047,-2.1891,-3.4862,-7.4502,-5.6346,-5.4502,-4.4995,3.2854,3.5334,3.9996,1.8113,1.5579,1.5892,1.203,1.6937,2.8291,3.8169,6.0536,0.7665,-2.6819,-4.901,-4.0431,-4.1179,-1.3403,1.5642
6.1254,3.1612,6.1153,3.1271,2.0716,1.8062,-2.3312,-4.2499,-8.1841,-6.1612,-5.6022,-4.5899,3.5046,4.0882,5.2104,2.7211,2.187,2.765,1.9951,2.5804,3.6229,4.4006,6.6516,0.5661,-2.8943,-5.6481,-4.926,-4.7063,-1.3314,1.5374
7.463,3.8379,6.8638,3.9458,2.7353,2.3437,-2.4137,-4.894,-8.7997,-6.6278,-5.7734,-4.7307,3.6248,4.6073,6.4083,3.6575,2.812,4.0569,2.7902,3.5446,4.4426,4.9601,7.1366,0.3352,-3.0351,-6.2932,-5.768,-5.3004,-1.2438,1.4572
8.6833,4.5277,7.5786,4.8278,3.4337,2.9036,-2.4062,-5.3713,-9.2751,-6.9851,-5.9748,-4.8935,3.6825,5.1016,7.5154,4.6029,3.4717,5.3864,3.5866,4.5648,5.2833,5.502,7.5495,0.1259,-3.0939,-6.7869,-6.4839,-5.838,-1.0872,1.3251
9.7045,5.2354,8.2388,5.7568,4.1553,3.4762,-2.282,-5.6481,-9.5854,-7.1809,-6.189,-5.0311,3.722,5.5839,8.4735,5.5427,4.203,6.6742,4.3882,5.6141,6.1365,6.0404,7.9419,-0.0031,-3.0627,-7.0787,-6.9832,-6.2465,-0.8794,1.1508
10.4827,5.9609,8.834,6.7096,4.8856,4.0559,-2.0213,-5.7084,-9.702,-7.165,-6.3694,-5.0842,3.7879,6.0662,9.252,6.4615,5.027,7.8504,5.1993,6.6596,6.9889,6.5931,8.3649,0.0055,-2.9389,-7.1223,-7.182,-6.4536,-0.644,0.9489
11.0158,6.6924,9.3602,7.6551,5.6077,4.6393,-1.6148,-5.5562,-9.5953,-6.8971,-6.4482,-4.9918,3.9197,6.5577,9.8494,7.339,5.9399,8.8627,6.0189,7.6651,7.8231,7.1774,8.8585,0.2004,-2.7269,-6.8828,-7.0154,-6.3986,-0.4081,0.7361
11.3362,7.4031,9.8153,8.5557,6.3029,5.2229,-1.0655,-5.2154,-9.2409,-6.3548,-6.352,-4.7038,4.1467,7.0647,10.2874,8.1496,6.9106,9.6814,6.8377,8.5955,8.6218,7.8062,9.4439,0.6153,-2.4365,-6.3439,-6.4476,-6.0433,-0.1977,0.5278
11.4969,8.0514,10.194,9.369,6.9518,5.8,-0.3903,-4.7275,-8.6281,-5.5395,-6.0204,-4.1916,4.485,7.5898,10.6001,8.8633,7.8837,10.2983,7.6377,9.4209,9.3711,8.4852,10.1199,1.2629,-2.0796,-5.5124,-5.4795,-5.3795,-0.0346,0.3361
11.5539,8.5854,10.4856,10.0528,7.5352,6.3581,0.3811,-4.147,-7.7682,-4.4807,-5.422,-3.4567,4.9369,8.1319,10.8217,9.449,8.787,10.722,8.3932,10.12,10.0636,9.2103,10.8627,2.1323,-1.6661,-4.4206,-4.15,-4.4319,0.0663,0.1678
11.5514,8.952,10.6751,10.5698,8.0355,6.8789,1.2088,-3.5344,-6.699,-3.2352,-4.5641,-2.5316,5.4906,8.6852,10.978,9.8795,9.5423,10.9717,9.0739,10.6813,10.6981,9.9672,11.6302,3.1881,-1.2011,-3.1248,-2.5325,-3.2568,0.0992,0.0233
11.5145,9.1069,10.7475,10.8944,8.4391,7.3413,2.0468,-2.9478,-5.4842,-1.8824,-3.4936,-1.4767,6.1227,9.2392,11.0822,10.1376,10.0787,11.0728,9.65,11.1036,11.2781,10.7324,12.3696,4.3736,-0.6838,-1.6998,-0.7275,-1.9347,0.0684,-0.1034
11.452,9.0275,10.6956,11.0191,8.7393,7.7266,2.8486,-2.435,-4.2078,-0.5159,-2.2904,-0.3711,6.8003,9.779,11.1376,10.2212,10.3461,11.0549,10.0981,11.3956,11.8084,11.4771,13.0294,5.6171,-0.1091,-0.2311,1.1491,-0.5606,-0.0135,-0.2243
11.3663,8.7228,10.5268,10.9604,8.939,8.0247,3.5711,-2.028,-2.9642,0.7671,-1.0551,0.6977,7.4845,10.2872,11.1442,10.1486,10.3285,10.9532,10.4071,11.576,12.2934,12.1724,13.5704,6.8404,0.5279,1.1934,2.9772,0.7682,-0.1272,-0.3547
11.2651,8.2397,10.2679,10.7595,9.0523,8.2387,4.1783,-1.7414,-1.8471,1.8755,0.1043,1.6446,8.1335,10.7457,11.1068,9.9595,10.0514,10.8108,10.5821,11.6718,12.7349,12.795,13.9747,7.9689,1.2261,2.4923,4.6442,1.9627,-0.2513,-0.5101
11.1701,7.6605,9.9649,10.479,9.1028,8.3854,4.643,-1.5754,-0.9397,2.7332,1.0848,2.396,8.7059,11.1374,11.0418,9.7125,9.5825,10.678,10.6453,11.7161,13.1328,13.3313,14.2481,8.9387,1.9723,3.5973,6.0538,2.9514,-0.3658,-0.7009
11.119,7.092,9.6767,10.1929,9.12,8.492,4.9473,-1.522,-0.3062,3.2855,1.7989,2.897,9.1645,11.4474,10.9789,9.4774,9.023,10.6088,10.633,11.7442,13.4843,13.7781,14.417,9.7031,2.7376,4.4581,7.1325,3.685,-0.4564,-0.9289
11.1588,6.6474,9.4641,9.9738,9.1332,8.5905,5.0831,-1.5707,0.0142,3.5034,2.1838,3.1158,9.4794,11.6639,10.96,9.3237,8.4917,10.6539,10.5886,11.7886,13.7855,14.141,14.5198,10.235,3.4784,5.0449,7.8344,4.1382,-0.5158,-1.1863
11.3344,6.4244,9.3773,9.8796,9.1657,8.7105,5.0531,-1.7121,0.0114,3.3872,2.208,3.0465,9.6326,11.7798,11.0339,9.3091,8.1045,10.8511,10.5548,11.8741,14.0318,14.4307,14.598,10.5274,4.1417,5.3488,8.1433,4.3094,-0.5446,-1.457
11.674,6.486,9.4444,9.9429,9.2311,8.8728,4.8725,-1.9366,-0.2943,2.9677,1.8773,2.7097,9.6214,11.7958,11.2481,9.4683,7.9537,11.215,10.5663,12.0138,14.2195,14.6582,14.6873,10.5929,4.6732,5.3815,8.0747,4.2184,-0.5504,-1.7215
12.1778,6.8483,9.6644,10.1661,9.3312,9.0851,4.5702,-2.2298,-0.8518,2.3055,1.2362,2.1504,9.4613,11.7225,11.6379,9.8072,8.0916,11.7292,10.6437,12.2066,14.3468,14.8317,14.811,10.462,5.0284,5.1743,7.6751,3.9042,-0.5453,-1.9603
12.8118,7.4757,10.0058,10.522,9.4573,9.3394,4.19,-2.5671,-1.583,1.4876,0.3649,1.4334,9.1859,11.5814,12.2139,10.2999,8.5215,12.3427,10.7901,12.436,14.4139,14.9543,14.9759,10.1797,5.181,4.7752,7.0188,3.4208,-0.5436,-2.1553
13.5082,8.2874,10.4109,10.9587,9.5925,9.612,3.7871,-2.9097,-2.3883,0.6194,-0.6293,0.636,8.8428,11.4023,12.9523,10.8917,9.1951,12.9714,10.9892,12.6704,14.4221,15.0225,15.169,9.8,5.1291,4.2456,6.2007,2.8332,-0.5592,-2.2907
14.1732,9.1698,10.8038,11.4072,9.7149,9.867,3.4235,-3.206,-3.1576,-0.1866,-1.6254,-0.1606,8.4865,11.2181,13.7906,11.5052,10.0191,13.507,11.2054,12.8653,14.3716,15.0264,15.358,9.3783,4.8964,3.6535,5.3253,2.2102,-0.6027,-2.3517
14.7022,9.9945,11.102,11.7919,9.8014,10.0612,3.1599,-3.3966,-3.7826,-0.8249,-2.5049,-0.8814,8.1703,11.0585,14.6321,12.0497,10.8681,13.832,11.3879,12.9681,14.2599,14.951,15.4953,8.9644,4.5263,3.0663,4.4932,1.6162,-0.6802,-2.3246
14.9977,10.6378,11.2275,12.0411,9.8315,10.1518,3.0482,-3.4228,-4.1709,-1.2093,-3.1674,-1.4658,7.9373,10.944,15.3582,12.4338,11.6034,13.8378,11.4772,12.9256,14.0814,14.7798,15.5259,8.5963,4.074,2.5429,3.7892,1.1039,-0.7918,-2.1979
14.9872,10.9982,11.1184,12.0967,9.7896,10.1048,3.1253,-3.2364,-4.2575,-1.2834,-3.543,-1.8745,7.8158,10.8831,15.8453,12.5774,12.0942,13.4446,11.4152,12.6921,13.8283,14.4993,15.3984,8.2975,3.5958,2.1278,3.2731,0.7072,-0.9319,-1.9636
14.6353,11.0109,10.7363,11.9227,9.6679,9.9018,3.4094,-2.808,-4.0117,-1.0241,-3.5976,-2.0916,7.8172,10.8726,15.983,12.424,12.2396,12.618,11.1564,12.2393,13.4946,14.1045,15.076,8.0775,3.1421,1.8477,2.9767,0.44,-1.0901,-1.6192
13.9475,10.6562,10.0721,11.5111,9.4679,9.5452,3.9005,-2.1321,-3.4384,-0.4411,-3.3336,-2.1223,7.9384,10.9011,15.6927,11.9495,11.9858,11.3785,10.6788,11.5633,13.0807,13.6031,14.5457,7.9365,2.7541,1.7126,2.907,0.2988,-1.2529,-1.1711
12.9662,9.9628,9.1466,10.8844,9.2022,9.0608,4.5835,-1.2285,-2.575,0.4296,-2.7843,-1.9871,8.1684,10.9554,14.942,11.1681,11.3366,9.802,9.9912,10.6901,12.5995,13.0182,13.8241,7.8716,2.4643,1.7198,3.0531,0.2699,-1.4061,-0.6373
11.7615,9.0041,8.01,10.0952,8.8955,8.4954,5.4328,-0.1403,-1.4836,1.5333,-2.0055,-1.7131,8.495,11.0276,13.7527,10.1323,10.353,8.0101,9.1365,9.6759,12.0803,12.387,12.9573,7.8831,2.2983,1.8605,3.3953,0.3387,-1.5373,-0.0511
10.4189,7.8888,6.7377,9.221,8.5848,7.9126,6.417,1.0711,-0.2419,2.805,-1.0664,-1.327,8.9109,11.1197,12.1994,8.9279,9.1436,6.152,8.1883,8.6025,11.5686,11.7578,12.0153,7.9788,2.2758,2.1246,3.9119,0.4963,-1.6383,0.5397
9.029,6.7453,5.4247,8.3559,8.3172,7.3845,7.5014,2.3328,1.0659,4.1749,-0.0411,-0.8509,9.4151,11.2458,10.3996,7.6631,7.8459,4.3824,7.2429,7.5682,11.1227,11.1853,11.0822,8.1739,2.4085,2.5033,4.582,0.7415,-1.7056,1.0751
7.6783,5.7043,4.1797,7.5995,8.1458,6.9832,8.6501,3.5681,2.3568,5.5718,0.9968,-0.3041,10.0119,11.4298,8.4966,6.4561,6.6047,2.8405,6.4065,6.6761,10.8053,10.7249,10.2445,8.4864,2.6964,2.9874,5.3832,1.0773,-1.7409,1.4909
6.4446,4.8811,3.1165,7.0451,8.1234,6.7716,9.8245,4.7045,3.5537,6.9251,1.9766,0.2918,10.7052,11.7003,6.6418,5.4205,5.5506,1.6354,5.781,6.0211,10.6739,10.4279,9.5808,8.931,3.1245,3.5625,6.2876,1.503,-1.7489,1.7277
5.3943,4.3613,2.3443,6.7681,8.2952,6.7958,10.9828,5.6792,4.5887,8.1651,2.8312,0.9055,11.4928,12.0831,4.9774,4.653,4.7828,0.8381,5.4498,5.679,10.7726,10.3362,9.1529,9.511,3.6609,4.2044,7.2565,2.005,-1.736,1.7407
4.5819,4.1925,1.9548,6.8189,8.6914,7.0796,12.081,6.4456,5.4053,9.2265,3.4994,1.4921,12.3622,12.5954,3.6227,4.224,4.3591,0.4808,5.4675,5.6996,11.1255,10.4778,9.0013,10.2139,4.2591,4.8767,8.2389,2.5523,-1.7083,1.5079
4.0491,4.3834,2.0094,7.2177,9.3229,7.6228,13.0757,6.9764,5.9623,10.0533,3.931,1.9959,13.2898,13.2417,2.6644,4.1725,4.2939,0.5598,5.8528,6.1027,11.7354,10.8636,9.1425,11.0101,4.864,5.5331,9.1745,3.0967,-1.6697,1.0342
3.8227,4.908,2.5287,7.9546,10.1791,8.4022,13.9295,7.2667,6.2393,10.6068,4.096,2.3599,14.2434,14.013,2.1507,4.5051,4.5634,1.0414,6.5878,6.8797,12.5854,11.4856,9.5694,11.8571,5.4219,6.1229,10.0018,3.5801,-1.6216,0.3518
3.9109,5.7141,3.4851,8.9915,11.2279,9.3751,14.6177,7.3344,6.2416,10.8729,3.993,2.5391,15.1868,14.8887,2.0883,5.1979,5.1156,1.8687,7.6219,7.9965,13.6424,12.3181,10.2535,12.7065,5.8897,6.6003,10.6684,3.9451,-1.5635,-0.4843
4.298,6.7323,4.803,10.2663,12.4187,10.4822,15.1311,7.2163,6.0024,10.8668,3.6534,2.512,16.0847,15.8397,2.442,6.201,5.883,2.9663,8.8796,9.399,14.862,13.3197,11.1487,13.5126,6.2409,6.9317,11.1411,4.1473,-1.494,-1.4028
4.9413,7.8846,6.3659,11.6981,13.686,11.6531,15.4778,6.9632,5.5805,10.6322,3.1383,2.2879,16.9069,16.8316,3.1375,7.4449,6.7941,4.2453,10.2708,11.0181,16.1923,14.4379,12.1973,14.2391,6.4662,7.1016,11.4116,4.1639,-1.4133,-2.3245
5.7714,9.0911,8.0305,13.1945,14.9564,12.8118,15.6805,6.6316,5.0523,10.2369,2.5293,1.9069,17.6317,17.8283,4.0682,8.8484,7.783,5.6082,11.7015,12.7765,17.5783,15.6135,13.3357,14.8638,6.5713,7.1138,11.4976,3.9993,-1.3242,-3.1715
6.6995,10.277,9.6468,14.6609,16.1567,13.8848,15.773,6.277,4.5001,9.7628,1.915,1.4348,18.2485,18.7954,5.1086,10.3273,8.7941,6.9567,13.0848,14.5941,18.9656,16.7868,14.4995,15.3787,6.5716,6.9891,11.4379,3.685,-1.2328,-3.8751
7.6301,11.3777,11.0801,16.011,17.2234,14.8099,15.7945,5.9473,3.999,9.2941,1.375,0.952,18.7587,19.7041,6.1313,11.8035,9.7839,8.2013,14.3493,16.3944,20.3056,17.9037,15.6282,15.7877,6.4883,6.76,11.2834,3.2753,-1.148,-4.3832
8.475,12.3449,12.2298,17.1768,18.1113,15.5453,15.7842,5.6781,3.6048,8.9044,0.9676,0.5404,19.175,20.5332,7.0262,13.2118,10.72,9.2707,15.4451,18.1102,21.5585,18.9215,16.6677,16.1017,6.3453,6.4625,11.0849,2.8368,-1.0801,-4.6658
9.1669,13.1491,13.0421,18.1153,18.7986,16.0742,15.7754,5.4908,3.3463,8.6449,0.7202,0.2672,19.5176,21.2706,7.7155,14.5049,11.58,10.1196,16.3467,19.6882,22.6967,19.8133,17.5734,16.3321,6.1658,6.1278,10.88,2.4348,-1.039,-4.7176
9.6678,13.7814,13.5137,18.8122,19.2887,16.4058,15.7904,5.3916,3.2228,8.5356,0.6274,0.1703,19.8075,21.9122,8.1634,15.6561,12.3501,10.732,17.0521,21.0928,23.7051,20.5688,18.3126,16.4852,5.9704,5.7742,10.6834,2.1174,-1.0318,-4.559
9.9723,14.2522,13.6866,19.281,19.6068,16.5727,15.837,5.3723,3.2061,8.5619,0.6529,0.2477,20.06,22.4602,8.3776,16.6587,13.0258,11.1199,17.5792,22.3081,24.5802,21.1932,18.8671,16.5584,5.7742,5.4022,10.4807,1.9018,-1.0614,-4.2351
10.1051,14.5887,13.6368,19.5595,19.7941,16.6239,15.9064,5.413,3.2473,8.6769,0.7376,0.4541,20.2794,22.9205,8.404,17.5257,13.6131,11.3199,17.9627,23.3391,25.3297,21.7045,19.2374,16.5409,5.5856,4.9955,10.2316,1.7675,-1.1253,-3.812
10.1145,14.8322,13.4586,19.7042,19.9014,16.6166,15.9759,5.4863,3.2863,8.8105,0.8094,0.7075,20.4575,23.302,8.3153,18.2874,14.1304,11.3863,18.2498,24.2113,25.9704,22.1302,19.4446,16.4176,5.4065,4.5265,9.8795,1.6606,-1.2167,-3.3704
10.0623,15.0346,13.2489,19.7831,19.9805,16.6067,16.0134,5.5624,3.2643,8.8828,0.7964,0.9058,20.5769,23.6159,8.1953,18.9879,14.6088,11.3839,18.4965,24.9682,26.5274,22.5036,19.5309,16.1768,5.2341,3.9672,9.3675,1.5074,-1.3259,-2.9953
10.0124,15.254,13.092,19.8674,20.0769,16.641,15.9855,5.616,3.1351,8.8202,0.6393,0.9489,20.6157,23.8746,8.1234,19.6788,15.0898,11.3802,18.7626,25.6644,27.0306,22.859,19.5555,15.817,5.0636,3.3008,8.6547,1.2338,-1.4428,-2.7625
10.0206,15.5482,13.0496,20.0217,20.2235,16.7508,15.8648,5.632,2.8757,8.57,0.3036,0.762,20.5541,24.0906,8.16,20.4107,15.619,11.4374,19.1047,26.3563,27.5102,23.2266,19.5859,15.3503,4.8892,2.5286,7.7287,0.7844,-1.5589,-2.7266
10.1244,15.9661,13.1558,20.2953,20.4371,16.9491,15.6367,5.6097,2.4912,8.1113,-0.2128,0.3124,20.3792,24.2735,8.3395,21.2231,16.2367,11.6052,19.5677,27.0904,27.9908,23.6268,19.6857,14.8024,4.7048,1.6736,6.6113,0.1361,-1.6678,-2.9122
10.3387,16.5395,13.4185,20.7155,20.7169,17.2312,15.3025,5.5627,2.0128,7.4585,-0.8795,-0.3832,20.0882,24.4277,8.6684,22.1355,16.9688,11.9143,20.1764,27.8929,28.4859,24.0663,19.9032,14.2085,4.5045,0.7766,5.3561,-0.6968,-1.7647,-3.3113
10.6545,17.2764,13.825,21.2847,21.0475,17.5782,14.8779,5.5142,1.4893,6.6577,-1.6398,-1.2631,19.6895,24.5511,9.1306,23.1428,17.8189,12.3732,20.9298,28.7639,28.9948,24.5367,20.261,13.607,4.2835,-0.1101,4.0411,-1.6656,-1.8459,-3.8874
11.0453,18.1581,14.3492,21.9808,21.4037,17.9636,14.3891,5.4894,0.9748,5.7766,-2.4245,-2.2353,19.2016,24.6356,9.6935,24.2155,18.7659,12.9675,21.7992,29.6763,29.5021,25.0157,20.753,13.0334,4.0399,-0.9306,2.7556,-2.6964,-1.907,-4.5839
11.4748,19.1408,14.9573,22.7624,21.7558,18.3592,13.8669,5.5065,0.5168,4.8905,-3.1665,-3.197,18.6512,24.6697,10.3148,25.3046,19.7663,13.6626,22.7321,30.5823,29.9803,25.4718,21.3457,12.5161,3.7789,-1.6338,1.5879,-3.7035,-1.9427,-5.3334
11.9066,20.162,15.6116,23.5749,22.0749,18.7392,13.3417,5.5711,0.1479,4.0697,-3.813,-4.0546,18.07,24.6418,10.9469,26.3509,20.7609,14.4096,23.66,31.4233,30.3947,25.87,21.9848,12.0735,3.5158,-2.1793,0.6134,-4.6032,-1.9468,-6.0657
12.31,21.1476,16.2701,24.3579,22.3363,19.0823,12.8403,5.6736,-0.116,3.3695,-4.3302,-4.7381,17.4925,24.5445,11.5405,27.2937,21.6835,15.1529,24.5087,32.1405,30.7104,26.1782,22.6048,11.7148,3.277,-2.542,-0.1136,-5.3263,-1.9136,-6.714
12.6625,22.0212,16.8875,25.052,22.521,19.37,12.3852,5.7921,-0.2732,2.8257,-4.7024,-5.208,16.9526,24.3777,12.0485,28.079,22.4687,15.8366,25.2091,32.6852,30.8986,26.3721,23.1402,11.4417,3.0967,-2.7134,-0.5641,-5.8255,-1.8398,-7.2207
12.9487,22.7117,17.4165,25.6046,22.6162,19.5852,11.9948,5.8987,-0.3313,2.454,-4.9266,-5.4532,16.4814,24.1496,12.4304,28.6642,23.0592,16.411,25.7053,33.0244,30.942,26.438,23.5353,11.2509,3.0091,-2.7001,-0.7347,-6.0782,-1.7265,-7.5427
13.1564,23.1618,17.8114,25.9743,22.6147,19.7109,11.6834,5.9677,-0.302,2.2532,-5.0064,-5.4852,16.1048,23.8765,12.6574,29.021,23.4111,16.8364,25.9619,33.1436,30.8375,26.3741,23.7532,11.1366,3.0391,-2.522,-0.6448,-6.0847,-1.5804,-7.6568
13.2748,23.3335,18.0344,26.1352,22.5151,19.7312,11.4603,5.9814,-0.1991,2.2088,-4.9488,-5.3301,15.8408,23.5803,12.7165,29.1356,23.4976,17.0868,25.9668,33.0461,30.5966,26.1906,23.7806,11.0923,3.1928,-2.209,-0.332,-5.8643,-1.414,-7.5634
13.2931,23.2141,18.0616,26.0783,22.3216,19.6333,11.3279,5.9338,-0.0383,2.296,-4.7649,-5.0228,15.6976,23.2839,12.6133,29.009,23.3126,17.1508,25.7324,32.7508,30.2427,25.9079,23.6277,11.1107,3.453,-1.7981,0.1532,-5.4521,-1.245,-7.288
13.2016,22.8178,17.8875,25.8118,22.0432,19.4113,11.2795,5.8287,0.1608,2.4823,-4.4713,-4.6028,15.6711,23.0069,12.3708,28.6564,22.8714,17.0319,25.2927,32.2888,29.8054,25.5531,23.324,11.1824,3.7806,-1.3314,0.7513,-4.896,-1.0932,-6.878
12.9941,22.1849,17.5265,25.3592,21.6925,19.0685,11.2986,5.6772,0.3747,2.7295,-4.0922,-4.1114,15.7444,22.7614,12.025,28.1061,22.2091,16.7464,24.6982,31.6986,29.3159,25.156,22.9114,11.2944,4.1231,-0.8529,1.3984,-4.2541,-0.9774,-6.3964
12.6708,21.3764,17.011,24.7551,21.2843,18.6183,11.3592,5.4917,0.5765,2.9965,-3.6593,-3.59,15.8882,22.549,11.6171,27.3978,21.3775,16.3218,24.0075,31.0218,28.8007,24.744,22.4355,11.4293,4.4265,-0.4061,2.0306,-3.5907,-0.9119,-5.9121
12.2411,20.4645,16.3853,24.0403,20.8335,18.0838,11.4299,5.2831,0.7391,3.2427,-3.2098,-3.077,16.0637,22.3612,11.1857,26.5787,20.4385,15.7945,23.2795,30.2981,28.2791,24.3386,21.9378,11.5655,4.6476,-0.0298,2.5885,-2.9692,-0.9035,-5.4891
11.7249,19.5216,15.699,23.2572,20.3537,17.495,11.4786,5.0578,0.8391,3.4326,-2.7826,-2.6055,16.2269,22.181,10.76,25.6991,19.4575,15.2075,22.5644,29.5611,27.7606,23.954,21.4507,11.6788,4.7609,0.2453,3.0228,-2.4447,-0.9506,-5.1762
11.1525,18.6107,14.9999,22.4464,19.8568,16.8853,11.4782,4.8182,0.861,3.5409,-2.4123,-2.2012,16.3351,21.9877,10.356,24.8073,18.4972,14.608,21.8993,28.8353,27.2463,23.5969,20.9946,11.7457,4.76,0.3995,3.2985,-2.0564,-1.0429,-5.0003
10.5623,17.7798,14.3291,21.6451,19.3545,16.2879,11.4121,4.5647,0.8005,3.556,-2.1242,-1.8808,16.3535,21.7616,9.9776,23.9456,17.6121,14.0436,21.3051,28.135,26.7311,23.2694,20.5785,11.746,4.6526,0.4261,3.3984,-1.8231,-1.1635,-4.9616
9.9966,17.0599,13.7197,20.8866,18.8592,15.7328,11.2768,4.2975,0.6661,3.4827,-1.9303,-1.6512,16.261,21.4891,9.6197,23.1465,16.845,13.5589,20.7879,27.4659,26.2084,22.971,20.2032,11.6663,4.4541,0.3321,3.324,-1.7419,-1.2916,-5.0354
9.4958,16.4653,13.1959,20.1993,18.3861,15.2435,11.0828,4.018,0.477,3.3398,-1.8299,-1.5109,16.0531,21.166,9.2755,22.4307,16.2239,13.1905,20.3427,26.828,25.6753,22.7004,19.8653,11.5017,4.1811,0.1367,3.0948,-1.7908,-1.4062,-5.1778
9.0924,15.9945,12.7728,19.6045,17.9516,14.835,10.8503,3.7297,0.2586,3.1561,-1.8131,-1.4518,15.7417,20.7976,8.9407,21.8059,15.7596,12.9608,19.9573,26.2181,25.1356,22.4556,19.56,11.2564,3.8489,-0.1324,2.744,-1.9349,-1.4891,-5.3356
8.8038,15.6306,12.4545,19.113,17.5701,14.5107,10.6047,3.4377,0.0375,2.9635,-1.8648,-1.4617,15.3504,20.3968,8.6164,21.2657,15.4438,12.8734,19.6159,25.6327,24.601,22.2324,19.2827,10.9429,3.471,-0.4431,2.3126,-2.135,-1.5276,-5.4591
8.6268,15.3417,12.232,18.7206,17.2485,14.2617,10.3694,3.1488,-0.1638,2.7903,-1.968,-1.5263,14.9081,19.9791,8.3081,20.7905,15.2488,12.9094,19.3014,25.0683,24.0877,22.023,19.0283,10.579,3.0606,-0.7651,1.8428,-2.3565,-1.5155,-5.512
8.5361,15.0841,12.0821,18.4067,16.9821,14.0663,10.1611,2.8713,-0.3302,2.6562,-2.1054,-1.6308,14.4427,19.5571,8.0228,20.3499,15.131,13.0284,18.996,24.5214,23.6117,21.8164,18.7896,10.1844,2.6314,-1.0735,1.3714,-2.575,-1.4533,-5.478
8.4883,14.8082,11.9695,18.1357,16.7526,13.8932,9.986,2.6139,-0.4545,2.5693,-2.2588,-1.7604,13.9748,19.1372,7.7661,19.9086,15.0364,13.1743,18.6821,23.9876,23.1827,21.5999,18.5561,9.7772,2.1979,-1.3518,0.9252,-2.7788,-1.3477,-5.36
8.4326,14.4685,11.8519,17.8638,16.531,13.7067,9.8391,2.3838,-0.5371,2.5256,-2.4092,-1.9007,13.5167,18.7183,7.5411,19.4336,14.9097,13.287,18.3426,23.4615,22.8008,21.361,18.314,9.3709,1.7742,-1.5915,0.52,-2.965,-1.2106,-5.1754
8.3228,14.0333,11.6883,17.5481,16.2843,13.4742,9.707,2.1853,-0.5836,2.5113,-2.5375,-2.0373,13.0726,18.2933,7.3481,18.9013,14.703,13.3146,17.9633,22.937,22.4553,21.0896,18.0497,8.9733,1.3718,-1.7908,0.1615,-3.1344,-1.0571,-4.9488
8.1286,13.4923,11.447,17.1557,15.9839,13.1731,9.5714,2.019,-0.6022,2.5071,-2.625,-2.1573,12.6426,17.8541,7.1846,18.3027,14.3838,13.2255,17.5346,22.4081,22.1276,20.7784,17.752,8.5871,0.9983,-1.9521,-0.1513,-3.2857,-0.9034,-4.7042
7.8411,12.8582,11.1113,16.6708,15.6119,12.7948,9.4142,1.8812,-0.6018,2.4926,-2.6574,-2.25,12.2268,17.3955,7.0459,17.6447,13.9382,13.0138,17.0537,21.8702,21.7959,20.4223,17.4163,8.2113,0.6579,-2.0814,-0.424,-3.4143,-0.7653,-4.4611
7.4729,12.1636,10.6814,16.0965,15.1655,12.3462,9.221,1.7645,-0.5919,2.451,-2.629,-2.3096,11.8289,16.92,6.9244,16.9467,13.3718,12.6976,16.5246,21.321,21.4419,20.0172,17.0452,7.8437,0.352,-2.1876,-0.6643,-3.5131,-0.6558,-4.2319
7.0527,11.4523,10.1725,15.4533,14.6565,11.8472,8.984,1.6588,-0.5831,2.3719,-2.5463,-2.337,11.4575,16.4382,6.8087,16.2358,12.7066,12.3108,15.9573,20.761,21.0558,19.5604,16.6495,7.484,0.0822,-2.282,-0.8808,-3.577,-0.5839,-4.0223
6.618,10.7707,9.6107,14.7738,14.1085,11.3265,8.7035,1.5532,-0.5866,2.2534,-2.4281,-2.3398,11.1249,15.9688,6.684,15.5401,11.9759,11.8924,15.3661,20.1944,20.6409,19.0524,16.2462,7.1351,-0.1495,-2.3774,-1.0817,-3.6066,-0.5535,-3.8324
6.2055,10.1592,9.0279,14.0972,13.5526,10.8158,8.3888,1.4385,-0.6132,2.1024,-2.3021,-2.33,10.8447,15.5352,6.5338,14.8848,11.2196,11.4754,14.7682,19.6307,20.2141,18.5002,15.8565,6.8047,-0.3424,-2.4851,-1.2725,-3.6095,-0.5632,-3.6592
5.8444,9.6455,8.4571,13.4622,13.0217,10.3455,8.0572,1.3096,-0.6709,1.9336,-2.1972,-2.3202,10.6288,15.1621,6.3435,14.2896,10.4803,11.0816,14.183,19.085,19.8028,17.9208,15.5027,6.5051,-0.5002,-2.6122,-1.4546,-3.5986,-0.6062,-3.4984
5.5519,9.243,7.9288,12.9015,12.5466,9.9409,7.7323,1.166,-0.7617,1.7673,-2.136,-2.3189,10.4849,14.8709,6.1065,13.7684,9.8004,10.721,13.6312,18.5782,19.4397,17.3407,15.2046,6.2509,-0.6329,-2.7583,-1.6231,-3.5882,-0.6715,-3.346
5.3344,8.9503,7.4683,12.4385,12.1519,9.6199,7.4408,1.0131,-0.8798,1.6264,-2.1276,-2.3273,10.4152,14.6762,5.8289,13.3309,9.2191,10.3961,13.1349,18.1346,19.1551,16.7934,14.9755,6.0573,-0.7564,-2.914,-1.7669,-3.5889,-0.7457,-3.1986
5.192,8.7565,7.0952,12.0858,11.8544,9.3933,7.2087,0.8609,-1.0104,1.5339,-2.1641,-2.3374,10.4163,14.5829,5.5323,12.9829,8.7689,10.1086,12.7149,17.778,18.9698,16.3124,14.8191,5.9356,-0.8863,-3.0624,-1.8699,-3.6038,-0.8151,-3.0529
5.1248,8.6461,6.8226,11.8462,11.6623,9.2659,7.0571,0.7226,-1.1307,1.5092,-2.2203,-2.3325,10.4806,14.5854,5.2513,12.7266,8.4715,9.8643,12.388,17.526,18.8896,15.9236,14.7286,5.8911,-1.0314,-3.1813,-1.9148,-3.6272,-0.8673,-2.9059
5.1354,8.6035,6.6574,11.7142,11.5746,9.2372,6.9977,0.6126,-1.2127,1.5654,-2.2597,-2.2922,10.5957,14.6678,5.0251,12.5584,8.3321,9.6734,12.1619,17.3846,18.9032,15.6384,14.6869,5.9195,-1.1895,-3.2495,-1.8884,-3.6465,-0.893,-2.7542
5.2279,8.6151,6.5982,11.6763,11.5797,9.3004,7.0288,0.5429,-1.2309,1.7052,-2.2448,-2.1983,10.7446,14.8043,4.8859,12.467,8.3362,9.5478,12.032,17.3431,18.9825,15.4501,14.6698,6.0058,-1.3471,-3.2524,-1.7877,-3.6475,-0.8873,-2.5955
5.4016,8.6679,6.634,11.711,11.6552,9.4401,7.1333,0.5199,-1.1693,1.9176,-2.1482,-2.0421,10.9039,14.9604,4.8486,12.4311,8.4484,9.4948,11.9792,17.3727,19.0856,15.335,14.6493,6.1237,-1.4848,-3.1885,-1.6245,-3.6206,-0.8498,-2.43
5.6446,8.7479,6.7426,11.7891,11.7691,9.6321,7.2805,0.5427,-1.0278,2.1778,-1.9619,-1.8289,11.0442,15.0962,4.9056,12.4211,8.6169,9.5138,11.9718,17.4296,19.1636,15.2574,14.5987,6.2382,-1.5851,-3.071,-1.4266,-3.5653,-0.7845,-2.2622
5.9301,8.8401,6.8936,11.8769,11.8845,9.8447,7.4324,0.6039,-0.8233,2.4508,-1.6994,-1.5774,11.1332,15.1717,5.0299,12.404,8.7839,9.5952,11.9711,17.4637,19.1693,15.1792,14.4985,6.311,-1.6382,-2.9261,-1.2323,-3.4909,-0.698,-2.1021
6.2187,8.9304,7.0532,11.9426,11.9672,10.0446,7.5515,0.6916,-0.587,2.6981,-1.3924,-1.3158,11.1411,15.154,5.1851,12.3511,8.8981,9.7233,11.9399,17.4304,19.0673,15.069,14.3406,6.3087,-1.6451,-2.7854,-1.0816,-3.4129,-0.5978,-1.9649
6.4664,9.0089,7.191,11.9634,11.9927,10.2032,7.6084,0.7918,-0.3573,2.8848,-1.0844,-1.0759,11.0465,15.023,5.3393,12.2463,8.9282,9.8811,11.8509,17.3003,18.8415,14.9094,14.1299,6.2098,-1.6167,-2.6782,-1.0063,-3.3478,-0.4904,-1.8698
6.636,9.073,7.2857,11.9305,11.9506,10.3031,7.5859,0.8903,-0.1735,2.9853,-0.8227,-0.8868,10.8403,14.7747,5.4769,12.0899,8.8701,10.0539,11.6934,17.0664,18.4973,14.6987,13.8819,6.0093,-1.5688,-2.6232,-1.0224,-3.3074,-0.3807,-1.8365
6.708,9.1273,7.3279,11.8509,11.8444,10.3399,7.4784,0.9732,-0.0684,2.9853,-0.6499,-0.7708,10.5263,14.42,5.6032,11.8978,8.7468,10.2308,11.4746,16.7421,18.0587,14.4485,13.6171,5.7195,-1.5163,-2.6256,-1.1275,-3.2966,-0.272,-1.881
6.687,9.1816,7.3198,11.7424,11.6867,10.3204,7.2894,1.0277,-0.0633,2.8822,-0.5957,-0.7402,10.1189,13.981,5.7397,11.6955,8.5997,10.4032,11.216,16.3549,17.5606,14.179,13.3543,5.3664,-1.4684,-2.677,-1.3027,-3.313,-0.1676,-2.0095
6.6007,9.245,7.2726,11.6268,11.4921,10.2586,7.0284,1.0434,-0.1647,2.6839,-0.6704,-0.7965,9.6404,13.4847,5.9135,11.5092,8.4748,10.5627,10.9461,15.9361,17.0393,13.9127,13.1051,4.9835,-1.4268,-2.7604,-1.5194,-3.3495,-0.0716,-2.2138
6.4926,9.3211,7.2019,11.5203,11.2717,10.1691,6.7083,1.0144,-0.363,2.4066,-0.861,-0.931,9.117,12.9582,6.1433,11.3561,8.4077,10.698,10.6917,15.5111,16.5243,13.6688,12.8714,4.6048,-1.3882,-2.8559,-1.7461,-3.3971,0.0098,-2.4691
6.4091,9.4032,7.1236,11.4277,11.0302,10.063,6.3448,0.9412,-0.6335,2.0738,-1.1332,-1.1271,8.5766,12.4255,6.4288,11.2389,8.4116,10.7948,10.4697,15.0932,16.0342,13.4584,12.6455,4.2579,-1.3484,-2.9462,-1.9567,-3.4476,0.0692,-2.7375
6.3858,9.4735,7.0492,11.3401,10.7672,9.9467,5.9566,0.8332,-0.9403,1.7137,-1.4382,-1.3632,8.0466,11.9067,6.7468,11.1443,8.4721,10.8358,10.2827,14.6823,15.576,13.2815,12.4141,3.9603,-1.307,-3.0209,-2.1341,-3.4945,0.0996,-2.9747
6.4384,9.5051,6.9836,11.2377,10.4806,9.8226,5.5658,0.7075,-1.2416,1.3576,-1.7232,-1.6164,7.5531,11.4178,7.055,11.047,8.5509,10.8035,10.1187,14.2688,15.1484,13.1271,12.1621,3.7181,-1.2696,-3.0767,-2.2721,-3.5322,0.0972,-3.1412
6.5597,9.4665,6.9232,11.0968,10.1711,9.6914,5.1961,0.5866,-1.4976,1.0349,-1.944,-1.8659,7.118,10.9714,7.302,10.9169,8.5958,10.6836,9.9547,13.8394,14.746,12.9764,11.8762,3.5279,-1.2464,-3.1164,-2.3735,-3.5553,0.0632,-3.2118
6.7229,9.3274,6.8561,10.8956,9.8436,9.5532,4.8687,0.4926,-1.6789,0.7682,-2.0749,-2.0959,6.7557,10.575,7.4411,10.7272,8.5546,10.4693,9.7637,13.3833,14.3624,12.8078,11.5467,3.3796,-1.2485,-3.1469,-2.4476,-3.5592,0.0043,-3.1823
6.8902,9.0644,6.7643,10.6195,9.5056,9.407,4.5974,0.4397,-1.7744,0.568,-2.1148,-2.2981,6.4695,10.2293,7.4426,10.4609,8.3896,10.1657,9.5219,12.8956,13.9915,12.6033,11.1679,3.2592,-1.2835,-3.1776,-2.5069,-3.5419,-0.0685,-3.0695
7.0224,8.6666,6.6283,10.264,9.1638,9.2492,4.3839,0.4302,-1.794,0.4293,-2.0861,-2.4728,6.2506,9.9264,7.3022,10.1148,8.0882,9.7918,9.2155,12.3785,13.6265,12.3529,10.7398,3.1518,-1.3507,-3.2179,-2.5642,-3.5059,-0.1424,-2.9069
7.0872,8.1399,6.4324,9.8343,8.8214,9.0736,4.2164,0.4529,-1.7657,0.3332,-2.0271,-2.6265,6.0797,9.6506,7.0426,9.6995,7.6661,9.3802,8.8443,11.8399,13.2596,12.0574,10.2695,3.0437,-1.4404,-3.275,-2.6299,-3.4586,-0.2072,-2.7352
7.0649,7.5096,6.1706,9.3451,8.477,8.8724,4.0728,0.4868,-1.7265,0.2525,-1.979,-2.7681,5.9318,9.3813,6.7089,9.2366,7.1641,8.972,8.4222,11.2912,12.8825,11.7289,9.7733,2.9248,-1.535,-3.3516,-2.7095,-3.4102,-0.2576,-2.5938
6.95,6.8186,5.8498,8.8184,8.126,8.6389,3.9263,0.5078,-1.7118,0.1594,-1.9726,-2.9037,5.7818,9.0977,6.3584,8.7535,6.6368,8.6089,7.9739,10.7449,12.4877,11.3878,9.2783,2.7898,-1.6141,-3.4442,-2.8022,-3.37,-0.2941,-2.514
6.7508,6.1215,5.4897,8.2804,7.7636,8.3707,3.7522,0.4947,-1.7464,0.0324,-2.0201,-3.0333,5.6095,8.7829,6.0479,8.2769,6.139,8.324,7.5281,10.2119,12.0697,11.0583,8.8211,2.6377,-1.6595,-3.5428,-2.9013,-3.3432,-0.3221,-2.5157
6.486,5.4751,5.1184,7.7578,7.3867,8.0714,3.5321,0.4331,-1.8419,-0.1405,-2.1155,-3.152,5.4004,8.4263,5.8194,7.8264,5.7117,8.1337,7.1101,9.6995,11.6255,10.7618,8.4432,2.4698,-1.6604,-3.6341,-2.9974,-3.3304,-0.3483,-2.6067
6.1808,4.9281,4.766,7.2739,6.9953,7.7493,3.2554,0.3163,-1.9994,-0.3627,-2.2422,-3.2543,5.1451,8.0232,5.6899,7.4108,5.3743,8.0336,6.7355,9.2097,11.1543,10.5121,8.1818,2.2875,-1.6162,-3.7058,-3.0823,-3.3299,-0.3778,-2.7832
5.8628,4.5123,4.4574,6.846,6.593,7.4161,2.9199,0.1438,-2.2131,-0.6313,-2.3833,-3.3391,4.8381,7.5751,5.6473,7.0288,5.1248,7.9991,6.4091,8.7407,10.657,10.3126,8.0604,2.0898,-1.537,-3.7511,-3.1534,-3.3408,-0.4113,-3.0308
5.5577,4.2383,4.207,6.4836,6.1859,7.0842,2.5309,-0.079,-2.4748,-0.9405,-2.5293,-3.4107,4.4773,7.0883,5.6543,6.6726,4.9453,7.9926,6.1258,8.2889,10.1359,10.1564,8.0793,1.8741,-1.4401,-3.7694,-3.215,-3.3639,-0.4445,-3.3251
5.2867,4.095,4.0154,6.1883,5.7821,6.7636,2.1014,-0.3426,-2.7729,-1.2819,-2.6789,-3.4771,4.0656,6.5742,5.6591,6.3349,4.8117,7.9732,5.8749,7.8532,9.5958,10.0285,8.2115,1.638,-1.3452,-3.766,-3.2767,-3.4012,-0.4697,-3.634
5.0635,4.0541,3.8707,5.9544,5.3896,6.461,1.6504,-0.6334,-3.0917,-1.6447,-2.8349,-3.5451,3.612,6.0478,5.6112,6.0131,4.7013,7.9078,5.6434,7.4367,9.0444,9.9095,8.4045,1.382,-1.2691,-3.7481,-3.3497,-3.4528,-0.478,-3.9215
4.8933,4.077,3.753,5.771,5.016,6.1797,1.202,-0.9341,-3.4088,-2.0141,-2.997,-3.6163,3.1323,5.527,5.4756,5.7127,4.5974,7.7785,5.4183,7.0478,8.4917,9.7779,8.5889,1.1098,-1.2218,-3.7232,-3.4443,-3.517,-0.4617,-4.1536
4.774,4.1232,3.641,5.6235,4.6667,5.9208,0.7817,-1.2245,-3.695,-2.3712,-3.156,-3.6866,2.6472,5.0295,5.2433,5.4454,4.4896,7.5864,5.1883,6.6976,7.9486,9.613,8.6933,0.828,-1.2068,-3.6977,-3.5668,-3.5905,-0.4162,-4.3035
4.6972,4.1563,3.5193,5.4966,4.3456,5.6857,0.4129,-1.4821,-3.918,-2.6944,-3.2924,-3.7485,2.1788,4.5709,4.9349,5.2245,4.372,7.3487,4.9451,6.396,7.4248,9.3975,8.6603,0.5442,-1.222,-3.6775,-3.718,-3.6706,-0.3403,-4.3572
4.6511,4.1494,3.3825,5.375,4.0536,5.4761,0.1122,-1.6856,-4.0492,-2.9634,-3.3818,-3.7951,1.7461,4.1614,4.5954,5.0591,4.2398,7.0928,4.6855,6.147,6.927,9.1199,8.4617,0.2656,-1.2626,-3.6684,-3.8933,-3.7566,-0.2372,-4.3152
4.6228,4.0854,3.2364,5.2444,3.7882,5.2934,-0.1153,-1.819,-4.0727,-3.1649,-3.4045,-3.8254,1.3604,3.8032,4.2826,4.9474,4.0865,6.8463,4.4114,5.9447,6.4559,8.7763,8.1059,-0.0033,-1.3223,-3.6759,-4.0836,-3.8494,-0.1135,-4.1931
4.5989,3.9565,3.0944,5.0909,3.5417,5.1349,-0.2796,-1.8765,-3.9927,-3.2991,-3.3564,-3.8477,1.0214,3.4883,4.0522,4.874,3.9016,6.6282,4.1287,5.7709,6.0056,8.3694,7.6352,-0.2614,-1.3937,-3.7058,-4.2784,-3.9524,0.0208,-4.0185
4.5665,3.7622,2.9716,4.9019,3.3011,4.991,-0.4063,-1.8669,-3.8366,-3.3822,-3.255,-3.88,0.7162,3.1977,3.9421,4.8096,3.6707,6.4428,3.8436,5.5963,5.5629,7.9066,7.1148,-0.5131,-1.4697,-3.7637,-4.4692,-4.0707,0.1537,-3.826
4.5134,3.5074,2.8797,4.6669,3.0484,4.8443,-0.5335,-1.8136,-3.6514,-3.4454,-3.1386,-3.9464,0.4215,2.9034,3.9621,4.7172,3.3772,6.2802,3.5587,5.3854,5.1096,7.3966,6.6166,-0.7673,-1.5443,-3.8544,-4.653,-4.2105,0.2738,-3.6504
4.4307,3.2034,2.8236,4.3811,2.7653,4.6725,-0.7029,-1.7509,-3.495,-3.5275,-3.057,-4.0701,0.1097,2.5741,4.0913,4.561,3.0077,6.1215,3.2713,5.1048,4.6265,6.848,6.2027,-1.0364,-1.6136,-3.9799,-4.8326,-4.3767,0.3722,-3.5202
4.3166,2.8692,2.8016,4.0499,2.4392,4.4559,-0.9487,-1.7158,-3.4225,-3.6643,-3.0571,-4.2652,-0.2419,2.185,4.2855,4.319,2.5591,5.949,2.9758,4.7351,4.1014,6.2707,5.9149,-1.3316,-1.6767,-4.1373,-5.0136,-4.5697,0.4449,-3.452
4.1798,2.5322,2.8079,3.6917,2.07,4.185,-1.2859,-1.7379,-3.4726,-3.8777,-3.1683,-4.5292,-0.6423,1.7269,4.4897,3.992,2.0459,5.7557,2.6691,4.2795,3.5352,5.6807,5.7707,-1.6574,-1.7348,-4.3162,-5.1997,-4.7818,0.4933,-3.4471
4.0392,2.2267,2.8349,3.3376,1.6739,3.8664,-1.7042,-1.8317,-3.6573,-4.1683,-3.3929,-4.8417,-1.0806,1.2137,4.6533,3.6074,1.5027,5.5507,2.3555,3.7687,2.9475,5.1036,5.7648,-2.0071,-1.7905,-4.4982,-5.3879,-4.9964,0.5235,-3.4921
3.9198,1.9877,2.8743,3.0262,1.2816,3.5229,-2.1686,-1.993,-3.9599,-4.5158,-3.7078,-5.1693,-1.5269,0.6818,4.7418,3.2139,0.9814,5.3587,2.0492,3.2552,2.375,4.576,5.873,-2.3622,-1.8465,-4.6592,-5.5671,-5.1894,0.5434,-3.5616
3.8465,1.8433,2.9168,2.7937,0.9311,3.1882,-2.6284,-2.2012,-4.3398,-4.8854,-4.0732,-5.475,-1.9389,0.1832,4.7429,2.8694,0.5413,5.2132,1.7713,2.802,1.8655,4.1411,6.0591,-2.6949,-1.9052,-4.7744,-5.7197,-5.3354,0.5604,-3.6236
3.8375,1.8072,2.9519,2.6645,0.6581,2.8995,-3.0297,-2.4247,-4.7429,-5.2378,-4.4439,-5.7286,-2.2717,-0.2262,4.6664,2.627,0.2367,5.1459,1.5438,2.4666,1.4671,3.8409,6.2819,-2.9743,-1.9659,-4.824,-5.8257,-5.4139,0.5787,-3.6441
3.9003,1.8754,2.9695,2.6444,0.4868,2.6885,-3.3281,-2.6284,-5.1121,-5.5373,-4.7783,-5.9129,-2.4892,-0.5004,4.5389,2.5219,0.1038,5.1763,1.3824,2.2866,1.217,3.7055,6.5013,-3.173,-2.0244,-4.7989,-5.8674,-5.4152,0.5989,-3.5933
4.0303,2.0264,2.9616,2.7194,0.4241,2.575,-3.4983,-2.7808,-5.3977,-5.7579,-5.0421,-6.0251,-2.5724,-0.6134,4.3959,2.5637,0.1524,5.3041,1.2909,2.271,1.1325,3.744,6.6837,-3.2735,-2.0736,-4.7024,-5.8335,-5.3428,0.6188,-3.4519
4.2115,2.226,2.925,2.859,0.4584,2.563,-3.5386,-2.8597,-5.5655,-5.8857,-5.211,-6.0734,-2.5241,-0.5662,4.2713,2.7347,0.361,5.5056,1.2587,2.3989,1.2049,3.9387,6.8051,-3.2722,-2.1065,-4.5492,-5.7214,-5.2118,0.6353,-3.2165
4.4189,2.4333,2.8622,3.0235,0.5621,2.6395,-3.4708,-2.8565,-5.6029,-5.9196,-5.2722,-6.0721,-2.3696,-0.3868,4.1896,2.9943,0.6804,5.738,1.2624,2.6248,1.4008,4.2443,6.8522,-3.1817,-2.12,-4.3612,-5.5381,-5.0443,0.6464,-2.9033
4.6232,2.6086,2.7812,3.1718,0.6979,2.7769,-3.3346,-2.7782,-5.5206,-5.8695,-5.2269,-6.0368,-2.1518,-0.1255,4.161,3.2881,1.0418,5.9473,1.2708,2.8888,1.6675,4.5952,6.822,-3.0287,-2.1176,-4.1623,-5.3011,-4.8645,0.6521,-2.5473
4.7949,2.7195,2.6936,3.2699,0.827,2.9378,-3.1791,-2.6458,-5.3503,-5.7541,-5.0906,-5.9803,-1.9238,0.1546,4.1824,3.5591,1.3706,6.0797,1.2521,3.1295,1.9431,4.9174,6.7199,-2.8508,-2.1083,-3.9749,-5.0364,-4.6943,0.6551,-2.197
4.9097,2.7463,2.612,3.2968,0.9174,3.0821,-3.0514,-2.4893,-5.137,-5.596,-4.892,-5.9116,-1.738,0.3896,4.2414,3.7597,1.6028,6.0933,1.1817,3.2961,2.1693,5.1435,6.5582,-2.689,-2.1043,-3.8172,-4.7763,-4.5521,0.6597,-1.904
4.952,2.6853,2.5477,3.2479,0.9505,3.1753,-2.9867,-2.3402,-4.9277,-5.417,-4.6679,-5.8356,-1.6353,0.5277,4.3228,3.8614,1.6985,5.967,1.0486,3.3584,2.3029,5.2267,6.3548,-2.5798,-2.1167,-3.7016,-4.5546,-4.4511,0.6708,-1.7115
4.9182,2.55,2.5099,3.1361,0.9245,3.1954,-2.9997,-2.2248,-4.7602,-5.2336,-4.456,-5.7535,-1.637,0.5397,4.4124,3.86,1.6516,5.7061,0.8587,3.3124,2.3249,5.1511,6.1328,-2.5469,-2.1523,-3.6333,-4.3994,-4.3983,0.6921,-1.6426
4.8181,2.3693,2.5053,2.9877,0.8539,3.1372,-3.0825,-2.1585,-4.6549,-5.0546,-4.288,-5.6638,-1.7396,0.4249,4.4996,3.7756,1.4908,5.343,0.6353,3.1798,2.2432,4.9328,5.921,-2.5937,-2.2128,-3.6092,-4.326,-4.393,0.725,-1.6948
4.6736,2.1826,2.5385,2.8373,0.7646,3.0118,-3.2071,-2.1442,-4.6114,-4.8803,-4.1833,-5.5629,-1.9157,0.2114,4.5754,3.6464,1.2731,4.9335,0.4149,3.002,2.0897,4.6157,5.7525,-2.7017,-2.2936,-3.6168,-4.3312,-4.4253,0.7673,-1.8393
4.5144,2.0332,2.6109,2.7189,0.6864,2.842,-3.3342,-2.1738,-4.6122,-4.7058,-4.1462,-5.4458,-2.1201,-0.0507,4.6309,3.5194,1.0703,4.5485,0.2398,2.83,1.9107,4.2602,5.6617,-2.8332,-2.3836,-3.6352,-4.3918,-4.4764,0.813,-2.0272
4.3726,1.9598,2.7202,2.6588,0.6452,2.655,-3.4232,-2.2323,-4.629,-4.524,-4.166,-5.308,-2.3,-0.3013,4.6554,3.4379,0.952,4.2608,0.1498,2.7113,1.7552,3.9302,5.6783,-2.9392,-2.4648,-3.6374,-4.4684,-4.5201,0.853,-2.2008
4.2739,1.9882,2.8583,2.6696,0.6563,2.4745,-3.4439,-2.3029,-4.6323,-4.3303,-4.2202,-5.1463,-2.4075,-0.4842,4.6385,3.4318,0.9696,4.1308,0.1723,2.678,1.6613,3.6802,5.8206,-2.9717,-2.5123,-3.5951,-4.5141,-4.5278,0.8767,-2.308
4.2312,2.1249,3.0109,2.748,0.7199,2.3154,-3.3835,-2.3714,-4.5988,-4.1259,-4.2792,-4.9616,-2.4116,-0.5614,4.5728,3.5098,1.1439,4.191,0.3158,2.738,1.6464,3.5454,6.0893,-2.8962,-2.4976,-3.4847,-4.4862,-4.4752,0.875,-2.316
4.2393,2.3542,3.1569,2.8747,0.8208,2.1805,-3.2506,-2.4295,-4.5167,-3.9194,-4.3124,-4.7604,-2.3069,-0.5235,4.4584,3.6571,1.4601,4.4369,0.5649,2.8717,1.7011,3.5351,6.4641,-2.7022,-2.3945,-3.2943,-4.3572,-4.3498,0.843,-2.2207
4.276,2.6396,3.2702,3.0183,0.9316,2.0626,-3.0731,-2.4753,-4.3869,-3.7263,-4.2942,-4.5545,-2.117,-0.3928,4.3061,3.8383,1.87,4.8266,0.8812,3.0347,1.7904,3.6318,6.9047,-2.4076,-2.1863,-3.0272,-4.122,-4.1546,0.7818,-2.0493
4.3086,2.9303,3.3236,3.1412,1.0181,1.9481,-2.8925,-2.5131,-4.2215,-3.5664,-4.2096,-4.3582,-1.8897,-0.2184,4.1375,4.0057,2.3029,5.2906,1.2099,3.1677,1.8616,3.7961,7.3574,-2.0541,-1.872,-2.7016,-3.7977,-3.9075,0.6985,-1.8546
4.3042,3.1711,3.2939,3.207,1.0472,1.8226,-2.7538,-2.5505,-4.0394,-3.4593,-4.0566,-4.1839,-1.6854,-0.0645,3.982,4.1104,2.6799,5.7472,1.4892,3.2101,1.8565,3.9764,7.7645,-1.6978,-1.4703,-2.3457,-3.4184,-3.6351,0.605,-1.701
4.2404,3.3128,3.1666,3.187,0.992,1.6751,-2.6954,-2.5962,-3.8619,-3.4188,-3.8472,-4.0383,-1.5627,0.0054,3.8683,4.1127,2.9295,6.1192,1.6621,3.1134,1.7253,4.1194,8.074,-1.3947,-1.0197,-1.9913,-3.026,-3.3653,0.5143,-1.646
4.1104,3.3204,2.9387,3.064,0.8364,1.4994,-2.7404,-2.6577,-3.7085,-3.4495,-3.6057,-3.9213,-1.5641,-0.0559,3.8146,3.9885,2.9996,6.3449,1.6862,2.8517,1.4375,4.1808,8.2481,-1.1891,-0.5737,-1.6676,-2.6615,-3.1211,0.4372,-1.7234
3.9225,3.1774,2.6192,2.8335,0.5765,1.2938,-2.8922,-2.7394,-3.5944,-3.5452,-3.3653,-3.829,-1.7066,-0.27,3.8189,3.7317,2.8651,6.3843,1.5396,2.4246,0.9877,4.1319,8.2683,-1.106,-0.192,-1.3978,-2.3599,-2.9195,0.3798,-1.9314
3.6944,2.8867,2.2281,2.5031,0.2202,1.06,-3.1334,-2.8422,-3.5296,-3.689,-3.1631,-3.7573,-1.9779,-0.6283,3.8553,3.3527,2.5306,6.2197,1.2235,1.8562,0.3965,3.9638,8.1381,-1.148,0.0708,-1.198,-2.1459,-2.7715,0.3428,-2.2326
3.4451,2.4688,1.7928,2.0905,-0.2127,0.803,-3.4299,-2.9629,-3.5178,-3.8562,-3.0326,-3.7044,-2.3391,-1.0942,3.8776,2.8748,2.0273,5.8559,0.7603,1.1887,-0.2935,3.6882,7.8812,-1.2977,0.1756,-1.0782,-2.0331,-2.6842,0.322,-2.5629
3.1891,1.9574,1.3449,1.622,-0.6917,0.5326,-3.7361,-3.0932,-3.5548,-4.0164,-2.9957,-3.6701,-2.7317,-1.6109,3.8306,2.331,1.408,5.3188,0.1897,0.4753,-1.0241,3.3347,7.538,-1.5218,0.1061,-1.0412,-2.0228,-2.6605,0.3106,-2.849
2.9341,1.3957,0.9168,1.1307,-1.1774,0.2646,-4.0031,-3.2195,-3.6264,-4.1374,-3.0561,-3.6535,-3.0886,-2.1111,3.6672,1.7602,0.7388,4.6537,-0.4368,-0.2274,-1.729,2.946,7.1589,-1.7775,-0.1285,-1.083,-2.1036,-2.698,0.3019,-3.027
2.6847,0.8307,0.5384,0.6546,-1.6247,0.0222,-4.1857,-3.3231,-3.7087,-4.1889,-3.1962,-3.6497,-3.3453,-2.5288,3.364,1.2048,0.089,3.9221,-1.0619,-0.8652,-2.3422,2.5708,6.7977,-2.0191,-0.4949,-1.191,-2.2521,-2.7872,0.2909,-3.0562
2.4462,0.3097,0.2352,0.2337,-1.9887,-0.1661,-4.2498,-3.3828,-3.7704,-4.1473,-3.3792,-3.6489,-3.4523,-2.8099,2.932,0.7063,-0.4776,3.1946,-1.6288,-1.3925,-2.8073,2.2558,6.503,-2.2049,-0.9406,-1.3443,-2.4349,-2.9105,0.276,-2.9281
2.2288,-0.1248,0.0274,-0.095,-2.2313,-0.2718,-4.1776,-3.3787,-3.7786,-3.9993,-3.5566,-3.6368,-3.3834,-2.9213,2.4173,0.3013,-0.9122,2.5417,-2.087,-1.7764,-3.0846,2.0381,6.3109,-2.3027,-1.4002,-1.5145,-2.6127,-3.0435,0.2579,-2.6653
2.0453,-0.4389,-0.0724,-0.3019,-2.3279,-0.2726,-3.9703,-3.297,-3.7062,-3.7454,-3.6777,-3.5978,-3.1413,-2.8557,1.8919,0.016,-1.1869,2.0218,-2.3983,-2.001,-3.1582,1.9395,6.2387,-2.2948,-1.8045,-1.6688,-2.745,-3.1567,0.2396,-2.3162
1.905,-0.6125,-0.0601,-0.3714,-2.2722,-0.1607,-3.6476,-3.1339,-3.5392,-3.4005,-3.7016,-3.5187,-2.7566,-2.6325,1.4369,-0.1389,-1.2974,1.6702,-2.5402,-2.0691,-3.038,1.9635,6.2822,-2.1798,-2.0894,-1.7754,-2.7969,-3.2207,0.224,-1.944
1.8066,-0.6414,0.058,-0.3053,-2.0772,0.054,-3.2443,-2.8974,-3.2809,-2.9925,-3.6066,-3.3935,-2.2819,-2.2932,1.124,-0.1698,-1.2609,1.4934,-2.5075,-2.0013,-2.7574,2.0964,6.4176,-1.9728,-2.2053,-1.8085,-2.7445,-3.2118,0.2137,-1.6144
1.734,-0.5386,0.2655,-0.123,-1.772,0.3439,-2.804,-2.6069,-2.9528,-2.5575,-3.3961,-3.2267,-1.7807,-1.8919,0.9997,-0.0986,-1.1101,1.4685,-2.3116,-1.8319,-2.366,2.3113,6.6087,-1.7006,-2.1238,-1.7531,-2.5783,-3.117,0.2092,-1.3837
1.6602,-0.3298,0.5383,0.1427,-1.3942,0.6714,-2.3698,-2.2879,-2.5884,-2.1325,-3.0957,-3.032,-1.3128,-1.4832,1.0783,0.043,-0.8846,1.5517,-1.9764,-1.6014,-1.918,2.5752,6.8168,-1.3957,-1.8403,-1.606,-2.3037,-2.936,0.2101,-1.2895
1.5562,-0.0479,0.8499,0.4547,-0.9813,0.9998,-1.9757,-1.9662,-2.2235,-1.7469,-2.7439,-2.8278,-0.9216,-1.1103,1.3425,0.2213,-0.6225,1.6906,-1.5336,-1.3481,-1.4611,2.8571,7.0104,-1.0876,-1.373,-1.3754,-1.9377,-2.6796,0.2147,-1.345
1.4021,0.2743,1.1768,0.78,-0.5631,1.3026,-1.6387,-1.6601,-1.8851,-1.4151,-2.3787,-2.6303,-0.6252,-0.7969,1.7515,0.4075,-0.3543,1.8376,-1.0183,-1.101,-1.028,3.1334,7.1705,-0.7969,-0.759,-1.078,-1.5048,-2.3662,0.2213,-1.5383
1.1952,0.609,1.5023,1.0967,-0.1578,1.57,-1.3569,-1.3771,-1.5835,-1.134,-2.0256,-2.4476,-0.4147,-0.5449,2.2525,0.5825,-0.1001,1.9608,-0.4657,-0.8764,-0.633,3.3913,7.2927,-0.5317,-0.049,-0.7364,-1.032,-2.0174,0.2284,-1.8354
0.9523,0.9359,1.8179,1.395,0.2273,1.8081,-1.1124,-1.1132,-1.3116,-0.8856,-1.6924,-2.2773,-0.2605,-0.3385,2.7906,0.7378,0.1303,2.0486,0.0916,-0.6782,-0.2742,3.6277,7.3836,-0.2896,0.699,-0.3762,-0.5459,-1.6548,0.2353,-2.1865
