FP1,F3,F7,FC3,C3,C5,P3,P7,PO7,PO3,O1,Oz,Pz,CPz,FP2,Fz,F4,F8,FC4,FCz,Cz,C4,C6,P4,P8,PO8,PO4,O2,(corr) HEOG,(corr) VEOG
-1.9763,-1.992,-2.5553,-2.461,-2.205,-1.9361,-0.0525,0.4381,1.622,0.625,0.3375,-0.3271,-2.1828,-2.6939,-1.5655,-1.2179,-1.1815,-1.2528,-1.3235,-1.8827,-2.5132,-1.9362,-1.5611,-3.4594,-1.7064,-2.0619,-2.9982,-1.3921,-0.6041,-0.0329
-2.1927,-2.2621,-2.6803,-2.6697,-2.3856,-2.0829,-0.0578,0.4293,1.7108,0.6637,0.2769,-0.4807,-2.3716,-2.8878,-1.8457,-1.4663,-1.5351,-1.4924,-1.5106,-2.208,-2.7943,-1.992,-1.611,-3.3628,-1.3719,-1.7365,-2.894,-1.4348,-0.8427,0.3325
-2.3343,-2.5255,-2.8066,-2.859,-2.5691,-2.2462,-0.1735,0.3191,1.6153,0.558,0.0584,-0.7268,-2.559,-3.0614,-2.0608,-1.698,-1.8023,-1.6684,-1.6581,-2.4992,-3.0573,-1.9987,-1.6253,-3.1979,-1.0239,-1.4168,-2.7544,-1.5145,-1.144,0.6986
-2.3967,-2.7539,-2.9211,-3.012,-2.7416,-2.4086,-0.3945,0.1468,1.38,0.3276,-0.272,-1.0414,-2.7541,-3.2175,-2.1971,-1.889,-1.9545,-1.774,-1.7551,-2.7244,-3.2823,-1.9821,-1.628,-3.0309,-0.758,-1.1987,-2.6427,-1.6471,-1.4513,0.985
-2.3836,-2.9201,-3.009,-3.1152,-2.8956,-2.5568,-0.7107,-0.0448,1.0628,0.0057,-0.6514,-1.3865,-2.9651,-3.3607,-2.2493,-2.0193,-1.9799,-1.8057,-1.7952,-2.8581,-3.4537,-1.9672,-1.6398,-2.9169,-0.6485,-1.151,-2.6055,-1.8322,-1.7042,1.1226
-2.3068,-3.0049,-3.0593,-3.1624,-3.0316,-2.6853,-1.1081,-0.2202,0.7206,-0.3683,-1.014,-1.7161,-3.1952,-3.4965,-2.2218,-2.0788,-1.8853,-1.7632,-1.7788,-2.8888,-3.5644,-1.9732,-1.6735,-2.8885,-0.7322,-1.2994,-2.6609,-2.0506,-1.8522,1.0646
-2.1842,-3.0021,-3.067,-3.1569,-3.1567,-2.7959,-1.5678,-0.3599,0.3969,-0.7563,-1.3038,-1.9834,-3.4398,-3.6298,-2.1282,-2.0708,-1.6957,-1.6522,-1.7149,-2.8221,-3.6173,-2.0119,-1.7325,-2.9496,-0.9998,-1.6195,-2.7937,-2.2662,-1.8662,0.7972
-2.0374,-2.9196,-3.0339,-3.1102,-3.2792,-2.8949,-2.0648,-0.4626,0.1151,-1.1274,-1.4852,-2.149,-3.6848,-3.7624,-1.9899,-2.0121,-1.4497,-1.4865,-1.6211,-2.6804,-3.6239,-2.0872,-1.8127,-3.0771,-1.4,-2.0425,-2.9593,-2.4322,-1.7436,0.3473
-1.8885,-2.7766,-2.9661,-3.0378,-3.4032,-2.9879,-2.5666,-0.5422,-0.1221,-1.4607,-1.5472,-2.188,-3.9082,-3.8915,-1.8331,-1.9289,-1.1923,-1.2898,-1.522,-2.4977,-3.6005,-2.1978,-1.9053,-3.2287,-1.8515,-2.471,-3.0953,-2.502,-1.5083,-0.2175
-1.7567,-2.5985,-2.8715,-2.9537,-3.5227,-3.075,-3.0323,-0.6205,-0.3266,-1.744,-1.5022,-2.095,-4.0827,-4.0081,-1.6849,-1.8502,-0.9674,-1.0945,-1.4452,-2.311,-3.5626,-2.3377,-2.0003,-3.3555,-2.2622,-2.8026,-3.1389,-2.4404,-1.2039,-0.8014
-1.6542,-2.4077,-2.7558,-2.8639,-3.6187,-3.1464,-3.4144,-0.7155,-0.5141,-1.9698,-1.379,-1.885,-4.1796,-4.0962,-1.5677,-1.7986,-0.8104,-0.9358,-1.4146,-2.1504,-3.5182,-2.4971,-2.0875,-3.4136,-2.549,-2.9525,-3.0429,-2.2335,-0.8829,-1.2999
-1.5821,-2.2164,-2.6202,-2.7614,-3.6579,-3.1812,-3.6619,-0.8326,-0.693,-2.1296,-1.2127,-1.5904,-4.1724,-4.1321,-1.4939,-1.7821,-0.7412,-0.8447,-1.4434,-2.0298,-3.4629,-2.6607,-2.1567,-3.3742,-2.6548,-2.8727,-2.7899,-1.8942,-0.5944,-1.6221
-1.5293,-2.0213,-2.4607,-2.6248,-3.5977,-3.1499,-3.7271,-0.9579,-0.8565,-2.2105,-1.0355,-1.2556,-4.0405,-4.0873,-1.4613,-1.789,-0.7596,-0.8392,-1.5286,-1.9414,-3.3777,-2.8067,-2.1972,-3.2289,-2.5589,-2.5623,-2.3978,-1.4629,-0.3743,-1.708
-1.4729,-1.8047,-2.2702,-2.423,-3.3941,-3.0202,-3.575,-1.0598,-0.981,-2.1958,-0.8694,-0.9306,-3.7741,-3.9333,-1.4526,-1.7874,-0.844,-0.9193,-1.6487,-1.8566,-3.2327,-2.9077,-2.1979,-2.9912,-2.2801,-2.0678,-1.9195,-1.0026,-0.2397,-1.5413
-1.3853,-1.5401,-2.0429,-2.1239,-3.0147,-2.7674,-3.1926,-1.0957,-1.031,-2.0684,-0.7244,-0.6637,-3.3784,-3.6497,-1.439,-1.7328,-0.954,-1.0668,-1.7674,-1.7332,-2.9961,-2.9352,-2.1496,-2.6937,-1.8704,-1.4718,-1.4331,-0.5889,-0.1895,-1.1537
-1.243,-1.203,-1.7796,-1.7067,-2.4505,-2.3829,-2.5971,-1.0236,-0.9682,-1.8172,-0.5992,-0.4946,-2.8775,-3.2335,-1.3898,-1.5806,-1.0407,-1.2514,-1.8422,-1.5291,-2.6457,-2.8666,-2.0488,-2.3824,-1.4032,-0.8747,-1.027,-0.2961,-0.2082,-0.6223
-1.0385,-0.7838,-1.4934,-1.1741,-1.7264,-1.8825,-1.8386,-0.8134,-0.762,-1.4422,-0.4843,-0.4474,-2.3158,-2.7076,-1.2841,-1.3029,-1.0613,-1.441,-1.8382,-1.2184,-2.1826,-2.6944,-1.9019,-2.109,-0.9561,-0.3712,-0.7809,-0.1816,-0.2733,-0.0561
-0.7881,-0.2976,-1.212,-0.5593,-0.9038,-1.308,-0.9957,-0.4558,-0.3975,-0.9576,-0.3657,-0.526,-1.7559,-2.1237,-1.1231,-0.9039,-0.9966,-1.6144,-1.7419,-0.806,-1.6395,-2.434,-1.7302,-1.9232,-0.5948,-0.029,-0.7489,-0.2727,-0.3605,0.4248
-0.5348,0.2102,-0.9765,0.0726,-0.0755,-0.7233,-0.1645,0.0349,0.1205,-0.3918,-0.2279,-0.7117,-1.2727,-1.5605,-0.9373,-0.4286,-0.8628,-1.7706,-1.572,-0.3352,-1.083,-2.1277,-1.5711,-1.8647,-0.3621,0.1244,-0.947,-0.5582,-0.4483,0.7161
-0.3418,0.6681,-0.8357,0.6333,0.6491,-0.2032,0.5584,0.6234,0.7673,0.2173,-0.0566,-0.9656,-0.9412,-1.1114,-0.7835,0.0397,-0.7144,-1.9316,-1.3802,0.1148,-0.6052,-1.8408,-1.4756,-1.9572,-0.2717,0.1047,-1.3498,-0.9898,-0.5192,0.7532
-0.2785,0.9907,-0.8359,1.0274,1.164,0.1807,1.0948,1.2617,1.5029,0.8287,0.1604,-1.234,-0.8216,-0.8671,-0.7339,0.3946,-0.6331,-2.1379,-1.2425,0.4435,-0.3057,-1.6508,-1.4996,-2.2032,-0.3116,-0.0381,-1.894,-1.4898,-0.5593,0.5285
-0.4026,1.0988,-1.0086,1.1734,1.3908,0.3767,1.4018,1.8987,2.2781,1.4063,0.4315,-1.4578,-0.9431,-0.8929,-0.8558,0.5315,-0.7061,-2.435,-1.2397,0.5525,-0.2682,-1.6293,-1.6896,-2.5803,-0.4505,-0.2367,-2.4906,-1.9674,-0.5585,0.0933
-0.7418,0.9416,-1.3589,1.0251,1.2976,0.3658,1.4825,2.4912,3.0417,1.9264,0.7603,-1.5827,-1.2904,-1.2084,-1.1903,0.3761,-0.9993,-2.8565,-1.4339,0.3722,-0.5361,-1.8208,-2.0669,-3.0398,-0.6481,-0.4251,-3.039,-2.3357,-0.5095,-0.4555
-1.2802,0.5151,-1.857,0.5871,0.911,0.1694,1.3881,3.0108,3.7475,2.3831,1.1449,-1.5677,-1.7974,-1.774,-1.7336,-0.0911,-1.5331,-3.4069,-1.8468,-0.1153,-1.095,-2.2259,-2.6143,-3.5084,-0.8637,-0.5549,-3.4421,-2.5277,-0.409,-1.0016
-1.953,-0.1288,-2.4367,-0.0789,0.3155,-0.1515,1.2096,3.447,4.3598,2.7901,1.5783,-1.3908,-2.3509,-2.4892,-2.428,-0.8222,-2.2688,-4.0502,-2.4464,-0.864,-1.8665,-2.792,-3.2708,-3.894,-1.0622,-0.6034,-3.6182,-2.5061,-0.2576,-1.4419
-2.6514,-0.8859,-3.0009,-0.8607,-0.3588,-0.5051,1.0609,3.8058,4.8563,3.1777,2.0493,-1.049,-2.805,-3.2054,-3.1652,-1.705,-3.1095,-4.709,-3.1462,-1.7655,-2.7161,-3.4175,-3.9363,-4.0965,-1.217,-0.5729,-3.5095,-2.2651,-0.0608,-1.7138
-3.2374,-1.6151,-3.4361,-1.6123,-0.9592,-0.7844,1.0572,4.1035,5.2282,3.5857,2.5444,-0.5563,-3.0051,-3.7498,-3.8023,-2.5796,-3.915,-5.2736,-3.818,-2.6645,-3.4745,-3.9671,-4.4872,-4.0217,-1.3101,-0.483,-3.087,-1.8267,0.1715,-1.8099
-3.5674,-2.1633,-3.6312,-2.1782,-1.3368,-0.8858,1.2911,4.3595,5.4773,4.0522,3.0477,0.0605,-2.8158,-3.9558,-4.1863,-3.2666,-4.5259,-5.621,-4.3135,-3.3841,-3.9657,-4.296,-4.7976,-3.5984,-1.3309,-0.3616,-2.3529,-1.2319,0.4256,-1.7743
-3.5178,-2.3937,-3.4979,-2.4204,-1.3727,-0.7273,1.814,4.5874,5.61,4.6008,3.541,0.7663,-2.1476,-3.6945,-4.1826,-3.598,-4.7933,-5.6375,-4.492,-3.755,-4.0378,-4.277,-4.7631,-2.7939,-1.2764,-0.2366,-1.3426,-0.533,0.6868,-1.6863
-3.0098,-2.2104,-2.9878,-2.2418,-0.9976,-0.262,2.6239,4.7898,5.6311,5.2297,4.0011,1.519,-0.9781,-2.8988,-3.7012,-3.4469,-4.6049,-5.2426,-4.2456,-3.6454,-3.5895,-3.8253,-4.321,-1.6259,-1.1523,-0.1336,-0.1249,0.2132,0.9414,-1.6378
-2.0272,-1.5758,-2.1018,-1.603,-0.2024,0.5137,3.6643,4.9553,5.5389,5.9049,4.3982,2.2704,0.6389,-1.5791,-2.7162,-2.75,-3.9067,-4.4072,-3.5205,-2.9842,-2.5896,-2.9166,-3.465,-0.1685,-0.9749,-0.077,1.1998,0.9483,1.1796,-1.7122
-0.6225,-0.5172,-0.8915,-0.5288,0.9618,1.5592,4.8323,5.0608,5.3231,6.561,4.6959,2.9668,2.5761,0.1755,-1.2745,-1.5201,-2.7144,-3.1628,-2.33,-1.7751,-1.0843,-1.5952,-2.2501,1.4513,-0.7735,-0.0941,2.505,1.6136,1.3969,-1.9698
1.0883,0.8788,0.5495,0.8958,2.3931,2.7962,5.9963,5.0773,4.9684,7.1103,4.8538,3.5507,4.6488,2.2074,0.5085,0.1533,-1.1137,-1.6004,-0.7565,-0.1003,0.8062,0.0275,-0.7884,3.0663,-0.5895,-0.2159,3.6497,2.1515,1.5938,-2.4374
2.9446,2.4796,2.1004,2.5385,3.956,4.1193,7.018,4.9795,4.4622,7.4579,4.8342,3.967,6.6413,4.3134,2.4642,2.1154,0.7493,0.1413,1.0566,1.8898,2.9039,1.7873,0.7649,4.4908,-0.4723,-0.4745,4.4952,2.5094,1.7746,-3.1009
4.7656,4.1269,3.6306,4.2402,5.5005,5.4114,7.7762,4.7546,3.804,7.522,4.6113,4.1707,8.3386,6.2735,4.3949,4.1668,2.687,1.8945,2.9223,3.9961,4.9971,3.4886,2.233,5.5477,-0.4714,-0.8953,4.9249,2.6465,1.945,-3.9021
6.3779,5.657,5.0154,5.836,6.8818,6.5574,8.1843,4.4081,3.0131,7.2496,4.1789,4.1347,9.5573,7.8817,6.1014,6.0908,4.4953,3.4843,4.6349,5.9978,6.8694,4.9313,3.4421,6.0954,-0.6258,-1.487,4.8639,2.5408,2.1088,-4.7411
7.6382,6.9203,6.1491,7.1749,7.9746,7.4563,8.2,3.9639,2.1314,6.6285,3.5548,3.8559,10.1698,8.9731,7.4089,7.6817,5.98,4.7513,5.9972,7.682,8.3277,5.939,4.2458,6.0494,-0.9542,-2.2329,4.2916,2.1951,2.2653,-5.4888
8.4484,7.7962,6.9516,8.1353,8.6832,8.0291,7.8254,3.4586,1.2187,5.6879,2.7787,3.3554,10.1178,9.4422,8.189,8.7709,6.9826,5.5709,6.8481,8.871,9.2265,6.3827,4.5455,5.395,-1.4476,-3.0868,3.2472,1.6384,2.4068,-6.0101
8.7621,8.204,7.3734,8.6349,8.9465,8.2236,7.0993,2.9323,0.3435,4.4934,1.9065,2.6747,9.4151,9.2533,8.373,9.2481,7.4012,5.8686,7.0861,9.4451,9.4836,6.2003,4.3045,4.189,-2.0661,-3.9749,1.825,0.9224,2.5178,-6.1955
8.5824,8.1087,7.3959,8.6355,8.7399,8.0173,6.0856,2.4195,-0.43,3.1339,1.0008,1.8682,8.1393,8.4399,7.9573,9.0734,7.2027,5.6287,6.6847,9.3565,9.0882,5.4056,3.553,2.551,-2.7426,-4.8046,0.161,0.1144,2.5767,-5.9917
7.9548,7.5229,7.0317,8.1442,8.0758,7.4186,4.8609,1.9427,-1.0524,1.7082,0.1214,0.9941,6.4165,7.0958,7.0004,8.2801,6.4258,4.8961,5.6973,8.6337,8.0979,4.0873,2.3836,0.6456,-3.3916,-5.4773,-1.5863,-0.7131,2.5587,-5.4204
6.9563,6.5042,6.3224,7.2103,7.0017,6.4668,3.5043,1.5104,-1.4974,0.3107,-0.6818,0.1061,4.4008,5.3593,5.6124,6.9681,5.1736,3.77,4.2501,7.3743,6.6284,2.3974,0.9385,-1.3403,-3.9227,-5.9042,-3.2575,-1.4927,2.4413,-4.5752
5.6849,5.1473,5.335,5.9191,5.5971,5.2306,2.0906,1.1194,-1.7634,-0.9786,-1.3741,-0.7515,2.2537,3.3946,3.9391,5.2878,3.5973,2.3902,2.5221,5.7303,4.8366,0.5287,-0.6113,-3.2219,-4.255,-6.0197,-4.7127,-2.1708,2.2103,-3.5961
4.2494,3.574,4.1565,4.3835,3.9682,3.8037,0.6877,0.7613,-1.8691,-2.0997,-1.9359,-1.5459,0.1268,1.3716,2.1439,3.4198,1.8755,0.9176,0.7188,3.8854,2.9,-1.3125,-2.0895,-4.8374,-4.3306,-5.7919,-5.8457,-2.7114,1.8654,-2.6308
2.7613,1.92,2.8871,2.7337,2.2412,2.2986,-0.6434,0.4295,-1.8452,-3.0131,-2.3607,-2.2539,-1.8504,-0.5503,0.3892,1.5507,0.191,-0.4877,-0.9581,2.031,0.9959,-2.9344,-3.3379,-6.0637,-4.1223,-5.2255,-6.5911,-3.0958,1.424,-1.794
1.3268,0.321,1.6321,1.1049,0.5514,0.837,-1.8462,0.1257,-1.7241,-3.6967,-2.6499,-2.8574,-3.5756,-2.2355,-1.1807,-0.1489,-1.292,-1.6884,-2.3389,0.3429,-0.7164,-4.1845,-4.2355,-6.8244,-3.6368,-4.3594,-6.9237,-3.3187,0.9208,-1.1403
0.0414,-1.1008,0.4918,-0.3744,-0.9688,-0.4625,-2.8676,-0.1375,-1.5313,-4.1409,-2.8079,-3.3398,-4.9741,-3.5798,-2.4524,-1.5423,-2.4452,-2.5865,-3.3059,-1.0377,-2.1104,-4.966,-4.7115,-7.0907,-2.9116,-3.2592,-6.8528,-3.3827,0.4027,-0.6569
-1.0159,-2.2471,-0.4474,-1.5949,-2.2032,-1.4972,-3.6584,-0.3372,-1.2815,-4.3445,-2.839,-3.6839,-5.9971,-4.5155,-3.3522,-2.5392,-3.1897,-3.1334,-3.8054,-2.0166,-3.1016,-5.2455,-4.7503,-6.878,-2.0091,-2.0075,-6.4142,-3.2949,-0.0782,-0.2778
-1.7871,-3.052,-1.1222,-2.4763,-3.065,-2.1924,-4.1764,-0.4458,-0.9782,-4.3121,-2.7458,-3.8724,-6.6187,-5.013,-3.8489,-3.1001,-3.5011,-3.3304,-3.8479,-2.5522,-3.6518,-5.0515,-4.3895,-6.2391,-1.0068,-0.6944,-5.6627,-3.0652,-0.4739,0.0838
-2.2393,-3.4855,-1.4981,-2.9738,-3.5054,-2.5097,-4.3912,-0.4376,-0.6175,-4.0529,-2.5308,-3.8916,-6.835,-5.0797,-3.9529,-3.2346,-3.408,-3.2219,-3.5005,-2.6541,-3.7681,-4.465,-3.7112,-5.2564,0.0114,0.5913,-4.6668,-2.707,-0.7477,0.4996
-2.3676,-3.5534,-1.5717,-3.0803,-3.5182,-2.4504,-4.2896,-0.2962,-0.194,-3.5821,-2.1981,-3.7351,-6.6633,-4.7576,-3.7104,-2.9947,-2.9839,-2.8835,-2.8713,-2.3763,-3.4983,-3.6045,-2.8283,-4.0333,0.9644,1.7687,-3.5042,-2.2398,-0.8795,0.9962
-2.1947,-3.2936,-1.3694,-2.8251,-3.1383,-2.0525,-3.8796,-0.0196,0.2934,-2.9218,-1.7561,-3.4078,-6.142,-4.1173,-3.1947,-2.463,-2.3316,-2.4067,-2.09,-1.8057,-2.9215,-2.6077,-1.8679,-2.6849,1.782,2.7709,-2.2572,-1.6901,-0.8674,1.5455
-1.767,-2.7689,-0.9416,-2.2675,-2.4346,-1.3835,-3.192,0.377,0.8376,-2.1027,-1.2192,-2.9272,-5.3284,-3.2494,-2.494,-1.7393,-1.5655,-1.8834,-1.2865,-1.0478,-2.1369,-1.6118,-0.9535,-1.3274,2.4113,3.5491,-1.0077,-1.0903,-0.7262,2.0765
-1.1457,-2.0583,-0.3547,-1.4879,-1.4989,-0.5292,-2.278,0.8638,1.4216,-1.1632,-0.6077,-2.3221,-4.2941,-2.2532,-1.6978,-0.9253,-0.7922,-1.3922,-0.5718,-0.2116,-1.2496,-0.7347,-0.1886,-0.0671,2.8219,4.0771,0.1701,-0.4749,-0.484,2.5031
-0.3974,-1.2472,0.3191,-0.5779,-0.4335,0.4187,-1.2039,1.4013,2.0209,-0.1477,0.0541,-1.6292,-3.1186,-1.225,-0.8853,-0.1123,-0.0956,-0.9877,-0.0225,0.6041,-0.3579,-0.0602,0.3575,1.0103,3.0079,4.3526,1.2158,0.124,-0.177,2.7554
0.4135,-0.4183,1.0109,0.3703,0.6618,1.3741,-0.0427,1.9482,2.6071,0.8965,0.7393,-0.8887,-1.8817,-0.247,-0.1179,0.6285,0.4716,-0.6959,0.3259,1.3215,0.4575,0.3717,0.6574,1.8483,2.9876,4.3962,2.0881,0.6809,0.1562,2.8036
1.2296,0.3551,1.6628,1.272,1.6989,2.2657,1.1337,2.4685,3.1525,1.922,1.4203,-0.1411,-0.6583,0.6196,0.5629,1.2495,0.8881,-0.5165,0.4789,1.8879,1.1398,0.5658,0.7262,2.4236,2.7985,4.2465,2.7649,1.1785,0.4789,2.6664
2.0008,1.0146,2.2326,2.057,2.6095,3.043,2.2612,2.9369,3.6327,2.8829,2.0693,0.5749,0.4864,1.3375,1.1336,1.7259,1.159,-0.429,0.4749,2.2769,1.6579,0.5661,0.6154,2.745,2.4912,3.9526,3.2416,1.6065,0.7612,2.4024
2.6856,1.5205,2.6965,2.6752,3.3484,3.679,3.2877,3.3406,4.0288,3.7366,2.658,1.2237,1.4991,1.8926,1.5838,2.0511,1.3074,-0.4016,0.3731,2.4845,2.0049,0.4439,0.4007,2.848,2.1206,3.5664,3.5262,1.9587,0.9825,2.0885
3.2504,1.8532,3.0483,3.0998,3.8951,4.1691,4.1753,3.678,4.327,4.4452,3.158,1.7731,2.3399,2.2895,1.9129,2.2318,1.3657,-0.3993,0.2397,2.5246,2.1934,0.2817,0.167,2.7861,1.7387,3.135,3.6348,2.2303,1.1332,1.7957
3.6711,2.013,3.2956,3.3271,4.2517,4.5256,4.8992,3.954,4.518,4.9775,3.5426,2.1963,2.9829,2.5464,2.1262,2.282,1.3683,-0.3906,0.1339,2.4226,2.2495,0.1576,-0.0074,2.6211,1.3885,2.6967,3.5882,2.4164,1.2156,1.5707
3.9338,2.016,3.4539,3.3731,4.4371,4.7704,5.4452,4.1741,4.5956,5.3107,3.7882,2.4725,3.4163,2.6881,2.2327,2.2183,1.3443,-0.3516,0.0968,2.2096,2.206,0.13,-0.064,2.4127,1.1008,2.2785,3.4098,2.512,1.2427,1.4312
4.0359,1.8882,3.5391,3.2663,4.4789,4.9252,5.8067,4.3393,4.5562,5.4325,3.8779,2.5895,3.6407,2.7403,2.2438,2.0563,1.3143,-0.2683,0.1445,1.9164,2.0953,0.2288,0.0271,2.2104,0.8929,1.8964,3.1242,2.5129,1.2348,1.3713
3.9865,1.6594,3.5633,3.0401,4.4048,5.0035,5.9811,4.443,4.3989,5.3424,3.8038,2.5447,3.6681,2.7246,2.1725,1.8095,1.2881,-0.1367,0.2683,1.5698,1.9443,0.4524,0.2645,2.0482,0.7696,1.5565,2.7566,2.4177,1.2144,1.3731
3.8056,1.3579,3.5317,2.7253,4.2358,5.0074,5.9694,4.4728,4.127,5.0534,3.5701,2.3475,3.5211,2.6567,2.033,1.49,1.2658,0.0381,0.44,1.1918,1.7719,0.7726,0.6202,1.9429,0.7253,1.2576,2.3323,2.2296,1.2,1.4145
3.5233,1.0077,3.4442,2.3472,3.9841,4.928,5.7772,4.4146,3.7509,4.592,3.1951,2.0189,3.2313,2.5476,1.8411,1.1114,1.2403,0.2445,0.6231,0.8001,1.5898,1.1448,1.0484,1.896,0.7467,0.9931,1.8761,1.9577,1.2016,1.4728
3.1769,0.6284,3.2979,1.9253,3.655,4.7514,5.4173,4.2589,3.2893,3.9973,2.7102,1.5909,2.8392,2.4056,1.6137,0.6906,1.2002,0.4663,0.7832,0.4111,1.4046,1.5195,1.4961,1.8975,0.8151,0.7534,1.4109,1.6175,1.2174,1.5239
2.8068,0.2366,3.0909,1.4754,3.2513,4.465,4.9118,4.0061,2.77,3.3182,2.1573,1.103,2.3913,2.24,1.3685,0.2497,1.1337,0.6847,0.8966,0.0424,1.2218,1.8529,1.9126,1.93,0.909,0.5278,0.9571,1.2296,1.2351,1.5412
2.4509,-0.1537,2.8246,1.0121,2.7785,4.0641,4.2922,3.6685,2.2276,2.6084,1.5837,0.5978,1.9365,2.062,1.1216,-0.1857,1.0311,0.8796,0.9538,-0.2865,1.0478,2.112,2.2557,1.9728,1.0062,0.3057,0.5311,0.8182,1.2356,1.496
2.1372,-0.5308,2.5045,0.5498,2.247,3.5545,3.5982,3.27,1.7006,1.9215,1.0362,0.1165,1.5203,1.8841,0.8854,-0.5904,0.8868,1.0296,0.9569,-0.5566,0.8901,2.2761,2.4932,2.0048,1.0862,0.0795,0.1453,0.409,1.1993,1.3605
1.878,-0.8861,2.1392,0.102,1.6723,2.9528,2.8736,2.8421,1.2263,1.3054,0.556,-0.3047,1.1794,1.718,0.6656,-0.9447,0.7009,1.1134,0.9147,-0.7533,0.7554,2.3351,2.6037,2.0081,1.134,-0.1533,-0.1909,0.0268,1.1118,1.1107
1.6654,-1.2158,1.7388,-0.3209,1.0733,2.284,2.1627,2.4193,0.8371,0.7991,0.1754,-0.6376,0.9378,1.5724,0.4602,-1.2394,0.4784,1.1118,0.8366,-0.8717,0.6469,2.2877,2.5762,1.9711,1.1428,-0.3864,-0.4683,-0.3051,0.9682,0.7292
1.4721,-1.5214,1.313,-0.7135,0.4703,1.5792,1.5082,2.0356,0.558,0.4318,-0.0835,-0.8621,0.8063,1.452,0.2598,-1.4775,0.2281,1.011,0.729,-0.9185,0.5629,2.1411,2.412,1.8929,1.1173,-0.6031,-0.6741,-0.5654,0.7745,0.2103
1.2581,-1.8084,0.871,-1.0747,-0.1157,0.874,0.9499,1.7217,0.406,0.2238,-0.2072,-0.9655,0.7857,1.3597,0.0514,-1.6723,-0.0394,0.8069,0.5955,-0.9112,0.4983,1.9111,2.1266,1.7859,1.0737,-0.7768,-0.7894,-0.7343,0.546,-0.4325
0.9811,-2.0832,0.4224,-1.406,-0.6614,0.2062,0.5251,1.5041,0.3908,0.1881,-0.1892,-0.9408,0.8716,1.2995,-0.1769,-1.8413,-0.3129,0.5076,0.4392,-0.8721,0.4489,1.6234,1.7508,1.6757,1.0365,-0.8751,-0.7899,-0.7941,0.3048,-1.1563
0.6093,-2.3492,-0.0213,-1.7077,-1.1412,-0.3856,0.2671,1.4035,0.515,0.3304,-0.0289,-0.7868,1.0587,1.2794,-0.4303,-1.9989,-0.5812,0.1345,0.2651,-0.8212,0.4149,1.3117,1.3267,1.5955,1.0318,-0.8683,-0.6525,-0.7313,0.0767,-1.8846
0.132,-2.6032,-0.4465,-1.9755,-1.5275,-0.8664,0.2017,1.4329,0.7735,0.6474,0.2669,-0.5101,1.3417,1.3107,-0.7036,-2.15,-0.8328,-0.281,0.0822,-0.7703,0.4041,1.0124,0.9,1.5769,1.0773,-0.7399,-0.3653,-0.5422,-0.1125,-2.517
-0.4355,-2.8351,-0.8386,-2.2005,-1.7944,-1.2096,0.3409,1.5946,1.1505,1.1219,0.6807,-0.1285,1.7125,1.4053,-0.9815,-2.2872,-1.0568,-0.7027,-0.0974,-0.7199,0.4301,0.7579,0.5098,1.6394,1.1753,-0.4953,0.0614,-0.2384,-0.2408,-2.9567
-1.0541,-3.0302,-1.1842,-2.3707,-1.9237,-1.403,0.6772,1.8765,1.6178,1.7193,1.1807,0.3259,2.157,1.5704,-1.242,-2.3931,-1.2431,-1.0974,-0.2606,-0.6614,0.5084,0.5699,0.1796,1.7826,1.3094,-0.1651,0.5883,0.1482,-0.2952,-3.1477
-1.6683,-3.1726,-1.4738,-2.4751,-1.9104,-1.4526,1.1797,2.2517,2.1338,2.3864,1.7191,0.8064,2.6511,1.804,-1.4612,-2.4452,-1.3832,-1.4403,-0.3958,-0.5804,0.6506,0.4552,-0.0873,1.9839,1.4474,0.1987,1.149,0.5661,-0.2762,-3.1056
-2.2176,-3.2487,-1.7025,-2.5061,-1.7651,-1.3825,1.7956,2.6796,2.647,3.056,2.2357,1.2556,3.162,2.0932,-1.6184,-2.4219,-1.4696,-1.7184,-0.4938,-0.4614,0.8603,0.4072,-0.3053,2.2039,1.5491,0.5334,1.6611,0.9503,-0.2001,-2.9243
-2.6477,-3.2485,-1.8696,-2.4603,-1.5131,-1.2309,2.4568,3.1122,3.1033,3.6567,2.666,1.6146,3.6517,2.417,-1.6985,-2.306,-1.4947,-1.9297,-0.5471,-0.2899,1.1326,0.4103,-0.4989,2.3965,1.5774,0.7793,2.0429,1.2342,-0.0969,-2.7555
-2.9193,-3.1656,-1.9776,-2.3383,-1.1898,-1.0437,3.0902,3.5023,3.4547,4.1249,2.9528,1.8335,4.0842,2.7502,-1.6935,-2.0873,-1.4505,-2.0803,-0.5492,-0.0547,1.4551,0.4466,-0.6935,2.5201,1.5065,0.892,2.2316,1.3631,-0.0048,-2.7653
-3.0145,-2.9979,-2.0314,-2.1442,-0.8357,-0.8672,3.6285,3.8106,3.6684,4.4162,3.0577,1.8809,4.4309,3.0679,-1.6037,-1.7648,-1.3306,-2.1822,-0.495,0.251,1.81,0.5008,-0.907,2.5458,1.3276,0.8503,2.1961,1.3062,0.0382,-3.0853
-2.9385,-2.7492,-2.0398,-1.887,-0.4919,-0.7428,4.0192,4.0113,3.7308,4.5117,2.9682,1.75,4.6737,3.3478,-1.4385,-1.3483,-1.1352,-2.2519,-0.3837,0.6267,2.1757,0.5615,-1.1472,2.4607,1.048,0.6567,1.941,1.0621,0.002,-3.7719
-2.7183,-2.4304,-2.0164,-1.5816,-0.1958,-0.7012,4.2302,4.0946,3.649,4.4196,2.6999,1.4588,4.806,3.5721,-1.2172,-0.8589,-0.8753,-2.3106,-0.2224,1.0621,2.5272,0.6197,-1.4116,2.2664,0.6872,0.3324,1.5028,0.6582,-0.1291,-4.7872
-2.3976,-2.0605,-1.9788,-1.2487,0.0229,-0.7591,4.2528,4.0663,3.4473,4.1715,2.293,1.0468,4.8311,3.7275,-0.9676,-0.3284,-0.5742,-2.3828,-0.0273,1.5362,2.8389,0.667,-1.6908,1.9749,0.2698,-0.0913,0.9386,0.1444,-0.3531,-6.0066
-2.0292,-1.6649,-1.9463,-0.9126,0.1455,-0.9165,4.1005,3.9458,3.1621,3.8144,1.8052,0.568,4.7604,3.8065,-0.7225,0.2052,-0.2639,-2.4931,0.178,2.02,3.0876,0.6942,-1.973,1.6036,-0.1803,-0.5809,0.3122,-0.4167,-0.6494,-7.2517
-1.6669,-1.2715,-1.9359,-0.5977,0.1674,-1.1559,3.8067,3.7631,2.8362,3.4033,1.3019,0.0823,4.6108,3.8086,-0.5131,0.7042,0.0222,-2.6604,0.3682,2.4818,3.2572,0.6928,-2.2468,1.172,-0.6439,-1.1069,-0.3177,-0.9609,-0.9816,-8.335
-1.3577,-0.9066,-1.9579,-0.3229,0.099,-1.4446,3.4194,3.555,2.5136,2.9923,0.8473,-0.3527,4.4031,3.7415,-0.3625,1.1391,0.2596,-2.8913,0.5235,2.8951,3.3434,0.6566,-2.5029,0.7004,-1.107,-1.6444,-0.9065,-1.4321,-1.3036,-9.1054
-1.1356,-0.5887,-2.0127,-0.0974,-0.0341,-1.7391,2.9959,3.3603,2.2359,2.6302,0.4962,-0.6897,4.1609,3.6222,-0.2801,1.4952,0.4397,-3.1757,0.6361,3.2449,3.3565,0.5855,-2.7339,0.2112,-1.5582,-2.1721,-1.4248,-1.7881,-1.5668,-9.4786
-1.0182,-0.3257,-2.0902,0.0825,-0.1935,-1.9911,2.5969,3.2165,2.0396,2.3572,0.2894,-0.8957,3.9104,3.4761,-0.2587,1.7761,0.5721,-3.4864,0.7121,3.532,3.3215,0.4865,-2.9336,-0.2696,-1.9861,-2.6676,-1.8559,-2.0043,-1.7286,-9.4481
-1.0052,-0.1129,-2.1717,0.2333,-0.3328,-2.1543,2.2818,3.1547,1.9545,2.2044,0.252,-0.9538,3.6812,3.3356,-0.2771,2.0026,0.6802,-3.7843,0.7701,3.7723,3.275,0.3746,-3.0958,-0.7099,-2.3762,-3.1047,-2.1886,-2.0718,-1.7589,-9.0754
-1.0803,0.0655,-2.2349,0.3814,-0.4034,-2.1911,2.1031,3.1969,2.0017,2.1948,0.3935,-0.862,3.5063,3.2374,-0.304,2.2067,0.7932,-4.0266,0.835,3.9929,3.2598,0.2708,-3.214,-1.0715,-2.7105,-3.4532,-2.4106,-1.9943,-1.6452,-8.4659
-1.2138,0.2337,-2.2584,0.5586,-0.3609,-2.0778,2.1026,3.3531,2.192,2.3435,0.7096,-0.6301,3.4222,3.2194,-0.3046,2.4245,0.9374,-4.1773,0.9322,4.2264,3.3192,0.2003,-3.2812,-1.3121,-2.969,-3.6816,-2.5049,-1.7846,-1.3937,-7.7393
-1.3663,0.4201,-2.2264,0.7968,-0.1707,-1.8066,2.3076,3.62,2.5241,2.6571,1.1832,-0.2762,3.4665,3.3177,-0.2459,2.689,1.1319,-4.2141,1.0824,4.5051,3.4908,0.1898,-3.2897,-1.3906,-3.1332,-3.764,-2.4501,-1.4609,-1.0279,-7.0056
-1.4949,0.653,-2.1303,1.1222,0.1874,-1.3869,2.7274,3.9811,2.9835,3.1321,1.7863,0.1746,3.6739,3.5628,-0.1017,3.0236,1.3862,-4.1331,1.2996,4.8555,3.8024,0.2653,-3.2312,-1.2734,-3.1915,-3.6883,-2.2262,-1.046,-0.5845,-6.3514
-1.5596,0.9549,-1.9691,1.5507,0.7161,-0.8428,3.3504,4.408,3.5423,3.7526,2.4793,0.692,4.0691,3.9759,0.1437,3.4388,1.7018,-3.948,1.5901,5.2948,4.2679,0.4485,-3.0981,-0.9428,-3.143,-3.4634,-1.8236,-0.5673,-0.1084,-5.8377
-1.5311,1.3379,-1.7478,2.0831,1.3982,-0.2104,4.1437,4.8641,4.1603,4.4876,3.2129,1.2403,4.6592,4.5638,0.4923,3.9301,2.0725,-3.686,1.9526,5.8274,4.8852,0.7532,-2.8861,-0.4036,-3.0004,-3.1214,-1.2508,-0.0579,0.3541,-5.5031
-1.3973,1.8001,-1.476,2.7037,2.1974,0.4662,5.0533,5.3084,4.7881,5.2903,3.9302,1.7801,5.4279,5.3151,0.9308,4.4778,2.4852,-3.3809,2.3788,6.4432,5.6342,1.1815,-2.5961,0.314,-2.789,-2.7139,-0.5395,0.4453,0.7611,-5.3686
-1.1656,2.3248,-1.1645,3.382,3.0612,1.1411,6.0102,5.7019,5.3734,6.1023,4.5726,2.2721,6.3334,6.1983,1.4321,5.0509,2.9209,-3.065,2.8547,7.1186,6.4787,1.7222,-2.2357,1.1574,-2.542,-2.3024,0.2575,0.9054,1.0805,-5.4384
-0.8592,2.885,-0.8223,4.0782,3.9285,1.7727,6.9385,6.0143,5.868,6.8602,5.0881,2.6835,7.3128,7.1642,1.9611,5.6136,3.3579,-2.7603,3.3641,7.8212,7.3708,2.3531,-1.8167,2.06,-2.2934,-1.9441,1.0756,1.2927,1.2945,-5.6966
-0.509,3.4495,-0.4536,4.7517,4.7384,2.3309,7.7676,6.2298,6.2368,7.5066,5.4409,2.9943,8.2911,8.1514,2.4828,6.1338,3.7786,-2.4724,3.8929,8.5161,8.2584,3.0458,-1.3517,2.9528,-2.0703,-1.68,1.8503,1.5909,1.4008,-6.1018
-0.1424,3.9916,-0.0562,5.3695,5.4413,2.8018,8.4428,6.3504,6.4634,7.9998,5.6181,3.2015,9.1934,9.0954,2.9726,6.5919,4.1753,-2.188,4.4328,9.1739,9.093,3.7704,-0.8506,3.7754,-1.8887,-1.5277,2.5293,1.8008,1.4128,-6.5843
0.2236,4.4934,0.3764,5.9115,6.0048,3.1882,8.9328,6.3944,6.5524,8.3196,5.6309,3.3184,9.9548,9.9363,3.4207,6.9839,4.5544,-1.8789,4.9822,9.7749,9.8364,4.4995,-0.3193,4.4818,-1.7535,-1.4827,3.0783,1.9369,1.3554,-7.0485
0.5832,4.9464,0.8487,6.37,6.4166,3.5054,9.2301,6.3902,6.5254,8.4676,5.5106,3.3684,10.5266,10.6238,3.8313,7.3195,4.9339,-1.5113,5.5415,10.3089,10.4615,5.2069,0.2371,5.0405,-1.6622,-1.5269,3.4795,2.0197,1.2594,-7.382
0.9361,5.3467,1.3563,6.7444,6.6802,3.7728,9.3461,6.3675,6.4128,8.4609,5.298,3.3753,10.8765,11.1182,4.2144,7.613,5.3346,-1.0587,6.1063,10.7699,10.9497,5.8638,0.8076,5.4282,-1.6106,-1.64,3.7247,2.0654,1.1541,-7.4721
1.2791,5.6876,1.8792,7.0335,6.8074,4.0042,9.3014,6.3474,6.2442,8.3218,5.0315,3.353,10.9849,11.3878,4.5749,7.8725,5.7673,-0.5152,6.6587,11.148,11.2852,6.4341,1.3692,5.6232,-1.5976,-1.809,3.8065,2.0765,1.0611,-7.2261
1.6002,5.9544,2.3809,7.2287,6.8101,4.2011,9.1152,6.3349,6.038,8.0679,4.7363,3.2991,10.8406,11.4068,4.9027,8.0907,6.221,0.0974,7.1627,11.4235,11.4497,6.8718,1.8829,5.601,-1.6279,-2.034,3.7127,2.0381,0.9901,-6.5947
1.8778,6.1219,2.8128,7.3116,6.6946,4.35,8.7993,6.3161,5.7972,7.7064,4.4195,3.1939,10.439,11.1557,5.17,8.2415,6.6563,0.7289,7.5653,11.5651,11.4219,7.1248,2.2972,5.3371,-1.7104,-2.3253,3.4271,1.9213,0.938,-5.5904
2.0852,6.1599,3.1245,7.2584,6.4613,4.4269,8.3575,6.2626,5.5102,7.235,4.0721,3.0075,9.7848,10.6269,5.3356,8.2855,7.0105,1.3108,7.8065,11.5359,11.1819,7.1443,2.5578,4.8159,-1.853,-2.6956,2.9379,1.6933,0.8917,-4.2955
2.1985,6.0432,3.2764,7.0491,6.1095,4.4062,7.7928,6.1403,5.1584,6.6501,3.6782,2.7123,8.9004,9.8338,5.3574,8.1822,7.2123,1.7722,7.835,11.3061,10.722,6.8998,2.6214,4.0448,-2.0576,-3.1485,2.2512,1.3322,0.8333,-2.8529
2.2042,5.7632,3.2524,6.6794,5.6464,4.2723,7.1174,5.9222,4.7279,5.958,3.228,2.2978,7.8344,8.8206,5.2089,7.9058,7.2051,2.0585,7.6261,10.8675,10.0575,6.3933,2.4701,3.0661,-2.3145,-3.6689,1.4026,0.84,0.7471,-1.4401
2.1051,5.3377,3.0672,6.1687,5.0943,4.0287,6.3623,5.5989,4.22,5.1851,2.7287,1.7809,6.6666,7.6673,4.8919,7.4585,6.9682,2.1469,7.1948,10.2439,9.235,5.669,2.1209,1.9628,-2.6013,-4.2194,0.4625,0.2502,0.6255,-0.2316
1.9222,4.8122,2.7657,5.5631,4.4939,3.7009,5.5803,5.1844,3.6562,4.3811,2.2092,1.2084,5.5049,6.4851,4.4429,6.8752,6.5286,2.0538,6.5985,9.4936,8.3321,4.8128,1.6265,0.8527,-2.885,-4.7436,-0.4684,-0.3739,0.4726,0.6387
1.6916,4.2537,2.4154,4.9281,3.9006,3.3324,4.8419,4.7138,3.0768,3.6146,1.7167,0.6495,4.4724,5.4031,3.9284,6.219,5.9579,1.8312,5.9288,8.7011,7.4475,3.9402,1.0681,-0.1273,-3.1265,-5.1761,-1.2741,-0.9503,0.3033,1.1047
1.4581,3.7363,2.0912,4.3358,3.3756,2.9749,4.2232,4.2355,2.5324,2.9611,1.3058,0.1814,3.6876,4.5469,3.4314,5.5677,5.3556,1.5553,5.2925,7.9599,6.6837,3.1767,0.5399,-0.8446,-3.2872,-5.4555,-1.8435,-1.3951,0.1392,1.1738
1.2669,3.3243,1.8592,3.8487,2.9727,2.6755,3.7905,3.7999,2.0718,2.4878,1.0246,-0.1281,3.2423,4.0154,3.0336,4.996,4.8243,1.3091,4.7886,7.3528,6.1264,2.6329,0.1317,-1.1956,-3.3366,-5.538,-2.0927,-1.6401,0.0028,0.9148
1.155,3.0566,1.7618,3.5057,2.7265,2.4653,3.5856,3.4477,1.7312,2.2388,0.9016,-0.237,3.1831,3.8617,2.7969,4.5587,4.4452,1.1647,4.4879,6.9339,5.8275,2.383,-0.088,-1.1276,-3.258,-5.4083,-1.983,-1.6493,-0.0892,0.4313
1.1429,2.9379,1.8083,3.3137,2.6445,2.3534,3.6164,3.2017,1.5263,2.2258,0.9387,-0.1381,3.5007,4.0823,2.7513,4.2811,4.2618,1.1693,4.4194,6.7195,5.795,2.4506,-0.0842,-0.6501,-3.0548,-5.086,-1.5323,-1.4272,-0.1294,-0.1669
1.2312,2.939,1.9739,3.2476,2.7053,2.3257,3.8543,3.0634,1.4512,2.4255,1.1101,0.1386,4.1304,4.6183,2.8902,4.1569,4.2752,1.3374,4.5675,6.6881,5.9933,2.8055,0.1404,0.1635,-2.7515,-4.6254,-0.8144,-1.0201,-0.1206,-0.7899
1.4001,3.0059,2.2061,3.2591,2.8639,2.3503,4.2404,3.0145,1.4807,2.7841,1.3692,0.5327,4.9639,5.3669,3.175,4.1551,4.4504,1.6508,4.8793,6.7898,6.3536,3.3722,0.5474,1.1887,-2.3917,-4.1072,0.0516,-0.5069,-0.0736,-1.3831
1.6135,3.0744,2.4375,3.29,3.0622,2.3874,4.6969,3.0226,1.5773,3.2287,1.6592,0.9669,5.8694,6.202,3.5452,4.2316,4.7305,2.0648,5.2792,6.9613,6.7893,4.0461,1.0725,2.2724,-2.0298,-3.6231,0.9239,0.0166,-0.0033,-1.9312
1.828,3.0871,2.6016,3.2877,3.2431,2.3993,5.1439,3.0503,1.6997,3.6819,1.9257,1.3643,6.7163,6.9974,3.9346,4.3416,5.0537,2.5206,5.6876,7.1421,7.2152,4.7164,1.6383,3.2621,-1.7193,-3.2559,1.6669,0.4594,0.0757,-2.4495
2.0044,3.008,2.6491,3.219,3.3632,2.3614,5.5143,3.064,1.8118,4.0772,2.1287,1.6656,7.3988,7.6508,4.2857,4.451,5.3691,2.9582,6.0388,7.2878,7.5641,5.2879,2.1706,4.0362,-1.5003,-3.0595,2.1798,0.7558,0.153,-2.9684
2.1184,2.8319,2.5596,3.0783,3.4031,2.2686,5.7674,3.0431,1.8905,4.3711,2.25,1.8414,7.8541,8.0996,4.5618,4.5427,5.6462,3.3294,6.2928,7.378,7.7984,5.6984,2.6116,4.5255,-1.3895,-3.0464,2.4173,0.8792,0.2252,-3.5161
2.1679,2.5854,2.3487,2.8885,3.3709,2.1377,5.8935,2.9839,1.9292,4.5493,2.295,1.8959,8.0686,8.3289,4.7519,4.6173,5.8764,3.604,6.4403,7.4175,7.914,5.9269,2.929,4.7225,-1.3782,-3.1853,2.3964,0.8459,0.2962,-4.1048
2.1745,2.3204,2.0656,2.6946,3.2985,2.0035,5.912,2.8994,1.9375,4.6239,2.2875,1.8609,8.074,8.3672,4.868,4.689,6.0666,3.7723,6.4976,7.4301,7.935,5.9915,3.1181,4.6755,-1.4364,-3.4119,2.1858,0.7061,0.3755,-4.7224
2.1778,2.1012,1.7825,2.5523,3.2321,1.9107,5.8614,2.8141,1.9349,4.6247,2.2596,1.7831,7.932,8.2726,4.9366,4.7767,6.2289,3.8412,6.496,7.4475,7.9034,5.9377,3.1973,4.468,-1.5239,-3.6481,1.8831,0.5258,0.4748,-5.333
2.2246,1.9873,1.578,2.5122,3.2187,1.9025,5.786,2.7557,1.9423,4.5863,2.2395,1.7066,7.7144,8.1133,4.9863,4.8937,6.3689,3.8284,6.4679,7.4965,7.8633,5.822,3.1984,4.1929,-1.6029,-3.8244,1.5853,0.3658,0.6032,-5.885
2.3544,2.0171,1.5171,2.6055,3.2925,2.0092,5.7218,2.7463,1.9735,4.5352,2.242,1.6598,7.4823,7.9473,5.0367,5.039,6.478,3.7553,6.4342,7.5867,7.8461,5.6943,3.1558,3.9255,-1.649,-3.8985,1.3621,0.2643,0.7633,-6.3272
2.5861,2.1954,1.6338,2.8338,3.4642,2.2389,5.6868,2.7957,2.0288,4.4821,2.264,1.6471,7.2715,7.8068,5.0896,5.1911,6.5306,3.6408,6.3965,7.7033,7.86,5.5841,3.0956,3.7057,-1.6567,-3.8642,1.2396,0.2282,0.95,-6.6246
2.9112,2.4896,1.9213,3.1656,3.7164,2.5732,5.6771,2.8987,2.0953,4.4199,2.2866,1.6508,7.0862,7.6918,5.1272,5.3095,6.4877,3.4969,6.3358,7.8077,7.8855,5.4939,3.029,3.5325,-1.6393,-3.749,1.1978,0.2352,1.1509,-6.773
3.2935,2.8351,2.3332,3.5412,4.0061,2.9691,5.6707,3.037,2.15,4.3294,2.2831,1.6396,6.9032,7.5737,5.1164,5.3411,6.3059,3.3276,6.2182,7.8445,7.8807,5.4014,2.9505,3.3703,-1.6235,-3.603,1.1823,0.2446,1.3497,-6.8057
3.6779,3.1489,2.794,3.8852,4.2742,3.3663,5.6357,3.1837,2.1681,4.1881,2.2293,1.5812,6.6838,7.4076,5.0188,5.2338,5.9497,3.1303,6.0057,7.7556,7.7928,5.2685,2.8416,3.1661,-1.6401,-3.4819,1.1241,0.2137,1.5305,-6.7913
4.0033,3.3491,3.2172,4.1229,4.459,3.699,5.5416,3.3104,2.1307,3.9812,2.1122,1.454,6.3891,7.1494,4.803,4.9511,5.4038,2.8991,5.669,7.4959,7.5743,5.0551,2.6782,2.8696,-1.7146,-3.4301,0.963,0.1114,1.681,-6.8208
4.2184,3.3739,3.5251,4.1976,4.5104,3.9088,5.3697,3.3924,2.0307,3.709,1.9359,1.2546,5.9955,6.7723,4.4568,4.4848,4.6836,2.6299,5.1993,7.0477,7.1988,4.7328,2.4402,2.4522,-1.8586,-3.4683,0.6668,-0.0716,1.7947,-6.9867
4.2943,3.1976,3.6658,4.0848,4.4041,3.9576,5.1202,3.4145,1.8758,3.3917,1.7212,0.9998,5.5059,6.279,3.9954,3.8627,3.8391,2.3261,4.6156,6.4294,6.6725,4.2965,2.1209,1.9191,-2.065,-3.589,0.2416,-0.3209,1.8715,-7.3593
4.2344,2.8385,3.6243,3.8005,4.1504,3.8374,4.8167,3.3735,1.6882,3.0674,1.502,0.7228,4.9538,5.7064,3.464,3.1478,2.9527,2.0032,3.9658,5.6957,6.0386,3.77,1.734,1.3131,-2.3078,-3.7587,-0.2672,-0.6027,1.9175,-7.9665
4.0753,2.3577,3.4249,3.4013,3.7965,3.575,4.5036,3.2805,1.5023,2.7878,1.3191,0.4662,4.4013,5.1224,2.9336,2.431,2.1277,1.691,3.3222,4.9322,5.374,3.2061,1.3159,0.709,-2.5461,-3.9269,-0.784,-0.8722,1.9434,-8.784
3.8812,1.8488,3.1245,2.9751,3.4216,3.2293,4.241,3.1598,1.3591,2.6088,1.212,0.273,3.9294,4.6159,2.4906,1.8158,1.4729,1.4311,2.771,4.2414,4.778,2.6801,0.9238,0.2001,-2.7323,-4.0384,-1.2185,-1.084,1.9626,-9.7408
3.7305,1.4186,2.7992,2.6239,3.1218,2.8808,4.0928,3.0443,1.2992,2.5797,1.2107,0.1773,3.6235,4.2806,2.2202,1.3995,1.0831,1.2696,2.3977,3.7256,4.3542,2.2777,0.6261,-0.1189,-2.8215,-4.0447,-1.4841,-1.2004,1.9882,-10.736
3.6973,1.164,2.5247,2.4413,2.9899,2.6137,4.1136,2.969,1.3546,2.7326,1.3293,0.198,3.5556,4.1959,2.1886,1.2539,1.0192,1.2464,2.2711,3.4673,4.1899,2.0784,0.4901,-0.1715,-2.7805,-3.9132,-1.5145,-1.1981,2.0294,-11.6643
3.8341,1.1489,2.3584,2.4897,3.0925,2.4967,4.3345,2.962,1.5409,3.0745,1.5622,0.3352,3.7681,4.4094,2.4266,1.4085,1.294,1.3832,2.428,3.5121,4.3365,2.1384,0.5665,0.0847,-2.5945,-3.6323,-1.2754,-1.0696,2.0885,-12.4383
4.1565,1.388,2.3254,2.7835,3.4518,2.5645,4.7536,3.0368,1.8525,3.5833,1.8857,0.5721,4.2614,4.9236,2.9199,1.842,1.8663,1.6754,2.8636,3.857,4.7955,2.4765,0.8769,0.6484,-2.2699,-3.2107,-0.7699,-0.8224,2.1597,-13.0023
4.6372,1.8404,2.4125,3.2825,4.0358,2.8078,5.3318,3.1872,2.2621,4.2108,2.2626,0.8801,4.9901,5.6915,3.6085,2.484,2.646,2.09,3.5288,4.4488,5.5153,3.0663,1.4054,1.4722,-1.8329,-2.6743,-0.036,-0.475,2.2312,-13.3362
5.2085,2.4178,2.5732,3.8987,4.7623,3.1747,5.997,3.3873,2.7242,4.8895,2.6509,1.2253,5.868,6.6217,4.3963,3.2272,3.5109,2.57,4.337,5.1924,6.3982,3.8374,2.0977,2.4689,-1.3267,-2.0626,0.86,-0.0527,2.2891,-13.4518
5.7761,3.004,2.7403,4.5158,5.5152,3.5823,6.6561,3.5961,3.183,5.5439,3.0121,1.575,6.7823,7.5938,5.1691,3.949,4.3298,3.0454,5.1788,5.9695,7.3189,4.6861,2.8682,3.5249,-0.8055,-1.424,1.834,0.415,2.3232,-13.3882
6.2408,3.481,2.8449,5.015,6.1699,3.9379,7.2112,3.7671,3.5816,6.1021,3.3177,1.9025,7.614,8.4799,5.8175,4.5359,4.9878,3.448,5.9413,6.662,8.1487,5.4935,3.6132,4.5168,-0.3293,-0.8131,2.7945,0.8952,2.3313,-13.2052
6.522,3.757,2.836,5.3037,6.6215,4.1627,7.5792,3.8589,3.8721,6.5069,3.5528,2.1882,8.2596,9.1694,6.2585,4.9065,5.4069,3.7252,6.5289,7.1759,8.7805,6.1473,4.2294,5.3292,0.0433,-0.2876,3.6516,1.3523,2.3205,-12.9771
6.5779,3.7864,2.6946,5.3362,6.8082,4.211,7.7069,3.8457,4.0232,6.7225,3.7146,2.4184,8.6495,9.5885,6.4507,5.0264,5.5582,3.851,6.8806,7.4589,9.1488,6.5625,4.6325,5.8708,0.2619,0.0953,4.3241,1.7467,2.3061,-12.7831
6.415,3.5787,2.4409,5.1232,6.7235,4.0818,7.5811,3.7235,4.0235,6.737,3.8074,2.5819,8.7573,9.7123,6.3997,4.9116,5.4626,3.8302,6.9784,7.507,9.2392,6.6966,4.7729,6.0848,0.2904,0.2839,4.7444,2.0367,2.306,-12.6932
6.0859,3.1929,2.1297,4.7267,6.4144,3.8164,7.2291,3.5107,3.881,6.5602,3.8364,2.6672,8.6006,9.5652,6.1524,4.62,5.181,3.6952,6.8471,7.3602,9.0858,6.5553,4.6441,5.955,0.1137,0.2401,4.8632,2.1814,2.3355,-12.7548
5.6761,2.721,1.8372,4.2431,5.9674,3.4869,6.7115,3.2441,3.6201,6.2196,3.8033,2.6619,8.2322,9.2109,5.7828,4.2345,4.7963,3.4969,6.5454,7.0879,8.7588,6.1886,4.2831,5.5054,-0.2581,-0.0522,4.655,2.148,2.4025,-12.9838
5.2823,2.2651,1.642,3.7782,5.4859,3.1758,6.1095,2.971,3.2768,5.7553,3.7061,2.5563,7.726,8.7354,5.3734,3.8414,4.3928,3.2919,6.1504,6.7694,8.3458,5.6788,3.7625,4.7958,-0.7887,-0.5787,4.1245,1.9201,2.505,-13.3625
4.9881,1.9132,1.6048,3.4225,5.0658,2.9557,5.5091,2.74,2.8955,5.2158,3.5433,2.3486,7.1618,8.2279,4.9965,3.5112,4.0384,3.1296,5.7408,6.4749,7.9314,5.123,3.1762,3.9141,-1.4185,-1.2904,3.3127,1.5074,2.6316,-13.845
4.8443,1.7217,1.752,3.2316,4.7748,2.8711,4.9868,2.593,2.5253,4.6553,3.3205,2.0518,6.6115,7.7635,4.7012,3.2865,3.7742,3.042,5.3829,6.2512,7.5811,4.6144,2.6215,2.9652,-2.0722,-2.1047,2.2985,0.9498,2.7651,-14.3665
4.8576,1.7055,2.0682,3.2164,4.642,2.9296,4.5996,2.5577,2.2169,4.1306,3.056,1.696,6.1302,7.3916,4.5079,3.1771,3.6128,3.039,5.1211,6.1157,7.3317,4.2267,2.1819,2.058,-2.6704,-2.9165,1.1946,0.3158,2.8859,-14.8549
4.9938,1.8395,2.4986,3.3461,4.6572,3.103,4.38,2.6449,2.0175,3.6977,2.7826,1.3267,5.7529,7.1334,4.412,3.1655,3.5454,3.111,4.9762,6.0586,7.19,4.0048,1.9142,1.2929,-3.1421,-3.614,0.1344,-0.3068,2.9771,-15.2418
5.1924,2.0705,2.9624,3.5613,4.7817,3.3386,4.3372,2.848,1.9651,3.4084,2.5439,0.9977,5.4972,6.9859,4.3942,3.2186,3.5537,3.2364,4.9495,6.0535,7.1405,3.9628,1.8426,0.7496,-3.4368,-4.1003,-0.7475,-0.8267,3.0266,-15.4694
5.389,2.335,3.373,3.7942,4.966,3.5769,4.4629,3.1466,2.0828,3.3052,2.3862,0.7603,5.3696,6.9336,4.4349,3.3025,3.6234,3.3933,5.0314,6.0711,7.1581,4.0899,1.9606,0.479,-3.5324,-4.3126,-1.3379,-1.1678,3.0294,-15.4964
5.5356,2.5783,3.6597,3.9897,5.1682,3.7709,4.7384,3.512,2.3734,3.4159,2.348,0.653,5.3718,6.9598,4.5241,3.3963,3.7521,3.5681,5.2097,6.0938,7.222,4.3587,2.2382,0.4977,-3.4371,-4.2347,-1.566,-1.2845,2.9876,-15.3016
5.6119,2.7684,3.7839,4.1196,5.3663,3.8996,5.1398,3.9125,2.8161,3.7462,2.4497,0.6921,5.5037,7.0549,4.6644,3.4977,3.9499,3.7592,5.4733,6.1222,7.3233,4.7349,2.6314,0.7875,-3.1864,-3.9009,-1.4174,-1.1718,2.9098,-14.8875
5.6246,2.8984,3.744,4.1854,5.5599,3.9702,5.6378,4.3166,3.3656,4.2731,2.6856,0.867,5.7606,7.2169,4.8654,3.6193,4.2304,3.9725,5.8109,6.1728,7.4652,5.1812,3.0892,1.2973,-2.834,-3.3879,-0.9392,-0.8661,2.8092,-14.2824
5.5948,2.9788,3.5688,4.2091,5.7606,4.009,6.1943,4.693,3.9543,4.9399,3.0214,1.1406,6.1263,7.4437,5.1299,3.7768,4.5965,4.2123,6.2032,6.2661,7.6535,5.6586,3.5587,1.9498,-2.4407,-2.7975,-0.2318,-0.4369,2.7004,-13.5377
5.541,3.0227,3.3024,4.2156,5.9766,4.0441,6.7563,5.0086,4.4979,5.6562,3.3966,1.4553,6.5647,7.7222,5.4412,3.9729,5.0261,4.4703,6.6159,6.41,7.883,6.1233,3.9883,2.6514,-2.0621,-2.2339,0.5698,0.0281,2.5944,-12.7207
5.4633,3.0302,2.9861,4.2148,6.1965,4.0877,7.2541,5.2266,4.9056,6.3069,3.7339,1.7443,7.0168,8.0192,5.7547,4.1855,5.4658,4.72,6.9955,6.5865,8.1258,6.5262,4.3294,3.3058,-1.7378,-1.7802,1.3244,0.4428,2.4963,-11.9022
5.3367,2.9806,2.6439,4.1911,6.3827,4.1258,7.6063,5.3085,5.0942,6.769,3.9543,1.9458,7.4045,8.2788,6.0013,4.3644,5.8358,4.9174,7.2736,6.7475,8.3289,6.8142,4.5407,3.8294,-1.4862,-1.4811,1.9134,0.741,2.403,-11.1424
5.1161,2.835,2.2781,4.1037,6.4752,4.1186,7.7322,5.2193,5.0039,6.9354,3.9937,2.0166,7.6438,8.431,6.1004,4.4397,6.045,5.0104,7.3791,6.822,8.4217,6.9382,4.5919,4.1649,-1.3034,-1.3355,2.2659,0.891,2.3058,-10.4795
4.7524,2.5496,1.8737,3.8997,6.4069,4.0128,7.5708,4.9369,4.6121,6.7387,3.8188,1.9433,7.6635,8.4076,5.9808,4.3401,6.0132,4.9524,7.2551,6.7352,8.3333,6.8629,4.4702,4.2902,-1.1693,-1.3014,2.3716,0.9004,2.1938,-9.9227
4.2142,2.095,1.4127,3.5345,6.1262,3.7609,7.0986,4.4617,3.9421,6.1699,3.4364,1.7452,7.4243,8.1617,5.6035,4.0152,5.6933,4.7179,6.8768,6.4315,8.0142,6.5779,4.1838,4.2203,-1.0575,-1.3116,2.2774,0.8123,2.0588,-9.4511
3.5079,1.4755,0.8895,2.9929,5.6171,3.3419,6.343,3.8232,3.063,5.2851,2.8941,1.47,6.9324,7.6846,4.9783,3.4556,5.088,4.3136,6.264,5.8957,7.4556,6.1048,3.7643,4.0013,-0.9461,-1.2969,2.0711,0.6913,1.8992,-9.0171
2.6874,0.741,0.3248,2.3039,4.9127,2.7746,5.384,3.0808,2.0801,4.1984,2.2715,1.1819,6.2429,7.0148,4.1695,2.7053,4.257,3.7832,5.484,5.1664,6.6992,5.4985,3.2641,3.6985,-0.8273,-1.2082,1.8535,0.6044,1.7224,-8.5571
1.8514,-0.0135,-0.2303,1.5451,4.0966,2.1217,4.3449,2.3165,1.1171,3.0624,1.6643,0.9463,5.4522,6.2347,3.289,1.8601,3.3106,3.2016,4.6431,4.3346,5.836,4.8402,2.7493,3.3818,-0.7107,-1.0326,1.7111,0.6026,1.545,-8.0084
1.1272,-0.6603,-0.6997,0.8327,3.291,1.4816,3.3721,1.6228,0.2954,2.0405,1.1655,0.815,4.6814,5.4584,2.4767,1.0543,2.3917,2.6609,3.8691,3.5298,4.9914,4.2243,2.2901,3.1115,-0.6205,-0.7972,1.6941,0.708,1.3905,-7.333
0.6451,-1.0626,-0.9969,0.302,2.6356,0.9707,2.6105,1.0874,-0.2856,1.2782,0.8485,0.817,4.0545,4.8098,1.8732,0.4349,1.6488,2.2512,3.2857,2.8943,4.3026,3.7418,1.9485,2.929,-0.5868,-0.5596,1.808,0.9108,1.2862,-6.5375
0.5099,-1.1044,-1.0453,0.0783,2.2602,0.6993,2.1778,0.7788,-0.5626,0.8797,0.7556,0.9554,3.6753,4.3995,1.5904,0.1306,1.2067,2.0401,2.9882,2.5528,3.8899,3.4628,1.7677,2.8531,-0.6349,-0.3892,2.0172,1.1756,1.2581,-5.6796
0.7752,-0.7192,-0.7993,0.2474,2.2566,0.7464,2.1432,0.7342,-0.5165,0.8914,0.8929,1.2095,3.6075,4.3014,1.6867,0.2209,1.1392,2.0567,3.0226,2.5823,3.8306,3.4229,1.7643,2.8801,-0.7756,-0.3455,2.26,1.4535,1.3252,-4.8562
1.4251,0.0857,-0.2618,0.8286,2.6544,1.1379,2.5133,0.952,-0.1731,1.2962,1.2311,1.5406,3.8622,4.5355,2.151,0.7129,1.4513,2.2832,3.3741,2.9907,4.1395,3.6155,1.9244,2.9878,-0.9995,-0.46,2.4666,1.6948,1.4925,-4.1758
2.3695,1.2196,0.507,1.7602,3.4078,1.8331,3.2279,1.3897,0.4022,2.0173,1.711,1.8984,4.3928,5.0609,2.8999,1.5316,2.0738,2.6561,3.9677,3.7084,4.76,3.9922,2.2054,3.1418,-1.2783,-0.7275,2.5773,1.8599,1.7467,-3.7262
3.4543,2.5144,1.3931,2.9003,4.3968,2.7259,4.1687,1.97,1.1149,2.9315,2.2537,2.229,5.1027,5.7804,3.7893,2.5271,2.8726,3.0778,4.6803,4.5957,5.5714,4.4702,2.5431,3.3018,-1.5692,-1.107,2.5558,1.9253,2.0535,-3.5488
4.4861,3.7499,2.2464,4.0475,5.4455,3.661,5.1787,2.5924,1.8559,3.8899,2.7733,2.4828,5.862,6.5579,4.6398,3.4998,3.6731,3.4358,5.3635,5.467,6.4089,4.9487,2.8636,3.4298,-1.8246,-1.5315,2.3963,1.8865,2.3618,-3.6273
5.267,4.6937,2.9088,4.9772,6.3542,4.4632,6.0896,3.1522,2.518,4.7425,3.1908,2.6224,6.532,7.2442,5.2705,4.2382,4.2939,3.6269,5.8726,6.1264,7.0957,5.3277,3.0972,3.4964,-2.0011,-1.9231,2.1232,1.7565,2.6123,-3.8932
5.634,5.1476,3.2467,5.4871,6.9391,4.9736,6.7527,3.559,3.0116,5.3625,3.4467,2.6288,6.9921,7.7061,5.5352,4.5621,4.5838,3.5793,6.0949,6.407,7.4783,5.5273,3.1914,3.4857,-2.0687,-2.21,1.7851,1.5628,2.7495,-4.2448
5.4906,4.9894,3.1794,5.4409,7.0703,5.0834,7.0652,3.7532,3.2765,5.6658,3.5092,2.5041,7.1618,7.8528,5.3516,4.3605,4.4524,3.2688,5.9719,6.206,7.4573,5.5031,3.1211,3.3968,-2.0153,-2.3399,1.4434,1.3408,2.7339,-4.5734
4.8273,4.2006,2.6963,4.7989,6.6988,4.7574,6.9874,3.7158,3.2899,5.6229,3.3781,2.2708,7.015,7.652,4.718,3.6159,3.8888,2.723,5.5098,5.5059,7.0075,5.2528,2.8922,3.2425,-1.8487,-2.2898,1.1596,1.1283,2.5522,-4.7889
3.7224,2.8719,1.8598,3.6286,5.8667,4.0413,6.5481,3.4695,3.0687,5.2619,3.0835,1.9684,6.5825,7.1348,3.7126,2.4082,2.962,2.0147,4.7759,4.3788,6.1817,4.8155,2.5399,3.0454,-1.5939,-2.0681,0.983,0.9597,2.221,-4.8392
2.3261,1.1857,0.7915,2.0915,4.6974,3.0512,5.8366,3.0719,2.6653,4.6616,2.6806,1.6467,5.9432,6.3871,2.4764,0.8986,1.8059,1.2449,3.882,2.9713,5.0987,4.2609,2.1198,2.8328,-1.2882,-1.7116,0.9428,0.861,1.7861,-4.7188
0.8293,-0.6203,-0.3516,0.4095,3.3703,1.9488,4.9834,2.6025,2.1586,3.9368,2.2404,1.3581,5.2069,5.5303,1.1844,-0.7042,0.5895,0.5215,2.9596,1.4737,3.9177,3.6738,1.6967,2.631,-0.9754,-1.2776,1.0437,0.8474,1.3148,-4.4673
-0.5729,-2.3005,-1.4093,-1.1808,2.0829,0.9072,4.1345,2.1468,1.641,3.218,1.8389,1.149,4.4916,4.6963,0.0105,-2.1856,-0.5173,-0.0623,2.1329,0.0822,2.8054,3.1367,1.331,2.4617,-0.6983,-0.833,1.2677,0.9213,0.8841,-4.1556
-1.7185,-3.6478,-2.248,-2.4746,1.0131,0.0773,3.4246,1.7803,1.2036,2.6285,1.5453,1.0534,3.9005,4.0006,-0.9049,-3.3671,-1.3775,-0.4446,1.4955,-1.0396,1.9039,2.7148,1.0685,2.3391,-0.4933,-0.4428,1.5797,1.0736,0.5665,-3.865
-2.5052,-4.5298,-2.7848,-3.3362,0.2861,-0.4399,2.9534,1.5567,0.9221,2.2648,1.412,1.0883,3.5047,3.5224,-1.4782,-4.1376,-1.9109,-0.6027,1.0961,-1.7896,1.3048,2.4454,0.9333,2.2699,-0.3839,-0.1584,1.9362,1.2859,0.4171,-3.6654
-2.9035,-4.9066,-2.9981,-3.7186,-0.0444,-0.6082,2.7711,1.5012,0.8457,2.1816,1.4667,1.2521,3.3328,3.2914,-1.693,-4.4692,-2.1039,-0.5531,0.9353,-2.1414,1.0363,2.3358,0.9258,2.2541,-0.3774,-0.0096,2.2948,1.5351,0.4625,-3.5966
-2.9529,-4.8288,-2.9251,-3.663,0.0009,-0.4567,2.8746,1.6095,0.9905,2.3853,1.7086,1.5271,3.3711,3.2888,-1.5948,-4.413,-2.004,-0.3429,0.9732,-2.1412,1.0646,2.3662,1.0259,2.2871,-0.4637,-0.0001,2.6218,1.798,0.6965,-3.6575
-2.7438,-4.4167,-2.6471,-3.2802,0.3389,-0.0671,3.2127,1.8519,1.3371,2.8355,2.1092,1.8827,3.572,3.4569,-1.2735,-4.0791,-1.7012,-0.0364,1.1442,-1.8893,1.3084,2.4992,1.2001,2.3626,-0.6174,-0.108,2.8977,2.0561,1.081,-3.8058
-2.3904,-3.8286,-2.2679,-2.7211,0.847,0.4465,3.6998,2.1791,1.8332,3.4533,2.6155,2.2801,3.8686,3.7174,-0.8393,-3.6063,-1.3031,0.2998,1.3757,-1.5123,1.6612,2.6906,1.4097,2.4742,-0.8028,-0.2914,3.1184,2.2972,1.5534,-3.9692
-2.0027,-3.2267,-1.8913,-2.1433,1.3896,0.9615,4.2328,2.5294,2.3992,4.134,3.1567,2.6765,4.1898,3.9905,-0.398,-3.1309,-0.9108,0.6081,1.6029,-1.1335,2.0169,2.8988,1.6193,2.6159,-0.9808,-0.4975,3.2923,2.5148,2.0373,-4.0672
-1.6639,-2.7475,-1.6044,-1.6825,1.8433,1.3673,4.7081,2.8357,2.9376,4.7622,3.6523,3.0275,4.4744,4.2118,-0.0316,-2.7607,-0.6013,0.8479,1.7789,-0.8496,2.2896,3.0918,1.8023,2.782,-1.1156,-0.6741,3.4348,2.7044,2.4548,-4.0358
-1.4185,-2.482,-1.4658,-1.4332,2.1153,1.5805,5.0371,3.0336,3.3456,5.2281,4.0214,3.2904,4.6791,4.3419,0.2115,-2.5605,-0.4193,0.9976,1.8783,-0.7167,2.4265,3.2495,1.9432,2.9655,-1.181,-0.7796,3.5622,2.8606,2.7391,-3.8434
-1.271,-2.4689,-1.5025,-1.4397,2.1533,1.5531,5.1578,3.0699,3.5315,5.4438,4.1954,3.4291,4.7832,4.3695,0.3186,-2.5486,-0.376,1.0539,1.8951,-0.7485,2.4113,3.3637,2.0375,3.1587,-1.163,-0.7898,3.6873,2.9753,2.8435,-3.4932
-1.1947,-2.6981,-1.7118,-1.699,1.9472,1.2745,5.0418,2.9114,3.4312,5.3572,4.1292,3.4202,4.7872,4.307,0.3069,-2.7039,-0.4555,1.0276,1.8387,-0.9232,2.2588,3.4371,2.0905,3.3537,-1.0606,-0.6993,3.8176,3.0402,2.7481,-3.0137
-1.1469,-3.1239,-2.0675,-2.1705,1.5237,0.7683,4.6965,2.5517,3.0225,4.9608,3.8121,3.2594,4.7088,4.1822,0.2124,-2.9802,-0.6244,0.9396,1.7282,-1.1975,2.0042,3.4795,2.1137,3.5452,-0.8832,-0.5188,3.9569,3.0516,2.4608,-2.4437
-1.0865,-3.6817,-2.5281,-2.7918,0.935,0.084,4.1613,2.0141,2.332,4.2938,3.2708,2.9645,4.5751,4.027,0.0768,-3.3226,-0.8427,0.8148,1.5867,-1.5224,1.6906,3.5043,2.1216,3.7312,-0.6483,-0.2693,4.1068,3.0136,2.0147,-1.8208
-0.9876,-4.3042,-3.0466,-3.4937,0.247,-0.7122,3.4983,1.3478,1.4315,3.4337,2.5664,2.5737,4.4152,3.8682,-0.0638,-3.6827,-1.0744,0.677,1.4357,-1.8561,1.3572,3.525,2.1272,3.9129,-0.3773,0.0233,4.2673,2.9396,1.4619,-1.1759
-0.847,-4.9332,-3.5781,-4.2125,-0.4737,-1.5487,2.7809,0.6196,0.4243,2.4824,1.7829,2.1387,4.2535,3.7223,-0.1863,-4.0268,-1.2933,0.5457,1.2921,-2.1719,1.0324,3.5511,2.1396,4.0932,-0.0935,0.3321,4.4377,2.85,0.8636,-0.5327
