FP1,F3,F7,FC3,C3,C5,P3,P7,PO7,PO3,O1,Oz,Pz,CPz,FP2,Fz,F4,F8,FC4,FCz,Cz,C4,C6,P4,P8,PO8,PO4,O2,(corr) HEOG,(corr) VEOG
-3.1473,-2.8702,-1.3677,-2.2869,-1.5386,-1.1022,0.4928,-0.1065,2.0666,1.5671,1.0605,-0.4775,-0.6739,-1.457,-3.4028,-2.5017,-4.0898,-3.4074,-3.5832,-3.0286,-2.2529,-2.8075,-2.3601,-1.1653,-0.0181,1.8096,0.5183,-2.8702,0.4029,4.5915
-2.7446,-2.5562,-1.0821,-1.9949,-1.3754,-1.063,0.411,-0.1267,2.0872,1.4295,0.9091,-0.455,-0.6528,-1.2865,-3.192,-2.3957,-3.9119,-3.2444,-3.4615,-2.6833,-1.9866,-2.7752,-2.3746,-1.2294,-0.4716,1.6646,0.4719,-2.9829,0.4684,4.5227
-2.2754,-2.1668,-0.7364,-1.6584,-1.2033,-1.0236,0.1484,-0.3104,1.8659,1.0367,0.5897,-0.5078,-0.7672,-1.1619,-2.8387,-2.2329,-3.5847,-2.9242,-3.1812,-2.2987,-1.7217,-2.6239,-2.2882,-1.3169,-0.9372,1.4291,0.2976,-3.1415,0.523,4.3635
-1.803,-1.7656,-0.3767,-1.3347,-1.0483,-1.0026,-0.2625,-0.6484,1.4351,0.442,0.1485,-0.6126,-0.9927,-1.0845,-2.4005,-2.0544,-3.1609,-2.492,-2.7768,-1.9246,-1.4765,-2.3586,-2.099,-1.3936,-1.35,1.1587,0.0499,-3.3243,0.5326,4.1583
-1.4014,-1.4212,-0.0559,-1.0839,-0.9412,-1.0198,-0.7738,-1.1111,0.8506,-0.2779,-0.3519,-0.7397,-1.2993,-1.0625,-1.95,-1.9064,-2.707,-2.0009,-2.3067,-1.6209,-1.2841,-2.0092,-1.8241,-1.4352,-1.6545,0.9098,-0.2159,-3.5073,0.4585,3.9837
-1.1374,-1.1924,0.1771,-0.9547,-0.9089,-1.0906,-1.3295,-1.651,0.18,-1.0361,-0.846,-0.8623,-1.6572,-1.1088,-1.5571,-1.8289,-2.2878,-1.4999,-1.8389,-1.4431,-1.1852,-1.6239,-1.4953,-1.434,-1.8147,0.7269,-0.4567,-3.6719,0.2693,3.9274
-1.0533,-1.1151,0.2867,-0.9725,-0.9662,-1.2207,-1.8731,-2.2101,-0.5086,-1.7487,-1.2762,-0.9636,-2.0404,-1.2351,-1.2724,-1.8439,-1.9526,-1.0258,-1.4359,-1.4258,-1.2154,-1.2575,-1.1513,-1.4005,-1.8192,0.6325,-0.6508,-3.8103,-0.0476,4.0587
-1.1542,-1.1934,0.2573,-1.1322,-1.1086,-1.4024,-2.3536,-2.7284,-1.1549,-2.3451,-1.5997,-1.0391,-2.4261,-1.4445,-1.1167,-1.9493,-1.7265,-0.6015,-1.1412,-1.5709,-1.391,-0.9581,-0.8298,-1.3596,-1.6811,0.6255,-0.7987,-3.9265,-0.4799,4.4004
-1.4074,-1.4007,0.0955,-1.3997,-1.3112,-1.6153,-2.7289,-3.1518,-1.7088,-2.7742,-1.791,-1.0944,-2.7925,-1.7253,-1.0796,-2.1206,-1.6094,-0.2398,-0.9729,-1.8447,-1.6988,-0.7578,-0.5603,-1.3409,-1.431,0.6861,-0.9166,-4.0306,-0.9899,4.915
-1.7513,-1.6875,-0.1747,-1.7206,-1.5335,-1.8307,-2.9678,-3.4386,-2.1297,-3.006,-1.8395,-1.1387,-3.1169,-2.0499,-1.1289,-2.3192,-1.5824,0.0501,-0.9251,-2.1863,-2.0961,-0.6675,-0.3613,-1.3691,-1.1074,0.7867,-1.0253,-4.1306,-1.5218,5.5101
-2.1143,-1.9955,-0.5183,-2.0347,-1.7286,-2.0174,-3.051,-3.5618,-2.3841,-3.0296,-1.7454,-1.1785,-3.3757,-2.3792,-1.2248,-2.5058,-1.6184,0.257,-0.976,-2.5251,-2.5196,-0.6784,-0.2396,-1.4534,-0.7451,0.905,-1.1377,-4.2247,-2.0143,6.0632
-2.4346,-2.2727,-0.8977,-2.2897,-1.8549,-2.1494,-2.9717,-3.5104,-2.4444,-2.8498,-1.5159,-1.2127,-3.5469,-2.6709,-1.335,-2.6538,-1.6928,0.3652,-1.0984,-2.8005,-2.9011,-0.7684,-0.1928,-1.5832,-0.3674,1.0343,-1.2496,-4.2974,-2.4135,6.456
-2.6764,-2.4844,-1.2785,-2.4527,-1.8866,-2.2105,-2.7359,-3.2877,-2.2902,-2.4832,-1.1634,-1.2325,-3.6146,-2.8901,-1.4448,-2.7568,-1.791,0.3567,-1.2693,-2.9779,-3.1852,-0.9097,-0.2129,-1.7281,0.0176,1.1877,-1.3381,-4.3224,-2.6842,6.6082
-2.8367,-2.6182,-1.6331,-2.5135,-1.8198,-2.1969,-2.3621,-2.9102,-1.9125,-1.9547,-0.7055,-1.2242,-3.5736,-3.0169,-1.5595,-2.8291,-1.9105,0.2169,-1.4744,-3.0554,-3.3424,-1.0764,-0.2896,-1.8451,0.4132,1.3936,-1.3659,-4.2704,-2.8145,6.4993
-2.9427,-2.6821,-1.942,-2.4842,-1.6734,-2.1176,-1.8807,-2.4051,-1.3194,-1.2951,-0.1676,-1.1754,-3.4317,-3.0513,-1.6987,-2.8988,-2.0567,-0.0588,-1.708,-3.0599,-3.3755,-1.2488,-0.4123,-1.8885,0.8285,1.6865,-1.2914,-4.1189,-2.8152,6.1732
-3.0399,-2.6984,-2.193,-2.393,-1.4841,-1.9912,-1.3304,-1.8084,-0.5399,-0.5401,0.4167,-1.0801,-3.2082,-3.0112,-1.8854,-2.9974,-2.2365,-0.46,-1.9682,-3.0354,-3.3157,-1.4153,-0.5709,-1.8218,1.2708,2.0936,-1.0802,-3.8602,-2.7127,5.7243
-3.1763,-2.6946,-2.3803,-2.2758,-1.2977,-1.8432,-0.7557,-1.1623,0.3743,0.2703,1.0052,-0.9428,-2.9304,-2.9261,-2.1349,-3.1471,-2.4511,-0.9599,-2.251,-3.0274,-3.2125,-1.5704,-0.7546,-1.626,1.739,2.623,-0.7156,-3.5048,-2.541,5.2709
-3.3861,-2.6939,-2.5028,-2.167,-1.1576,-1.6999,-0.2018,-0.5132,1.3506,1.0912,1.5504,-0.7788,-2.6263,-2.827,-2.4454,-3.3529,-2.6901,-1.5165,-2.5443,-3.0677,-3.1175,-1.7107,-0.9514,-1.304,2.2211,3.2557,-0.2045,-3.0812,-2.3321,4.9241
-3.6765,-2.708,-2.5617,-2.0905,-1.0935,-1.583,0.2907,0.0919,2.302,1.8746,2.0036,-0.611,-2.3172,-2.7355,-2.793,-3.5976,-2.9294,-2.0756,-2.8248,-3.1639,-3.068,-1.8294,-1.1451,-0.8777,2.693,3.9435,0.423,-2.631,-2.1105,4.76
-4.0215,-2.732,-2.5579,-2.0523,-1.112,-1.5039,0.6909,0.6078,3.1356,2.5723,2.3219,-0.4646,-2.0101,-2.6533,-3.1326,-3.8432,-3.1311,-2.5753,-3.056,-3.2944,-3.0726,-1.9104,-1.3129,-0.3808,3.1222,4.6143,1.1193,-2.2015,-1.8919,4.8038
-4.362,-2.7425,-2.4893,-2.0364,-1.1901,-1.4595,0.9843,0.9953,3.7653,3.1422,2.4743,-0.3595,-1.6913,-2.5555,-3.4015,-4.0351,-3.2461,-2.9494,-3.1897,-3.4098,-3.1025,-1.9241,-1.4226,0.1532,3.4721,5.1834,1.8306,-1.8377,-1.6855,5.0275
-4.6139,-2.699,-2.3467,-2.0035,-1.2751,-1.43,1.1765,1.2254,4.1247,3.5556,2.4478,-0.3052,-1.3248,-2.3889,-3.5277,-4.1098,-3.2186,-3.1321,-3.1685,-3.4384,-3.0907,-1.8253,-1.4317,0.7013,3.7077,5.5678,2.5083,-1.5751,-1.4983,5.3605
-4.6811,-2.5487,-2.1123,-1.8957,-1.2908,-1.38,1.295,1.2851,4.1787,3.8037,2.2502,-0.2991,-0.8564,-2.0791,-3.4397,-4.0022,-2.993,-3.0638,-2.9332,-3.2972,-2.9412,-1.5587,-1.2914,1.2565,3.8,5.6993,3.1174,-1.4353,-1.338,5.7089
-4.4735,-2.2351,-1.7602,-1.6464,-1.1508,-1.2637,1.3847,1.1808,3.9288,3.899,1.9094,-0.329,-0.2258,-1.5466,-3.0789,-3.6566,-2.5234,-2.7004,-2.4342,-2.9071,-2.5495,-1.0712,-0.9563,1.8246,3.7267,5.5334,3.6373,-1.4264,-1.2136,5.9787
-3.9266,-1.7107,-1.2619,-1.1954,-0.7788,-1.034,1.4981,0.9397,3.4112,3.8716,1.4677,-0.3793,0.6148,-0.7301,-2.413,-3.0376,-1.7869,-2.0237,-1.6464,-2.212,-1.831,-0.3305,-0.3998,2.4133,3.4709,5.0513,4.0569,-1.5463,-1.132,6.0988
-3.0183,-0.951,-0.5957,-0.5065,-0.13,-0.6537,1.68,0.6051,2.6876,3.76,0.9733,-0.4377,1.6814,0.3899,-1.4478,-2.1416,-0.7942,-1.0514,-0.5833,-1.1967,-0.7496,0.6569,0.3722,3.0181,3.0203,4.2588,4.3653,-1.7877,-1.094,6.0385
-1.7797,0.0354,0.2434,0.4194,0.793,-0.1068,1.9544,0.2283,1.8321,3.6002,0.4706,-0.499,2.9444,1.7744,-0.2322,-1.0016,0.4044,0.1591,0.6962,0.1014,0.6628,1.8355,1.3126,3.6128,2.3681,3.1835,4.5466,-2.1424,-1.0917,5.8139
-0.2937,1.2034,1.2361,1.5389,1.9346,0.5942,2.3145,-0.1429,0.9167,3.4156,-0.0061,-0.5656,4.3263,3.3247,1.1459,0.3137,1.7236,1.5147,2.0933,1.5938,2.3035,3.1045,2.3378,4.1474,1.5183,1.8732,4.579,-2.6008,-1.1082,5.4832
1.3175,2.4776,2.3369,2.7717,3.1942,1.4074,2.7214,-0.4745,0.0004,3.2121,-0.4377,-0.6439,5.7115,4.8965,2.5737,1.7121,3.0576,2.8998,3.4851,3.1553,4.0159,4.3355,3.3422,4.5577,0.4934,0.3963,4.4417,-3.1496,-1.1212,5.1297
2.9141,3.766,3.4798,4.0155,4.4452,2.2666,3.1107,-0.7535,-0.877,2.978,-0.8195,-0.7405,6.9658,6.3272,3.9341,3.0932,4.3013,4.1958,4.7494,4.6487,5.6202,5.3986,4.2206,4.7804,-0.661,-1.1606,4.1241,-3.7675,-1.1089,4.8399
4.3614,4.9755,4.5876,5.1656,5.5595,3.0932,3.4048,-0.9895,-1.6964,2.6878,-1.1598,-0.859,7.9603,7.4661,5.1264,4.3657,5.3696,5.3002,5.787,5.9503,6.9495,6.1889,4.8895,4.7693,-1.8752,-2.6977,3.6337,-4.4234,-1.0554,4.6829
5.5513,6.0267,5.5838,6.1329,6.43,3.8086,3.5283,-1.2101,-2.4565,2.3099,-1.4761,-0.9997,8.5928,8.2023,6.0819,5.4586,6.2105,6.1422,6.5381,6.97,7.8814,6.6464,5.3013,4.5072,-3.0638,-4.1135,2.9991,-5.0781,-0.9548,4.6959
6.4142,6.863,6.4033,6.8566,6.9882,4.3476,3.4233,-1.4533,-3.1679,1.8151,-1.7909,-1.1618,8.8036,8.4815,6.7701,6.3266,6.8083,6.6901,6.9876,7.6621,8.3561,6.7626,5.4484,4.0099,-4.1383,-5.3185,2.267,-5.6894,-0.8125,4.8806
6.9242,7.4538,7.0005,7.3099,7.2108,4.667,3.0606,-1.7562,-3.8459,1.1852,-2.1262,-1.3454,8.5838,8.3115,7.1962,6.9503,7.1776,6.951,7.1599,8.0244,8.3813,6.5766,5.3575,3.3235,-5.0222,-6.2486,1.4948,-6.2183,-0.6434,5.2094
7.0961,7.794,7.3534,7.4985,7.1193,4.7515,2.4465,-2.1458,-4.5026,0.4209,-2.4975,-1.5521,7.9748,7.7563,7.3921,7.3318,7.3527,6.9648,7.1068,8.0914,8.0236,6.1606,5.0784,2.5153,-5.6637,-6.8737,0.7417,-6.6353,-0.4692,5.6371
6.9773,7.9006,7.466,7.4549,6.7712,4.615,1.6237,-2.6309,-5.1411,-0.454,-2.9083,-1.7835,7.0625,6.9219,7.4047,7.491,7.3758,6.7928,6.8939,7.9226,7.3913,5.6036,4.6708,1.6639,-6.041,-7.1982,0.0606,-6.9236,-0.3144,6.1143
6.6379,7.8079,7.3662,7.2304,6.2479,4.2969,0.6663,-3.1993,-5.7521,-1.3919,-3.3465,-2.0374,5.9649,5.9385,7.2861,7.4622,7.2887,6.5059,6.5871,7.5929,6.6142,4.9953,4.1945,0.8488,-6.1614,-7.2545,-0.506,-7.0794,-0.2008,6.5962
6.1594,7.5628,7.1015,6.8867,5.6399,3.8555,-0.3312,-3.8184,-6.3135,-2.3249,-3.7843,-2.305,4.8166,4.9409,7.0863,7.2909,7.1284,6.172,6.2452,7.1817,5.823,4.4152,3.7044,0.142,-6.0545,-7.0907,-0.9278,-7.1104,-0.1432,7.0461
5.6236,7.2196,6.7316,6.4869,5.0323,3.3575,-1.2676,-4.4404,-6.7943,-3.1735,-4.1822,-2.5698,3.7502,4.0496,6.8486,7.0294,6.9265,5.8459,5.9151,6.7641,5.1301,3.9268,3.2481,-0.3985,-5.7622,-6.7592,-1.1861,-7.0324,-0.1449,7.434
5.1021,6.8321,6.3182,6.0868,4.4928,2.8663,-2.0506,-5.0093,-7.1591,-3.8583,-4.4966,-2.8094,2.8784,3.3559,6.6073,6.7308,6.7087,5.5627,5.6306,6.4013,4.6143,3.5744,2.8657,-0.7334,-5.3295,-6.3063,-1.2733,-6.8662,-0.1959,7.7339
4.6485,6.4462,5.915,5.727,4.063,2.432,-2.6099,-5.4702,-7.3742,-4.3116,-4.6876,-2.999,2.2793,2.9105,6.3853,6.4399,6.4953,5.3358,5.4127,6.1319,4.3119,3.3825,2.5894,-0.8448,-4.797,-5.7668,-1.1911,-6.6323,-0.2748,7.9233
4.2922,6.0913,5.5588,5.427,3.7552,2.0836,-2.9065,-5.7767,-7.4128,-4.4873,-4.7269,-3.1152,1.9888,2.7214,6.1922,6.1847,6.2994,5.1602,5.2697,5.9664,4.2154,3.3567,2.4414,-0.7354,-4.1962,-5.1623,-0.9493,-6.3465,-0.3551,7.9857
4.0377,5.7765,5.2639,5.1835,3.556,1.8269,-2.9348,-5.8985,-7.259,-4.3667,-4.6014,-3.1386,2.0007,2.7589,6.023,5.9708,6.1246,5.0172,5.1979,5.8868,4.2812,3.4839,2.4308,-0.4259,-3.548,-4.5019,-0.5625,-6.0147,-0.412,7.9154
3.8661,5.4895,5.0219,4.9736,3.4345,1.647,-2.7203,-5.8256,-6.9109,-3.9598,-4.3151,-3.0556,2.2739,2.967,5.8596,5.7811,5.9633,4.8823,5.1822,5.8529,4.4446,3.7354,2.5515,0.0515,-2.8638,-3.785,-0.0473,-5.6311,-0.4303,7.7231
3.7418,5.2022,4.806,4.7623,3.3526,1.5148,-2.3114,-5.5704,-6.3829,-3.3033,-3.8869,-2.8591,2.7442,3.2789,5.6736,5.5815,5.7969,4.7301,5.1974,5.8132,4.6375,4.07,2.7813,0.6589,-2.1478,-3.0041,0.5805,-5.1794,-0.408,7.4381
3.6195,4.8791,4.5786,4.5126,3.2748,1.3959,-1.7697,-5.166,-5.7061,-2.4541,-3.3474,-2.5488,3.3373,3.6307,5.4328,5.3313,5.5982,4.5384,5.2118,5.718,4.8041,4.4383,3.0837,1.3581,-1.4003,-2.1494,1.3065,-4.6386,-0.3561,7.1069
3.4525,4.4874,4.3008,4.1942,3.1747,1.2574,-1.1586,-4.6606,-4.9254,-1.482,-2.7329,-2.1314,3.9803,3.9709,5.1073,4.9946,5.3371,4.2902,5.1911,5.5315,4.91,4.7882,3.4115,2.113,-0.6212,-1.2141,2.1172,-3.9905,-0.2951,6.7869
3.2002,4.0054,3.94,3.7906,3.037,1.0741,-0.5346,-4.1096,-4.0942,-0.4596,-2.0799,-1.6197,4.6096,4.264,4.677,4.5499,4.9865,3.9735,5.1036,5.2385,4.9431,5.0704,3.7129,2.8901,0.1868,-0.1989,2.9969,-3.228,-0.2494,6.5378
2.8336,3.427,3.4745,3.3007,2.8558,0.8297,0.0597,-3.5669,-3.266,0.546,-1.4198,-1.032,5.1747,4.489,4.136,3.9959,4.5302,3.5825,4.9253,4.8461,4.9078,5.2427,3.9385,3.6558,1.0143,0.8821,3.9233,-2.3617,-0.2423,6.4115
2.3396,2.7624,2.8963,2.7373,2.6315,0.518,0.5974,-3.0775,-2.4866,1.4805,-0.7763,-0.3915,5.6383,4.6348,3.4952,3.35,3.9672,3.1173,4.6434,4.3786,4.8163,5.2749,4.0476,4.375,1.8428,1.9987,4.8641,-1.4225,-0.2911,6.4428
1.7231,2.0354,2.2107,2.1228,2.3678,0.142,1.0657,-2.673,-1.7885,2.3062,-0.1653,0.2729,5.9742,4.6957,2.7808,2.6439,3.3142,2.5844,4.259,3.8707,4.6798,5.1519,4.0145,5.01,2.6443,3.105,5.7766,-0.4595,-0.4036,6.642
1.0064,1.2775,1.4355,1.4849,2.07,-0.2864,1.4619,-2.3709,-1.1893,3.0026,0.4033,0.9264,6.1668,4.6691,2.031,1.9156,2.6039,1.9971,3.7878,3.3581,4.5053,4.8765,3.8332,5.5241,3.3843,4.1446,6.6114,0.4664,-0.5754,6.9912
0.2273,0.5229,0.5989,0.8515,1.7454,-0.7471,1.789,-2.1756,-0.6928,3.5644,0.9227,1.5292,6.2105,4.5566,1.2901,1.2016,1.8804,1.3739,3.2584,2.8715,4.2962,4.4711,3.5189,5.8882,4.0289,5.0605,7.3207,1.2923,-0.79,7.4449
-0.5663,-0.1967,-0.2626,0.2485,1.4038,-1.2144,2.0514,-2.0816,-0.2943,3.9977,1.3865,2.0406,6.1119,4.3665,0.6028,0.5321,1.1924,0.7382,2.7097,2.4335,4.0571,3.9769,3.1077,6.0889,4.5516,5.8059,7.8688,1.9639,-1.0216,7.9363
-1.3213,-0.8548,-1.1084,-0.3015,1.0588,-1.66,2.2532,-2.0765,0.0148,4.3158,1.7882,2.4252,5.8915,4.1174,0.0083,-0.072,0.5866,0.1169,2.1862,2.0579,3.7992,3.4506,2.6519,6.1343,4.9412,6.3545,8.2406,2.4461,-1.2412,8.3893
-1.9861,-1.4304,-1.8957,-0.7798,0.7277,-2.0577,2.3972,-2.1443,0.2423,4.5344,2.121,2.6604,5.5834,3.8381,-0.464,-0.5981,0.1018,-0.4594,1.7329,1.7521,3.5424,2.9575,2.2131,6.0566,5.204,6.7056,8.4464,2.7303,-1.4254,8.7333
-2.5165,-1.9072,-2.584,-1.17,0.4307,-2.3869,2.4856,-2.2668,0.3929,4.6693,2.3792,2.7418,5.2336,3.5663,-0.7969,-1.0394,-0.2352,-0.9569,1.3889,1.5194,3.3144,2.5624,1.8526,5.908,5.3641,6.884,8.5208,2.8369,-1.5641,8.9203
-2.8808,-2.2713,-3.1368,-1.4574,0.1904,-2.6331,2.5227,-2.4253,0.4688,4.7352,2.5603,2.6863,4.8956,3.3437,-0.9853,-1.3912,-0.411,-1.3396,1.1836,1.3614,3.1465,2.3199,1.622,5.752,5.4585,6.9343,8.5152,2.8126,-1.6652,8.9364
-3.0627,-2.5098,-3.5247,-1.6274,0.0308,-2.7875,2.5182,-2.6002,0.473,4.7463,2.6672,2.5305,4.6252,3.2114,-1.0351,-1.6478,-0.4246,-1.5729,1.1337,1.2799,3.0691,2.2667,1.5564,5.653,5.5295,6.9115,8.489,2.722,-1.7522,8.8046
-3.0625,-2.6113,-3.7282,-1.6664,-0.024,-2.8444,2.4894,-2.7717,0.4131,4.7183,2.7094,2.3256,4.4743,3.2051,-0.9593,-1.8008,-0.2851,-1.6286,1.2418,1.2778,3.1067,2.417,1.6701,5.6643,5.617,6.8695,8.4974,2.6355,-1.8563,8.5756
-2.8949,-2.5684,-3.7411,-1.5642,0.0472,-2.7995,2.4622,-2.9205,0.3039,4.6692,2.7022,2.1287,4.4851,3.3504,-0.7752,-1.8407,-0.0097,-1.492,1.4979,1.3582,3.2751,2.7612,1.9562,5.8195,5.7505,6.8522,8.5821,2.6151,-2.0038,8.3098
-2.5877,-2.3824,-3.5738,-1.3187,0.2581,-2.6504,2.4681,-3.0296,0.1678,4.6189,2.6647,1.9918,4.6848,3.6593,-0.5023,-1.761,0.3781,-1.1668,1.8798,1.5221,3.5781,3.2685,2.3888,6.1272,5.9445,6.8862,8.7648,2.7009,-2.2046,8.0569
-2.178,-2.0679,-3.2552,-0.9408,0.6104,-2.3993,2.5379,-3.0868,0.0321,4.5869,2.6155,1.9499,5.0814,4.1281,-0.1617,-1.5636,0.849,-0.6782,2.356,1.765,4.0068,3.8929,2.9277,6.5711,6.1965,6.9789,9.045,2.9027,-2.4467,7.8397
-1.7087,-1.6548,-2.831,-0.4573,1.0896,-2.0565,2.6949,-3.087,-0.0762,4.5882,2.5687,2.0128,5.663,4.7367,0.2247,-1.2634,1.369,-0.0712,2.8885,2.0748,4.5394,4.58,3.5243,7.1152,6.4901,7.1199,9.4031,3.1966,-2.698,7.6467
-1.2242,-1.1872,-2.3588,0.09,1.665,-1.6424,2.9477,-3.0342,-0.1362,4.6304,2.5302,2.1614,6.399,5.4514,0.6336,-0.8898,1.9007,0.5943,3.4371,2.4303,5.1443,5.2768,4.1298,7.7117,6.8007,7.2869,9.8065,3.5303,-2.9167,7.4352
-0.766,-0.718,-1.8999,0.6483,2.2923,-1.1886,3.2877,-2.9401,-0.138,4.7111,2.4968,2.3518,7.2443,6.2284,1.0408,-0.485,2.4057,1.2518,3.963,2.8032,5.7827,5.9382,4.7016,8.311,7.1026,7.4523,10.2177,3.8342,-3.0643,7.1425
-0.3694,-0.3026,-1.5116,1.1612,2.9197,-0.7353,3.6892,-2.8208,-0.0855,4.8189,2.4569,2.5263,8.1453,7.0197,1.4215,-0.0995,2.8455,1.8359,4.4317,3.1604,6.413,6.5317,5.2073,8.8699,7.3738,7.5899,10.6017,4.0367,-3.1172,6.7039
-0.0621,0.0093,-1.239,1.5756,3.4951,-0.3257,4.115,-2.693,0.0061,4.9366,2.3942,2.6268,9.0452,7.7769,1.749,0.2142,3.1827,2.2883,4.8132,3.4662,6.9943,7.0367,5.6265,9.3562,7.5988,7.6795,10.9307,4.0797,-3.0729,6.0707
0.1364,0.1798,-1.1096,1.8497,3.9736,0,4.5243,-2.5686,0.1155,5.0459,2.2937,2.6095,9.8888,8.4554,1.9963,0.4079,3.3817,2.5626,5.0818,3.6866,7.4889,7.4416,5.9479,9.7495,7.7678,7.7093,11.1859,3.931,-2.948,5.2263
0.2156,0.1893,-1.1297,1.9589,4.3243,0.2124,4.8807,-2.4524,0.2223,5.1324,2.1464,2.4544,10.6254,9.0171,2.1373,0.4463,3.4127,2.6286,5.2172,3.7935,7.8658,7.7397,6.167,10.0405,7.8751,7.6772,11.3576,3.5909,-2.7711,4.1926
0.1767,0.0407,-1.2833,1.9016,4.5347,0.2983,5.1597,-2.3408,0.3144,5.1893,1.9543,2.1687,11.2119,9.4342,2.1538,0.3144,3.2589,2.4783,5.2088,3.7721,8.1057,7.9285,6.2852,10.2287,7.9173,7.5901,11.4441,3.0928,-2.5739,3.0269
0.0367,-0.2388,-1.5347,1.7008,4.6135,0.2644,5.3526,-2.2229,0.3907,5.219,1.731,1.7836,11.617,9.6931,2.0425,0.0259,2.9266,2.1325,5.0616,3.6279,8.2054,8.012,6.3113,10.3216,7.8936,7.4625,11.4506,2.4959,-2.3848,1.8081
-0.1676,-0.5988,-1.8333,1.4037,4.5892,0.1365,5.467,-2.0833,0.461,5.232,1.4999,1.3455,11.8256,9.7985,1.8224,-0.3741,2.4532,1.6432,4.8033,3.3915,8.1821,8.0051,6.2646,10.3344,7.8071,7.3139,11.3886,1.8722,-2.225,0.6163
-0.3802,-0.9728,-2.1224,1.0748,4.5053,-0.045,5.5242,-1.9055,0.5419,5.2443,1.2891,0.9046,11.8432,9.7749,1.5373,-0.8122,1.9083,1.0893,4.4853,3.1181,8.0745,7.9377,6.1764,10.2903,7.6668,7.1651,11.2753,1.2906,-2.1068,-0.4893
-0.5313,-1.2884,-2.3492,0.7855,4.4122,-0.2336,5.5539,-1.6767,0.6509,5.2733,1.1253,0.5056,11.6989,9.6656,1.2518,-1.1968,1.3862,0.5657,4.1795,2.8813,7.9385,7.8549,6.0892,10.2192,7.4875,7.0335,11.1321,0.8023,-2.0345,-1.4875
-0.5482,-1.4803,-2.4745,0.6015,4.3577,-0.3854,5.5877,-1.3917,0.8011,5.3334,1.0282,0.1797,11.4436,9.5269,1.0415,-1.4346,0.9898,0.1657,3.9665,2.76,7.8387,7.8122,6.051,10.1552,7.2883,6.9297,10.9821,0.4317,-2.0036,-2.4026
-0.3674,-1.502,-2.479,0.571,4.3787,-0.4668,5.6525,-1.054,0.998,5.4325,1.0063,-0.0586,11.1432,9.4185,0.9787,-1.4483,0.8104,-0.036,3.9212,2.8236,7.8364,7.8668,6.1071,10.1307,7.0898,6.8549,10.847,0.1759,-2.0031,-3.3
0.0523,-1.3336,-2.366,0.7171,4.4942,-0.4598,5.7648,-0.6757,1.2378,5.5698,1.0564,-0.2117,10.8665,9.3919,1.1172,-1.1928,0.9078,0.0038,4.0967,3.1168,7.9762,8.0651,6.2903,10.1698,6.9098,6.8023,10.7423,0.0124,-2.0177,-4.2677
0.7199,-0.9844,-2.1575,1.0345,4.7028,-0.3639,5.9273,-0.2746,1.5079,5.7341,1.1641,-0.2963,10.6703,9.4782,1.481,-0.6652,1.2985,0.2897,4.5119,3.6494,8.2752,8.4312,6.6132,10.2827,6.7611,6.7604,10.6749,-0.0885,-2.0328,-5.3909
1.6092,-0.4892,-1.8874,1.4932,4.9841,-0.1939,6.1282,0.1294,1.7896,5.9051,1.3071,-0.3387,10.5862,9.6809,2.0577,0.0947,1.952,0.7889,5.1464,4.3929,8.7176,8.959,7.063,10.4617,6.6491,6.7166,10.64,-0.152,-2.0378,-6.7268
2.6624,0.1018,-1.5907,2.0464,5.3046,0.0247,6.3439,0.5171,2.0601,6.0566,1.4591,-0.3708,10.6132,9.974,2.8013,1.0135,2.7985,1.439,5.9437,5.2873,9.2581,9.6109,7.6017,10.681,6.5709,6.6593,10.6208,-0.1917,-2.0266,-8.2888
3.8019,0.7355,-1.2934,2.6432,5.627,0.2644,6.5448,0.8735,2.2967,6.1608,1.5932,-0.4256,10.7189,10.3091,3.6427,2.0015,3.7456,2.1603,6.8238,6.255,9.8336,10.3235,8.1717,10.9006,6.5153,6.5779,10.5901,-0.209,-1.9953,-10.0458
4.9472,1.3694,-1.0044,3.2414,5.9208,0.5042,6.7027,1.1896,2.48,6.1948,1.6862,-0.5343,10.8494,10.6282,4.5054,2.9744,4.6993,2.8712,7.7004,7.2201,10.3804,11.0204,8.7061,11.0734,6.4638,6.4615,10.5141,-0.1978,-1.9377,-11.9332
6.0316,1.9819,-0.7121,3.8176,6.1715,0.7372,6.798,1.4636,2.5971,6.1455,1.7216,-0.7215,10.9446,10.8797,5.3239,3.8722,5.584,3.504,8.5003,8.1265,10.8512,11.6281,9.1428,11.1549,6.3945,6.2982,10.3584,-0.1516,-1.8429,-13.8715
7.015,2.577,-0.386,4.3725,6.3855,0.9737,6.8248,1.7008,2.6446,6.0132,1.6922,-1.0015,10.9547,11.0325,6.0574,4.672,6.3582,4.0178,9.1781,8.9501,11.2279,12.0915,9.4385,11.1127,6.286,6.0758,10.0957,-0.068,-1.6964,-15.7821
7.8897,3.1826,0.0165,4.9295,6.5892,1.2395,6.7919,1.9117,2.6293,5.8117,1.6016,-1.3746,10.8532,11.0838,6.6981,5.3904,7.0215,4.4064,9.7256,9.7012,11.5247,12.3862,9.5786,10.9347,6.1224,5.7853,9.7123,0.0505,-1.4835,-17.599
8.6776,3.8423,0.5397,5.527,6.8216,1.5682,6.7203,2.1093,2.5673,5.5649,1.4644,-1.8245,10.6433,11.0592,7.2693,6.0758,7.6104,4.6995,10.1701,10.418,11.781,12.5226,9.5815,10.6324,5.8978,5.4255,9.2139,0.199,-1.1951,-19.2703
9.4192,4.6019,1.2179,6.2056,7.123,1.9911,6.6369,2.3052,2.4806,5.3019,1.3033,-2.3203,10.356,11.0038,7.815,6.7915,8.1856,4.9546,10.564,11.1504,12.0479,12.5415,9.4932,10.2405,5.6189,5.0072,8.627,0.3745,-0.8319,-20.755
10.158,5.4934,2.0631,6.9933,7.5218,2.5252,6.5671,2.5051,2.3923,5.05,1.145,-2.8219,10.0404,10.9679,8.3836,7.5945,8.8114,5.2415,10.9677,11.9413,12.3695,12.5028,9.375,9.8105,5.3045,4.5543,7.9958,0.5783,-0.4064,-22.0165
10.9241,6.5205,3.0578,7.893,8.0233,3.1645,6.5272,2.7059,2.3211,4.8296,1.0147,-3.2879,9.7512,10.9918,9.0098,8.5153,9.5337,5.6226,11.4297,12.8088,12.7678,12.4682,9.2872,9.4003,4.9827,4.1011,7.3746,0.8155,0.0592,-23.0202
11.7218,7.6504,4.1521,8.8746,8.6053,3.8769,6.5202,2.8945,2.2765,4.6514,0.9302,-3.6849,9.5346,11.095,9.7015,9.5442,10.3633,6.1352,11.9709,13.7361,13.2346,12.4856,9.2735,9.0628,4.6842,3.685,6.8178,1.0906,0.5373,-23.7355
12.5257,8.8144,5.2689,9.8771,9.2202,4.6083,6.5364,3.0513,2.2566,4.516,0.899,-3.9923,9.4187,11.2722,10.4347,10.6299,11.269,6.7781,12.5772,14.6717,13.7326,12.5784,9.3515,8.8351,4.4358,3.3387,6.3693,1.4024,1.001,-24.1447
13.2844,9.9181,6.315,10.8176,9.805,5.2929,6.5572,3.1554,2.2499,4.4176,0.918,-4.2044,9.4097,11.4965,11.1574,11.687,12.1811,7.51,13.2023,15.5396,14.2057,12.7418,9.5113,8.7329,4.2552,3.0822,6.0552,1.7409,1.4279,-24.2526
13.9321,10.8581,7.1957,11.6067,10.2943,5.8661,6.5613,3.1909,2.2393,4.3469,0.9751,-4.3268,9.4924,11.7285,11.8009,12.6144,13.007,8.2563,13.7781,16.2553,14.593,12.9472,9.7198,8.7481,4.1475,2.919,5.8799,2.0858,1.8004,-24.0919
14.4019,11.5416,7.8309,12.165,10.6323,6.2756,6.5307,3.1511,2.2075,4.2937,1.0525,-4.3726,9.6356,11.9248,12.2953,13.315,13.6503,8.9251,14.2306,16.743,14.8424,13.1508,9.9317,8.8517,4.1053,2.8356,5.8266,2.4096,2.104,-23.7223
14.6411,11.9035,8.1679,12.4373,10.7824,6.4887,6.4543,3.0399,2.1421,4.2471,1.1296,-4.3587,9.7987,12.0471,12.5836,13.7154,14.0326,9.4272,14.4954,16.9503,14.9194,13.3052,10.1007,9.0003,4.1108,2.8053,5.8614,2.6829,2.3273,-23.2214
14.6234,11.9184,8.191,12.402,10.7314,6.4956,6.3287,2.8706,2.038,4.1954,1.1861,-4.3041,9.9388,12.0671,12.6335,13.7793,14.1092,9.6955,14.5314,16.8571,14.8117,13.37,10.1903,9.1447,4.14,2.7943,5.9409,2.8806,2.4643,-22.6724
14.3571,11.6061,7.9251,12.0747,10.4902,6.3088,6.1575,2.6626,1.8982,4.1252,1.2037,-4.2299,10.018,11.9707,12.4442,13.5132,13.8799,9.6997,14.3297,16.478,14.5284,13.3214,10.1827,9.24,4.1687,2.7695,6.0204,2.9884,2.5192,-22.1526
13.8859,11.0279,7.4319,11.5052,10.0903,5.9606,5.9497,2.4386,1.733,4.0237,1.1692,-4.159,10.0096,11.7596,12.0462,12.9641,13.3882,9.4528,13.916,15.8598,14.0979,13.1577,10.0825,9.2545,4.1769,2.7051,6.0629,3.0049,2.5099,-21.7228
13.2836,10.2765,6.7995,10.7697,9.5787,5.4997,5.7187,2.2212,1.5573,3.8822,1.0759,-4.114,9.902,11.4515,11.4968,12.21,12.7141,9.0081,13.3469,15.0733,13.5635,12.9,9.9163,9.1747,4.1521,2.5868,6.0451,2.9415,2.4676,-21.4216
12.6407,9.4601,6.1286,9.9593,9.0118,4.9866,5.4813,2.0312,1.388,3.7002,0.9258,-4.1141,9.7003,11.0782,10.8696,11.3456,11.9578,8.4474,12.6987,14.2031,12.9785,12.5866,9.7259,9.0066,4.0909,2.4125,5.9604,2.8176,2.4317,-21.2622
12.0483,8.6842,5.5157,9.1664,8.4484,4.4885,5.2573,1.8865,1.2414,3.4884,0.7302,-4.1699,9.4247,10.6808,10.2416,10.4658,11.2199,7.8624,12.0528,13.3346,12.401,12.2638,9.5572,8.771,3.9978,2.191,5.8173,2.6546,2.442,-21.2323
11.5791,8.0331,5.0387,8.4709,7.9419,4.0718,5.0674,1.8006,1.1307,3.2678,0.5088,-4.28,9.1051,10.3022,9.6781,9.6492,10.5814,7.3342,11.4774,12.5406,11.8848,11.972,9.4465,8.4954,3.8821,1.9371,5.6339,2.4704,2.5312,-21.2957
11.2721,7.5554,4.7454,7.9274,7.5327,3.7921,4.9296,1.7805,1.0641,3.0645,0.2866,-4.4289,8.7732,9.9774,9.2203,8.944,10.0861,6.916,11.0128,11.8683,11.4703,11.734,9.4083,8.2044,3.7542,1.6679,5.4304,2.2755,2.7186,-21.3958
11.1245,7.2561,4.6471,7.5562,7.2405,3.6837,4.8536,1.8243,1.0439,2.902,0.0895,-4.5887,8.4535,9.7238,8.8771,8.3613,9.7333,6.6226,10.6621,11.3313,11.1745,11.546,9.4284,7.9114,3.621,1.3986,5.2215,2.0726,3.0083,-21.462
11.0928,7.0981,4.7198,7.3402,7.0615,3.7515,4.8365,1.9184,1.0657,2.7929,-0.0613,-4.7246,8.1569,9.5359,8.6253,7.8758,9.4794,6.4305,10.3922,10.9083,10.9857,11.3776,9.4646,7.6149,3.4843,1.1405,5.0118,1.8584,3.3896,-21.4204
11.1057,7.0139,4.9125,7.2316,6.9692,3.9693,4.8609,2.0377,1.1183,2.7345,-0.1536,-4.8016,7.8793,9.386,8.4161,7.4364,9.2529,6.2882,10.1449,10.5504,10.8652,11.1799,9.4568,7.3008,3.3399,0.9005,4.7963,1.6275,3.841,-21.2067
11.0828,6.9246,5.1605,7.1641,6.9222,4.2854,4.8983,2.1483,1.1854,2.7087,-0.1861,-4.7927,7.6061,9.2335,8.1904,6.9838,8.9744,6.1331,9.8544,10.1959,10.7572,10.9008,9.3432,6.9505,3.1808,0.6832,4.5656,1.3766,4.3343,-20.7804
10.9557,6.7608,5.4001,7.0707,6.8757,4.6342,4.9167,2.2133,1.2477,2.689,-0.1676,-4.6855,7.3219,9.0381,7.8941,6.4698,8.5805,5.9102,9.4676,9.7887,10.6042,10.5015,9.0776,6.5517,3.0013,0.4925,4.3135,1.1083,4.8397,-20.1329
10.6837,6.4804,5.5813,6.9013,6.793,4.9503,4.89,2.2003,1.2866,2.6493,-0.113,-4.4856,7.0207,8.7742,7.4937,5.8731,8.0401,5.5864,8.9589,9.2942,10.3629,9.971,8.6439,6.107,2.7996,0.3321,4.0436,0.8328,5.3286,-19.2895
10.2623,6.0781,5.676,6.634,6.655,5.181,4.8056,2.0886,1.2865,2.5718,-0.0383,-4.2166,6.7129,8.4402,6.984,5.2072,7.3629,5.1577,8.3371,8.7083,10.0156,9.3316,8.0628,5.639,2.5793,0.2049,3.7725,0.5682,5.7764,-18.304
9.7211,5.5855,5.6798,6.2796,6.4634,5.2955,4.6674,1.8734,1.2366,2.4518,0.0428,-3.9165,6.4267,8.0599,6.39,4.5172,6.5954,4.6484,7.643,8.0576,9.575,8.6354,7.3891,5.1874,2.3481,0.1108,3.5271,0.3374,6.1643,-17.2476
9.1159,5.0618,5.6087,5.877,6.2379,5.2873,4.4939,1.565,1.131,2.2966,0.1209,-3.6297,6.2018,7.6775,5.76,3.8687,5.8093,4.1033,6.939,7.3922,9.0806,7.9536,6.7013,4.8012,2.1154,0.0444,3.3377,0.1638,6.4793,-16.1954
8.5147,4.5781,5.4919,5.4815,6.0097,5.1722,4.3118,1.185,0.9677,2.1214,0.1918,-3.3975,6.0801,7.346,5.1558,3.3314,5.0849,3.5776,6.295,6.7732,8.5894,7.3607,6.0853,4.5273,1.8896,-0.0051,3.2299,0.066,6.7134,-15.2126
7.9843,4.2009,5.3629,5.1509,5.8122,4.9813,4.1485,0.7596,0.7481,1.9435,0.2543,-3.2478,6.0937,7.1149,4.6394,2.9625,4.4953,3.1266,5.7748,6.2604,8.1635,6.9191,5.6177,4.3989,1.6762,-0.0531,3.2174,0.0538,6.8623,-14.3442
7.5779,3.9769,5.2522,4.9314,5.6736,4.7525,4.0251,0.3134,0.4767,1.778,0.3093,-3.1879,6.2559,7.019,4.2625,2.7944,4.0939,2.7965,5.4252,5.9009,7.8572,6.6678,5.3514,4.4276,1.4772,-0.1154,3.2988,0.1264,6.9247,-13.611
7.3264,3.9246,5.181,4.8483,5.6107,4.5227,3.952,-0.1331,0.1619,1.6353,0.3577,-3.2011,6.5572,7.0707,4.0572,2.8287,3.9073,2.6176,5.2697,5.7211,7.7061,6.6167,5.307,4.6006,1.2926,-0.203,3.4584,0.2739,6.9025,-13.0113
7.2353,4.0316,5.1593,4.9013,5.6257,4.3212,3.9276,-0.5638,-0.1834,1.5216,0.4007,-3.2505,6.9659,7.2583,4.0317,3.0373,3.9328,2.6014,5.3069,5.7232,7.7204,6.7472,5.4712,4.8836,1.1235,-0.3165,3.6714,0.4814,6.8018,-12.5277
7.2852,4.2592,5.1847,5.0658,5.7065,4.1651,3.9404,-0.9655,-0.5405,1.4402,0.4396,-3.2882,7.4347,7.5489,4.1688,3.3689,4.1412,2.7392,5.5124,5.8853,7.8837,7.0186,5.8013,5.2289,0.9741,-0.4434,3.9108,0.7333,6.6327,-12.1368
7.4377,4.5502,5.2425,5.2979,5.829,4.0569,3.9734,-1.3249,-0.8849,1.3945,0.4762,-3.2682,7.9104,7.8961,4.4292,3.7591,4.4824,3.0041,5.844,6.1657,8.1584,7.3777,6.2342,5.5853,0.8538,-0.5582,4.154,1.0158,6.4078,-11.8169
7.6417,4.8395,5.3066,5.5427,5.961,3.9839,4.009,-1.6281,-1.1884,1.3899,0.5133,-3.159,8.3439,8.2497,4.7582,4.1413,4.8927,3.3545,6.2478,6.5106,8.4937,7.7685,6.6978,5.9081,0.7752,-0.6287,4.3869,1.3167,6.1387,-11.553
7.8424,5.064,5.3407,5.7434,6.0676,3.9206,4.0345,-1.8608,-1.4221,1.4343,0.5541,-2.9519,8.6984,8.5658,5.0953,4.4564,5.3048,3.7393,6.6666,6.8628,8.8376,8.141,7.1226,6.1659,0.7505,-0.6259,4.6041,1.6237,5.8317,-11.3382
7.9888,5.1722,5.3033,5.8504,6.117,3.8334,4.0432,-2.0104,-1.5621,1.5364,0.6011,-2.6639,8.9539,8.8139,5.385,4.6617,5.6581,4.1047,7.0483,7.1715,9.1463,8.4569,7.452,6.3429,0.7861,-0.5335,4.8055,1.9224,5.4863,-11.1717
8.0419,5.132,5.1552,5.8293,6.0858,3.6888,4.035,-2.0701,-1.5954,1.7014,0.6546,-2.3329,9.1064,8.9804,5.5873,4.7362,5.9085,4.4028,7.354,7.4001,9.3916,8.6927,7.6513,6.4379,0.8781,-0.3564,4.991,2.1954,5.0949,-11.0566
7.98,4.9353,4.8694,5.6667,5.9629,3.4621,4.0126,-2.0421,-1.5249,1.9259,0.7115,-2.0096,9.164,9.0668,5.6849,4.6831,6.0371,4.5998,7.5635,7.5317,9.5627,8.8391,7.7114,6.4591,1.0095,-0.1217,5.155,2.4241,4.6458,-10.9967
7.8015,4.6006,4.4409,5.3734,5.7516,3.1449,3.9774,-1.9416,-1.3718,2.1935,0.7645,-1.7468,9.1406,9.0857,5.6863,4.5288,6.0529,4.6827,7.6783,7.5706,9.6649,8.8989,7.6479,6.4175,1.1507,0.1243,5.2827,2.5909,4.1276,-10.9934
7.5253,4.1711,3.8935,4.9841,5.47,2.749,3.9267,-1.7969,-1.1749,2.4744,0.8021,-1.5889,9.0502,9.054,5.6233,4.3189,5.9915,4.6636,7.7201,7.5407,9.7138,8.883,7.4952,6.3213,1.2633,0.3248,5.3503,2.6817,3.5342,-11.0422
7.19,3.7103,3.2805,4.5549,5.1498,2.3072,3.8522,-1.6477,-0.9847,2.7276,0.8102,-1.5641,8.9033,8.9884,5.5447,4.112,5.9093,4.5782,7.726,7.4814,9.7304,8.8079,7.2978,6.1737,1.3077,0.425,5.3291,2.6884,2.8705,-11.1327
6.8504,3.2955,2.6797,4.1572,4.8337,1.8691,3.7427,-1.5392,-0.8542,2.9092,0.7751,-1.68,8.7074,8.9027,5.5069,3.9738,5.8735,4.4816,7.7424,7.4419,9.7374,8.6942,7.1006,5.9738,1.2519,0.3835,5.1928,2.6108,2.1552,-11.2499
6.5725,3.0087,2.1809,3.87,4.5723,1.4941,3.5896,-1.5127,-0.8275,2.9825,0.6871,-1.9218,8.4703,8.8091,5.5651,3.9698,5.9516,4.4379,7.8189,7.4767,9.7584,8.5678,6.9422,5.7226,1.0794,0.1823,4.9274,2.4586,1.42,-11.3801
6.4256,2.9261,1.8702,3.7698,4.4195,1.2425,3.3941,-1.595,-0.928,2.9285,0.5459,-2.2563,8.2052,8.7226,5.7649,4.1585,6.2009,4.5084,8.0016,7.6395,9.8202,8.4608,6.8515,5.4286,0.7945,-0.1682,4.538,2.2524,0.7037,-11.5177
6.4716,3.1069,1.8121,3.9181,4.4258,1.1643,3.1726,-1.7887,-1.1508,2.7524,0.3621,-2.6379,7.935,8.6648,6.1368,4.5841,6.6592,4.7395,8.3277,7.978,9.9548,8.4118,6.8475,5.1135,0.4213,-0.6305,4.0531,2.0223,0.043,-11.6706
6.753,3.5816,2.0358,4.3501,4.6295,1.2898,2.9571,-2.0676,-1.4617,2.4847,0.1568,-3.0182,7.6932,8.666,6.6916,5.2676,7.3378,5.1521,8.8195,8.5266,10.1979,8.4625,6.9403,4.8115,-0.0013,-1.1481,3.5215,1.8039,-0.5349,-11.8617
7.2817,4.3446,2.5282,5.0647,5.048,1.6229,2.7909,-2.3796,-1.803,2.175,-0.0424,-3.3543,7.5206,8.7609,7.4187,6.1991,8.2173,5.7369,9.479,9.2976,10.5831,8.6494,7.1314,4.5648,-0.4284,-1.6568,3.0043,1.6319,-1.017,-12.1241
8.0328,5.3496,3.235,6.0208,5.6699,2.1394,2.7188,-2.6566,-2.1055,1.8817,-0.2067,-3.6147,7.457,8.9806,8.2844,7.333,9.2476,6.4542,10.2833,10.273,11.1306,8.9943,7.4131,4.4146,-0.8184,-2.0974,2.563,1.5335,-1.4019,-12.4908
8.9442,6.5129,4.0703,7.1395,6.4523,2.7903,2.7753,-2.8294,-2.3024,1.6599,-0.312,-3.7819,7.5322,9.3407,9.2336,8.5885,10.352,7.2401,11.1838,11.3994,11.8358,9.4948,7.7677,4.3909,-1.1404,-2.4261,2.2478,1.5231,-1.6954,-12.9827
9.9241,7.7229,4.9321,8.3134,7.3231,3.5097,2.974,-2.8434,-2.344,1.551,-0.3431,-3.8512,7.7556,9.8318,10.1936,9.8556,11.4367,8.0168,12.1093,12.5895,12.66,10.1179,8.1661,4.5044,-1.3791,-2.6208,2.087,1.5998,-1.9058,-13.5978
10.8643,8.8542,5.7194,9.4227,8.1899,4.2248,3.3013,-2.6721,-2.2077,1.5746,-0.2958,-3.8285,8.11,10.4125,11.0812,11.0091,12.4019,8.7035,12.9735,13.7299,13.5286,10.8006,8.5678,4.7404,-1.537,-2.6841,2.0816,1.7466,-2.0405,-14.3047
11.6581,9.7866,6.3486,10.3523,8.953,4.8654,3.7159,-2.3243,-1.9033,1.7251,-0.1788,-3.7271,8.5489,11.0116,11.8125,11.9262,13.1558,9.2279,13.6865,14.6978,14.3392,11.4566,8.9237,5.0582,-1.6348,-2.6429,2.2034,1.9336,-2.1061,-15.0443
12.2187,10.4235,6.766,11.0105,9.5213,5.3726,4.154,-1.8431,-1.4718,1.9719,-0.0126,-3.5654,9.0026,11.5382,12.3152,12.5064,13.6283,9.5356,14.1678,15.3808,14.9785,11.9898,9.1806,5.3961,-1.7084,-2.5431,2.4,2.1225,-2.1085,-15.7398
12.4947,10.7083,6.9539,11.3434,9.8278,5.7046,4.5411,-1.2968,-0.9778,2.2639,0.1727,-3.3668,9.39,11.899,12.5411,12.6901,13.783,9.598,14.361,15.6993,15.3463,12.3126,9.2904,5.6815,-1.802,-2.4422,2.6043,2.2738,-2.0546,-16.3135
12.4786,10.6346,6.9303,11.3431,9.8411,5.841,4.806,-0.7643,-0.4978,2.5373,0.3413,-3.1583,9.6343,12.0193,12.4767,12.4706,13.625,9.4175,14.2449,15.6236,15.3782,12.3636,9.2198,5.8458,-1.9584,-2.3981,2.7472,2.3552,-1.9541,-16.7035
12.2063,10.2481,6.7429,11.048,9.5711,5.7844,4.8942,-0.3191,-0.1065,2.7261,0.4569,-2.9713,9.6796,11.8611,12.1492,11.8981,13.2028,9.0292,13.8413,15.1821,15.0633,12.1221,8.9598,5.8379,-2.2081,-2.459,2.7708,2.3479,-1.8228,-16.8759
11.7494,9.6386,6.4568,10.535,9.0674,5.5599,4.7782,-0.0158,0.1345,2.7722,0.4874,-2.8383,9.5032,11.4337,11.6246,11.0723,12.6019,8.4993,13.2135,14.458,14.4483,11.6144,8.5313,5.6364,-2.5607,-2.6537,2.6395,2.2507,-1.6845,-16.8297
11.2031,8.9245,6.1423,9.9056,8.4109,5.2119,4.4623,0.1172,0.1858,2.6367,0.4096,-2.789,9.1214,10.7945,10.9992,10.1266,11.9323,7.9168,12.4596,13.5753,13.631,10.9112,7.9853,5.255,-3.0004,-2.9866,2.3462,2.0806,-1.57,-16.5932
10.6716,8.2328,5.8634,9.2703,7.702,4.7998,3.9815,0.08,0.0359,2.3079,0.2132,-2.8427,8.5873,10.0398,10.3846,9.2068,11.3101,7.3818,11.6972,12.6779,12.7416,10.1168,7.3975,4.7411,-3.4873,-3.4358,1.9138,1.8686,-1.5127,-16.2171
10.2547,7.6789,5.671,8.7325,7.0465,4.3919,3.3956,-0.1021,-0.2975,1.8054,-0.0966,-3.0024,7.9808,9.2883,9.8904,8.4486,10.8394,6.9901,11.0462,11.9059,11.9205,9.3524,6.8577,4.1677,-3.9647,-3.957,1.3904,1.6532,-1.541,-15.7654
10.0343,7.3507,5.5998,8.3763,6.5419,4.0576,2.7786,-0.3857,-0.7696,1.1783,-0.4982,-3.2513,7.3932,8.6591,9.6061,7.958,10.5954,6.817,10.6094,11.3741,11.2936,8.7357,6.4553,3.6187,-4.3696,-4.4908,0.8396,1.4716,-1.6712,-15.3065
10.062,7.2967,5.6683,8.2566,6.2644,3.8579,2.2066,-0.7176,-1.3154,0.4974,-0.9555,-3.5546,6.9081,8.2501,9.587,7.7971,10.6133,6.9037,10.4554,11.1554,10.9519,8.361,6.2631,3.1722,-4.6469,-4.9738,0.327,1.3523,-1.9044,-14.9039
10.3498,7.5221,5.8789,8.3926,6.257,3.8353,1.7441,-1.0435,-1.8598,-0.1586,-1.4217,-3.8657,6.5837,8.1185,9.845,7.9762,10.8846,7.2482,10.6071,11.2706,10.9373,8.282,6.323,2.8838,-4.7618,-5.3512,-0.0932,1.3085,-2.2269,-14.6069
10.865,7.9894,6.2186,8.7657,6.5216,4.0055,1.4334,-1.316,-2.3302,-0.7176,-1.8468,-4.1355,6.4399,8.2696,10.3459,8.4542,11.3598,7.8051,11.0366,11.6867,11.2357,8.5018,6.6354,2.7737,-4.7097,-5.5883,-0.3902,1.3357,-2.6156,-14.4432
11.5339,8.6268,6.6596,9.3218,7.0164,4.3522,1.2878,-1.4996,-2.6685,-1.1272,-2.185,-4.3223,6.4541,8.6542,11.0157,9.1459,11.9595,8.4921,11.6696,12.3231,11.7796,8.9704,7.1558,2.8216,-4.5189,-5.6789,-0.5624,1.412,-3.0422,-14.4137
12.2529,9.3408,7.1614,9.9797,7.6608,4.8292,1.2916,-1.5735,-2.8402,-1.3625,-2.4028,-4.3996,6.567,9.1779,11.753,9.9367,12.5884,9.2054,12.3979,13.066,12.4601,9.5927,7.8006,2.9708,-4.2476,-5.6469,-0.6366,1.5028,-3.4752,-14.4932
12.9076,10.0325,7.6755,10.6437,8.3477,5.3679,1.405,-1.5327,-2.8397,-1.4281,-2.4843,-4.3607,6.6976,9.7189,12.4467,10.701,13.1524,9.8397,13.0987,13.7875,13.1454,10.2459,8.4614,3.14,-3.972,-5.542,-0.6614,1.5679,-3.8805,-14.6367
13.3949,10.6142,8.1504,11.2194,8.962,5.8901,1.5749,-1.3869,-2.6887,-1.3535,-2.4341,-4.2194,6.7636,10.1532,12.9959,11.3229,13.5734,10.3087,13.6571,14.3677,13.7047,10.8033,9.0251,3.2427,-3.7706,-5.4285,-0.6936,1.5713,-4.2225,-14.7908
13.6441,11.023,8.5388,11.63,9.4023,6.324,1.7464,-1.159,-2.432,-1.185,-2.2756,-4.0065,6.7023,10.379,13.3273,11.7142,13.8022,10.561,13.987,14.7153,14.0319,11.1598,9.3976,3.208,-3.7073,-5.3697,-0.7841,1.4895,-4.4673,-14.908
13.6318,11.229,8.8052,11.8292,9.6,6.6182,1.8745,-0.8823,-2.1287,-0.9757,-2.0464,-3.7629,6.4858,10.3381,13.4069,11.8281,13.8243,10.5881,14.0474,14.782,14.0651,11.2534,9.5231,2.9989,-3.8164,-5.4122,-0.9642,1.3194,-4.5896,-14.9584
13.3866,11.2379,8.9314,11.8084,9.5329,6.7514,1.9316,-0.5979,-1.8435,-0.7765,-1.792,-3.5313,6.1278,10.0264,13.2441,11.6657,13.6604,10.4233,13.848,14.5699,13.7976,11.0773,9.3957,2.6228,-4.0942,-5.5741,-1.2364,1.0808,-4.579,-14.9359
12.9802,11.0857,8.9199,11.5963,9.2281,6.7341,1.9099,-0.3499,-1.6369,-0.6298,-1.5577,-3.3484,5.6786,9.4932,12.8861,11.2733,13.3594,10.1304,13.4443,14.1277,13.2765,10.6784,9.0585,2.1308,-4.4997,-5.839,-1.5728,0.8138,-4.4468,-14.8541
12.5081,10.828,8.7922,11.2504,8.7532,6.6027,1.8191,-0.1808,-1.5572,-0.5657,-1.3824,-3.238,5.2116,8.8274,12.4049,10.7308,12.9854,9.7872,12.9221,13.5375,12.5899,10.1435,8.5916,1.6063,-4.9631,-6.1598,-1.9209,0.5701,-4.2266,-14.7331
12.0629,10.5255,8.583,10.8416,8.1983,6.4066,1.6799,-0.1266,-1.6338,-0.6006,-1.2928,-3.2081,4.8049,8.136,11.8792,10.1341,12.6026,9.466,12.3754,12.8947,11.8455,9.5756,8.0901,1.1455,-5.4014,-6.4697,-2.2155,0.4,-3.97,-14.5833
11.71,10.2295,8.3308,10.4367,7.6536,6.1932,1.5173,-0.2123,-1.872,-0.7362,-1.2997,-3.25,4.5228,7.5198,11.3775,9.5744,12.2608,9.2173,11.8841,12.2868,11.1453,9.0684,7.6413,0.8351,-5.7367,-6.698,-2.394,0.3402,-3.7349,-14.3927
11.4705,9.9704,8.0683,10.0822,7.189,5.9956,1.3539,-0.4481,-2.2515,-0.9594,-1.3965,-3.3409,4.4026,7.0527,10.9445,9.1208,11.9859,9.0599,11.4974,11.7759,10.5659,8.6855,7.3051,0.733,-5.913,-6.7877,-2.4102,0.4056,-3.5729,-14.1249
11.3186,9.752,7.8143,9.7946,6.8407,5.8246,1.2065,-0.826,-2.7277,-1.2434,-1.5597,-3.4474,4.4493,6.7696,10.596,8.8086,11.7769,8.9805,11.2267,11.3898,10.1457,8.4492,7.1037,0.8574,-5.9074,-6.7089,-2.2445,0.5865,-3.5167,-13.7282
11.1924,9.5534,7.5713,9.5591,6.6075,5.6687,1.0844,-1.318,-3.2381,-1.5492,-1.7526,-3.5299,4.6378,6.6654,10.3206,8.6362,11.6107,8.942,11.0496,11.1222,9.8843,8.3415,7.0223,1.1849,-5.7329,-6.4652,-1.9071,0.8536,-3.5734,-13.1547
11.0164,9.3375,7.3284,9.3376,6.4569,5.5009,0.9902,-1.8769,-3.7117,-1.8312,-1.9305,-3.5484,4.9208,6.7016,10.0892,8.5707,11.4517,8.8975,10.9221,10.9409,9.7506,8.316,7.0198,1.6587,-5.4325,-6.0919,-1.4341,1.1655,-3.7238,-12.3801
10.7274,9.0642,7.0704,9.0826,6.3384,5.2903,0.9205,-2.4416,-4.0814,-2.0448,-2.0487,-3.4686,5.2395,6.8197,9.867,8.5603,11.2649,8.8056,10.7956,10.8002,9.6957,8.3149,7.045,2.2028,-5.0673,-5.6467,-0.8801,1.4785,-3.9263,-11.42
10.296,8.704,6.7869,8.7538,6.1982,5.0143,0.8661,-2.9465,-4.2962,-2.1553,-2.0707,-3.2685,5.5343,6.9553,9.6251,8.5487,11.0269,8.6425,10.6315,10.6545,9.6666,8.2869,7.0537,2.7381,-4.7019,-5.1957,-0.3068,1.755,-4.1261,-10.3349
9.7367,8.2487,6.4793,8.3318,5.9936,4.6677,0.8126,-3.3339,-4.3299,-2.1467,-1.9761,-2.9441,5.7533,7.0499,9.3492,8.4903,10.7329,8.4072,10.412,10.4688,9.6176,8.1995,7.02,3.1957,-4.3915,-4.7985,0.2269,1.9686,-4.2656,-9.2225
9.104,7.7163,6.1628,7.8251,5.703,4.2657,0.7417,-3.565,-4.1861,-2.0258,-1.765,-2.5111,5.8592,7.0602,9.0432,8.36,10.3981,8.1193,10.1423,10.2251,9.517,8.0446,6.9409,3.527,-4.1732,-4.4966,0.6739,2.1064,-4.2979,-8.1983
8.478,7.149,5.8623,7.2702,5.3295,3.8408,0.635,-3.6273,-3.8966,-1.8206,-1.4582,-2.0045,5.835,6.9645,8.7279,8.1601,10.0538,7.8127,9.8483,9.926,9.3513,7.8368,6.8337,3.7084,-4.0636,-4.3075,1.004,2.1678,-4.1971,-7.3699
7.9443,6.6066,5.6062,6.7249,4.9013,3.4364,0.479,-3.5348,-3.5141,-1.5726,-1.0934,-1.473,5.6873,6.7653,8.4374,7.9194,9.7416,7.5275,9.5687,9.5943,9.1267,7.6079,6.7288,3.7419,-4.0603,-4.2248,1.2063,2.1618,-3.9661,-6.8135
7.575,6.1548,5.4203,6.2563,4.4654,3.0979,0.2711,-3.323,-3.1005,-1.3256,-0.7163,-0.9696,5.4468,6.4895,8.2118,7.688,9.5057,7.303,9.3469,9.2697,8.8672,7.3979,6.6594,3.6516,-4.147,-4.2237,1.2878,2.1038,-3.6349,-6.5599
7.4152,5.8532,5.323,5.9275,4.0802,2.8663,0.0236,-3.0395,-2.7148,-1.1136,-0.3709,-0.5413,5.1644,6.1838,8.0895,7.5258,9.3846,7.1718,9.2219,9.0018,8.6111,7.2456,6.6516,3.4768,-4.3006,-4.2705,1.2687,2.0131,-3.2533,-6.5927
7.4769,5.7441,5.3244,5.7862,3.8052,2.772,-0.2363,-2.7325,-2.4013,-0.9535,-0.0895,-0.2195,4.9025,5.9063,8.0996,7.4892,9.4049,7.1541,9.2206,8.842,8.4044,7.1799,6.7159,3.2632,-4.4982,-4.3329,1.1756,1.9099,-2.8766,-6.8576
7.7419,5.8451,5.4266,5.8561,3.6906,2.832,-0.4705,-2.442,-2.1833,-0.8424,0.1133,-0.0141,4.7228,5.7161,8.2553,7.6182,9.5756,7.2548,9.3526,8.8338,8.2925,7.2138,6.8428,3.0528,-4.722,-4.3889,1.0348,1.8127,-2.5521,-7.2795
8.1692,6.1469,5.6248,6.1339,3.7688,3.0469,-0.6386,-2.1932,-2.0626,-0.7624,0.241,0.0865,4.6724,5.6605,8.5502,7.926,9.8863,7.4614,9.6093,9.0038,8.3113,7.3419,7.0038,2.8763,-4.9619,-4.4313,0.8667,1.7357,-2.3093,-7.7812
8.7051,6.6145,5.9069,6.5902,4.0462,3.4005,-0.7077,-1.9952,-2.0237,-0.6891,0.3118,0.1102,4.7718,5.7641,8.9575,8.3942,10.3072,7.7467,9.964,9.3543,8.4782,7.5405,7.1567,2.7488,-5.2147,-4.4673,0.6834,1.6863,-2.1569,-8.2979
9.2907,7.1926,6.2517,7.1735,4.4998,3.8586,-0.663,-1.8447,-2.0427,-0.6021,0.3503,0.0922,5.0086,6.0217,9.4319,8.9726,10.7924,8.0726,10.3755,9.8583,8.7854,7.7715,7.2549,2.6691,-5.4803,-4.5129,0.4896,1.663,-2.0873,-8.7845
9.8674,7.8117,6.6271,7.8162,5.0756,4.37,-0.5134,-1.732,-2.096,-0.4932,0.3792,0.0653,5.3391,6.3963,9.9139,9.5853,11.2842,8.3948,10.7916,10.4594,9.1968,7.9886,7.2571,2.624,-5.7563,-4.5843,0.2874,1.6553,-2.0844,-9.2148
10.3798,8.3965,6.9899,8.4418,5.6942,4.8701,-0.2927,-1.6489,-2.1677,-0.3704,0.412,0.0518,5.6968,6.8239,10.3364,10.1423,11.72,8.6685,11.1554,11.0767,9.6499,8.1439,7.1362,2.5945,-6.0323,-4.6896,0.0812,1.6454,-2.1319,-9.5739
10.7762,8.8748,7.289,8.9733,6.2606,5.2869,-0.0538,-1.5939,-2.251,-0.2553,0.4508,0.0603,6.0078,7.2251,10.634,10.5547,12.0401,8.8531,11.4111,11.6163,10.0647,8.1961,6.8846,2.5636,-6.2878,-4.8227,-0.1177,1.6116,-2.22,-9.8482
11.0108,9.1868,7.4731,9.3426,6.6792,5.552,0.1434,-1.5734,-2.3464,-0.1763,0.4888,0.0882,6.2086,7.5202,10.7521,10.7505,12.1966,8.9186,11.5127,11.9856,10.3565,8.1172,6.5166,2.5223,-6.4912,-4.9616,-0.2879,1.535,-2.3459,-10.0184
11.0471,9.2937,7.5008,9.5003,6.8708,5.6122,0.2458,-1.5984,-2.4549,-0.1583,0.517,0.128,6.2608,7.6458,10.6566,10.6882,12.1608,8.8499,11.4318,12.1108,10.4527,7.8983,6.0666,2.4745,-6.6044,-5.0704,-0.3993,1.4068,-2.5121,-10.0571
10.8637,9.1837,7.3495,9.4231,6.7889,5.4411,0.2202,-1.6785,-2.5725,-0.2141,0.5309,0.1751,6.1598,7.5685,10.3406,10.3645,11.9288,8.6501,11.1635,11.9509,10.3078,7.5535,5.5839,2.4378,-6.5893,-5.1057,-0.416,1.2346,-2.7216,-9.9337
10.4619,8.8741,7.0226,9.1197,6.4305,5.0468,0.0619,-1.8147,-2.6858,-0.3389,0.5361,0.2334,5.9352,7.292,9.8276,9.8151,11.5224,8.3407,10.7295,11.508,9.915,7.119,5.1259,2.4398,-6.4163,-5.0257,-0.304,1.0447,-2.973,-9.6245
9.8722,8.4091,6.5507,8.6305,5.8389,4.4735,-0.2041,-1.9957,-2.7731,-0.5102,0.549,0.3163,5.642,6.8582,9.17,9.1084,10.9878,7.9583,10.1771,10.8292,9.3108,6.6495,4.7497,2.5121,-6.0723,-4.8001,-0.0393,0.8784,-3.2577,-9.1251
9.1561,7.8527,5.9879,8.0227,5.0981,3.7953,-0.528,-2.1977,-2.8083,-0.6922,0.5938,0.4424,5.3482,6.3391,8.4428,8.3335,10.3895,7.5507,9.5731,10.0011,8.5727,6.2108,4.5037,2.682,-5.5658,-4.4181,0.3842,0.7829,-3.5588,-8.4614
8.4015,7.279,5.4034,7.3795,4.318,3.1038,-0.8461,-2.3887,-2.7668,-0.843,0.6963,0.63,5.1208,5.825,7.7332,7.5866,9.8017,7.1697,8.9949,9.1374,7.808,5.8698,4.4215,2.9659,-4.9282,-3.8935,0.9499,0.7997,-3.853,-7.6938
7.7101,6.7592,4.8696,6.7866,3.6135,2.4905,-1.0933,-2.5359,-2.6328,-0.9233,0.8766,0.8896,5.0152,5.4088,7.1267,6.956,9.2969,6.8629,8.5181,8.3601,7.137,5.6842,4.5171,3.364,-4.2098,-3.2632,1.6197,0.9537,-4.1133,-6.9125
7.1795,6.3503,4.4496,6.316,3.0818,2.0288,-1.2163,-2.6143,-2.4045,-0.9045,1.142,1.2191,5.0666,5.1689,6.6932,6.5092,8.9339,6.6646,8.2033,7.779,6.6722,5.6921,4.7829,3.8597,-3.4722,-2.5815,2.3386,1.2471,-4.3122,-6.2236
6.8832,6.085,4.1869,6.0133,2.7834,1.7585,-1.1847,-2.6131,-2.0974,-0.7758,1.4832,1.6012,5.2854,5.1545,6.4733,6.2828,8.7467,6.5882,8.0834,7.4705,6.4956,5.9033,5.19,4.4207,-2.7788,-1.9116,3.0441,1.6581,-4.4225,-5.728
6.8546,5.9666,4.0981,5.889,2.7301,1.6794,-0.9975,-2.539,-1.7433,-0.5474,1.8732,2.0047,5.6556,5.3749,6.4704,6.2762,8.7367,6.6223,8.1551,7.4629,6.6415,6.2943,5.691,5.0032,-2.1856,-1.3148,3.6751,2.1442,-4.4192,-5.499
7.0788,5.9693,4.1717,5.918,2.8857,1.754,-0.683,-2.4148,-1.3858,-0.2498,2.2714,2.3889,6.1354,5.7966,6.6491,6.4517,8.8724,6.7327,8.3782,7.7292,7.0869,6.8096,6.2244,5.5567,-1.7343,-0.8419,4.1807,2.6498,-4.282,-5.5621
7.4938,6.0448,4.3719,6.0473,3.1767,1.9199,-0.2936,-2.2725,-1.0717,0.0715,2.6307,2.7103,6.6624,6.3476,6.9429,6.7405,9.0955,6.8697,8.6816,8.1911,7.7527,7.3675,6.7224,6.0301,-1.4484,-0.5264,4.5254,3.1144,-4.0007,-5.8846
8.003,6.1329,4.646,6.2088,3.5117,2.1079,0.1052,-2.1452,-0.8418,0.3656,2.9068,2.9298,7.1617,6.9301,7.2671,7.0549,9.3328,6.9796,8.9772,8.7338,8.5164,7.8737,7.1192,6.3769,-1.333,-0.3819,4.6915,3.4814,-3.582,-6.3781
8.4934,6.1747,4.934,6.3348,3.8025,2.2604,0.4486,-2.0573,-0.7215,0.5868,3.0678,3.0202,7.5581,7.4383,7.5367,7.3035,9.5122,7.0171,9.1782,9.2272,9.234,8.2367,7.3598,6.5612,-1.3779,-0.4022,4.6781,3.7047,-3.0543,-6.9147
8.8581,6.1238,5.1785,6.3721,3.9822,2.3445,0.6856,-2.018,-0.7155,0.7049,3.1007,2.9706,7.7887,7.7777,7.6822,7.4076,9.5757,6.9552,9.2169,9.5503,9.7656,8.385,7.4092,6.5619,-1.5618,-0.5647,4.4997,3.7537,-2.4662,-7.3545
9.0156,5.9546,5.3328,6.291,4.0165,2.3572,0.7882,-2.0192,-0.8068,0.7109,3.0139,2.7885,7.814,7.8811,7.6622,7.3139,9.4902,6.7899,9.0567,9.6121,10.0004,8.2789,7.2577,6.3764,-1.8577,-0.8348,4.1824,3.6163,-1.8803,-7.5743
8.9222,5.6645,5.3666,6.087,3.9053,2.3217,0.7546,-2.0385,-0.9619,0.6179,2.8343,2.4973,7.6246,7.7189,7.4671,7.0014,9.2511,6.5399,8.6977,9.3653,9.8742,7.9168,6.9216,6.0208,-2.2367,-1.1717,3.7605,3.2987,-1.3598,-7.4931
8.5755,5.2707,5.2692,5.7777,3.6758,2.2771,0.6058,-2.046,-1.1393,0.4557,2.5997,2.1311,7.2398,7.3004,7.117,6.4809,8.8787,6.2393,8.1717,8.8096,9.377,7.3314,6.4392,5.5271,-2.6718,-1.535,3.2715,2.8237,-0.9554,-7.0832
8.0087,4.803,5.0487,5.394,3.3706,2.2635,0.377,-2.0142,-1.3012,0.2608,2.3489,1.7261,6.7013,6.6667,6.6513,5.7888,8.4104,5.9264,7.5298,7.9856,8.5488,6.579,5.8605,4.9359,-3.1395,-1.8914,2.751,2.2253,-0.6931,-6.3691
7.2784,4.294,4.729,4.9699,3.0333,2.3089,0.1068,-1.9264,-1.4221,0.0659,2.1123,1.3132,6.0609,5.8789,6.1166,4.9757,7.8879,5.6322,6.8266,6.9613,7.4665,5.7238,5.235,4.289,-3.6214,-2.2193,2.2265,1.5433,-0.5688,-5.4141
6.4509,3.7712,4.3445,4.534,2.6977,2.4204,-0.1725,-1.7825,-1.4943,-0.1085,1.9056,0.9123,5.3703,5.0041,5.5549,4.0953,7.3474,5.372,6.1071,5.8169,6.2265,4.8246,4.6015,3.6217,-4.1048,-2.512,1.7145,0.8174,-0.5514,-4.3026
5.5909,3.2528,3.9341,4.1052,2.3824,2.5829,-0.4404,-1.599,-1.5269,-0.2576,1.7293,0.5311,4.6722,4.1051,4.9969,3.1967,6.8133,5.1431,5.3993,4.6312,4.9279,3.9261,3.9834,2.9597,-4.5813,-2.7757,1.2203,0.0839,-0.5916,-3.1234
