FP1,F3,F7,FC3,C3,C5,P3,P7,PO7,PO3,O1,Oz,Pz,CPz,FP2,Fz,F4,F8,FC4,FCz,Cz,C4,C6,P4,P8,PO8,PO4,O2,(corr) HEOG,(corr) VEOG
1.5258,-0.0363,-0.1484,-0.9784,-1.3636,-0.921,-1.2126,-0.864,-1.3827,-1.0897,-0.7856,-1.2605,-1.6076,-2.0606,1.8917,-0.2553,0.63,1.2058,-0.3469,-0.9709,-1.4044,-1.0412,-0.8241,-2.3519,-2.0759,-3.3025,-3.3059,-2.7426,-3.2143,1.1653
1.5075,-0.0611,-0.0812,-1.0144,-1.2272,-0.7767,-1.0941,-0.9228,-1.4003,-0.8656,-0.6286,-0.9239,-1.152,-1.8198,2.1779,-0.264,0.6765,1.4224,-0.373,-0.9596,-1.2923,-1.0578,-0.8084,-2.0139,-1.802,-2.9197,-2.7458,-2.2848,-3.5028,1.123
1.4682,-0.0555,0.0194,-1.0399,-1.1022,-0.5717,-0.9615,-0.9617,-1.3881,-0.6251,-0.4654,-0.5641,-0.7168,-1.6016,2.394,-0.2986,0.7139,1.5745,-0.3822,-0.9691,-1.2151,-1.0635,-0.7729,-1.6929,-1.4866,-2.4524,-2.1425,-1.7636,-3.7023,1.0838
1.4174,0.0094,0.1374,-1.0308,-0.9937,-0.3202,-0.8167,-0.9766,-1.3496,-0.3801,-0.3025,-0.1964,-0.3083,-1.4033,2.4969,-0.3412,0.7626,1.6499,-0.3585,-0.9785,-1.1603,-1.0444,-0.7047,-1.39,-1.1456,-1.9183,-1.5176,-1.2081,-3.8273,1.0687
1.3614,0.1467,0.2511,-0.9752,-0.9053,-0.0504,-0.6672,-0.9677,-1.2916,-0.1456,-0.1487,0.1568,0.0601,-1.2266,2.461,-0.3785,0.8291,1.6391,-0.3013,-0.9736,-1.1183,-0.9986,-0.6001,-1.1123,-0.8013,-1.3498,-0.9048,-0.657,-3.9005,1.0892
1.304,0.3498,0.339,-0.8766,-0.8405,0.1985,-0.5272,-0.94,-1.2236,0.0602,-0.0151,0.4677,0.3642,-1.0823,2.2849,-0.4049,0.9037,1.5398,-0.2258,-0.952,-1.0873,-0.9384,-0.4678,-0.876,-0.481,-0.7909,-0.3483,-0.1545,-3.9461,1.146
1.247,0.5943,0.3849,-0.7512,-0.8029,0.3827,-0.4169,-0.9015,-1.1567,0.2166,0.0849,0.7059,0.5699,-0.9914,1.9926,-0.423,0.9643,1.3612,-0.1594,-0.9249,-1.0761,-0.8884,-0.3295,-0.7053,-0.2134,-0.2915,0.1019,0.2556,-3.9843,1.2303
1.1914,0.8456,0.3814,-0.623,-0.7974,0.4632,-0.3601,-0.8624,-1.1032,0.3019,0.1372,0.8437,0.6377,-0.9831,1.6291,-0.4427,0.9828,1.1245,-0.135,-0.9147,-1.1034,-0.8806,-0.2167,-0.6284,-0.0255,0.1007,0.3983,0.5373,-4.0271,1.3277
1.1381,1.0663,0.3313,-0.5196,-0.8307,0.4159,-0.3807,-0.8322,-1.0751,0.2966,0.1292,0.8612,0.5304,-1.0899,1.2508,-0.4786,0.9327,0.8602,-0.1834,-0.9507,-1.1943,-0.9484,-0.1651,-0.6722,0.0612,0.3483,0.5037,0.668,-4.078,1.4222
1.0883,1.2227,0.2456,-0.4689,-0.9121,0.2386,-0.4983,-0.8183,-1.083,0.1861,0.0527,0.7505,0.2219,-1.34,0.9129,-0.5473,0.796,0.5996,-0.3267,-1.0628,-1.3747,-1.1185,-0.2061,-0.8559,0.0333,0.4305,0.3995,0.6412,-4.1342,1.5019
1.0431,1.2886,0.14,-0.4979,-1.0527,-0.048,-0.7239,-0.8252,-1.1347,-0.0345,-0.0939,0.5176,-0.2949,-1.7496,0.6571,-0.6643,0.5675,0.3658,-0.5732,-1.2741,-1.6647,-1.405,-0.3596,-1.1859,-0.1124,0.3462,0.0891,0.4669,-4.1893,1.5625
1.0034,1.2464,0.0293,-0.6304,-1.2631,-0.4062,-1.0566,-0.8543,-1.2339,-0.359,-0.304,0.1827,-1.0029,-2.317,0.5034,-0.8409,0.2572,0.167,-0.9143,-1.5955,-2.072,-1.8053,-0.628,-1.6519,-0.3673,0.1132,-0.4013,0.1687,-4.2366,1.6083
0.9698,1.0871,-0.077,-0.8824,-1.5492,-0.7903,-1.4824,-0.9053,-1.3799,-0.7687,-0.5636,-0.2227,-1.8608,-3.0188,0.4481,-1.0817,-0.1121,-0.0034,-1.3272,-2.0219,-2.5883,-2.2996,-0.9955,-2.2268,-0.7104,-0.2345,-1.0258,-0.2196,-4.2718,1.6514
0.9435,0.8112,-0.1767,-1.2562,-1.9082,-1.157,-1.9747,-0.9776,-1.5667,-1.2338,-0.8528,-0.6603,-2.8063,-3.8114,0.4686,-1.3836,-0.5099,-0.1603,-1.7793,-2.5313,-3.1884,-2.8539,-1.4313,-2.8683,-1.1095,-0.6527,-1.7256,-0.658,-4.2939,1.7076
0.9264,0.4297,-0.2746,-1.7352,-2.3262,-1.4719,-2.4972,-1.0699,-1.7826,-1.7167,-1.1482,-1.0898,-3.7643,-4.6356,0.5321,-1.7351,-0.9059,-0.317,-2.2366,-3.0879,-3.8326,-3.4258,-1.8968,-3.524,-1.5244,-1.0932,-2.4363,-1.1043,-4.3056,1.7917
0.9217,-0.0347,-0.3797,-2.2818,-2.7781,-1.7139,-3.0085,-1.1802,-2.0099,-2.1762,-1.425,-1.4735,-4.6569,-5.4245,0.6054,-2.1165,-1.2763,-0.4774,-2.6695,-3.6466,-4.4723,-3.9717,-2.3539,-4.1387,-1.9121,-1.5098,-3.0961,-1.517,-4.3122,1.9131
0.9328,-0.5482,-0.5,-2.8415,-3.2302,-1.8754,-3.4663,-1.3036,-2.2245,-2.5716,-1.659,-1.7801,-5.4131,-6.113,0.6637,-2.5012,-1.6065,-0.6331,-3.0568,-4.1593,-5.0563,-4.4523,-2.7715,-4.6609,-2.233,-1.8631,-3.6528,-1.8602,-4.3195,2.0735
0.9629,-1.0692,-0.6369,-3.353,-3.6452,-1.9603,-3.8326,-1.4302,-2.3966,-2.8668,-1.8273,-1.9863,-5.9775,-6.6461,0.6956,-2.8574,-1.89,-0.7671,-3.3853,-4.5806,-5.5372,-4.837,-3.1281,-5.0499,-2.4577,-2.1247,-4.0683,-2.1072,-4.332,2.2649
1.0119,-1.5543,-0.782,-3.7619,-3.988,-1.9817,-4.0774,-1.5444,-2.4937,-3.0337,-1.9101,-2.0778,-6.3161,-6.9859,0.705,-3.1518,-2.124,-0.8608,-3.6465,-4.8735,-5.877,-5.1044,-3.4113,-5.2787,-2.5706,-2.278,-4.3212,-2.2438,-4.3516,2.4708
1.0748,-1.9649,-0.9187,-4.0326,-4.231,-1.9582,-4.1818,-1.626,-2.484,-3.0544,-1.891,-2.0487,-6.4178,-7.1146,0.707,-3.3552,-2.3047,-0.9026,-3.8331,-5.0139,-6.0511,-5.2428,-3.6148,-5.3357,-2.5722,-2.3189,-4.4061,-2.2698,-4.378,2.6678
1.1389,-2.2737,-1.0292,-4.1552,-4.3582,-1.9111,-4.1393,-1.6525,-2.3425,-2.9219,-1.7591,-1.9007,-6.2933,-7.0353,0.72,-3.4484,-2.4262,-0.8942,-3.9381,-4.9949,-6.0508,-5.2499,-3.7363,-5.2241,-2.4772,-2.254,-4.3318,-2.1969,-4.4099,2.8297
1.1836,-2.4704,-1.1025,-4.1454,-4.3662,-1.8616,-3.9554,-1.604,-2.0559,-2.6403,-1.5102,-1.6421,-5.9715,-6.7708,0.756,-3.4288,-2.4821,-0.852,-3.9557,-4.8293,-5.8846,-5.1323,-3.7769,-4.9606,-2.3113,-2.0987,-4.1185,-2.0444,-4.4459,2.9321
1.1828,-2.5625,-1.1417,-4.0395,-4.2636,-1.8287,-3.6472,-1.4671,-1.6274,-2.2239,-1.1481,-1.2862,-5.4929,-6.3588,0.8116,-3.3128,-2.4695,-0.8044,-3.8845,-4.5494,-5.5777,-4.9055,-3.7425,-4.5723,-2.1057,-1.8742,-3.7945,-1.8335,-4.4839,2.9582
1.1091,-2.5737,-1.1669,-3.8848,-4.069,-1.8275,-3.2403,-1.2386,-1.0788,-1.6963,-0.6859,-0.8507,-4.9039,-5.8471,0.866,-3.1343,-2.3928,-0.7835,-3.7304,-4.2027,-5.1692,-4.5935,-3.644,-4.094,-1.8919,-1.6046,-3.3922,-1.5833,-4.5205,2.9021
0.9404,-2.5376,-1.2115,-3.7293,-3.8078,-1.8686,-2.7669,-0.9287,-0.4512,-1.09,-0.1467,-0.3559,-4.25,-5.2866,0.8854,-2.9384,-2.2649,-0.8163,-3.5081,-3.8447,-4.7067,-4.2257,-3.4965,-3.5633,-1.6963,-1.3133,-2.9438,-1.3084,-4.5505,2.7705
0.6668,-2.4903,-1.3138,-3.6127,-3.5093,-1.9565,-2.2636,-0.5617,0.197,-0.4463,0.4357,0.1751,-3.5721,-4.7258,0.834,-2.7717,-2.1061,-0.9164,-3.2401,-3.529,-4.2411,-3.8334,-3.3177,-3.0172,-1.5364,-1.0206,-2.4785,-1.0201,-4.5685,2.5823
0.2969,-2.463,-1.5036,-3.5594,-3.2039,-2.0881,-1.7698,-0.1764,0.7937,0.1844,1.0161,0.7172,-2.9035,-4.2051,0.6878,-2.6718,-1.9399,-1.0794,-2.9535,-3.2989,-3.8193,-3.4456,-3.124,-2.488,-1.4187,-0.7428,-2.0208,-0.7285,-4.5702,2.3656
-0.1399,-2.4751,-1.7889,-3.5749,-2.9209,-2.252,-1.3265,0.1769,1.2587,0.7437,1.5402,1.2432,-2.2692,-3.7536,0.4465,-2.6581,-1.7885,-1.2815,-2.6753,-3.1797,-3.479,-3.0852,-2.9285,-2.0016,-1.3396,-0.492,-1.5902,-0.4457,-4.5555,2.1542
-0.5939,-2.53,-2.1467,-3.6452,-2.6852,-2.4271,-0.9732,0.4405,1.5119,1.1692,1.9488,1.7254,-1.6861,-3.3866,0.1395,-2.7261,-1.666,-1.4808,-2.4277,-3.174,-3.2429,-2.7655,-2.7379,-1.575,-1.2872,-0.2774,-1.2023,-0.187,-4.5287,1.9824
-1.0009,-2.6116,-2.5222,-3.7381,-2.5136,-2.5834,-0.7447,0.558,1.4839,1.4011,2.185,2.1378,-1.1617,-3.1028,-0.1761,-2.8456,-1.5733,-1.6227,-2.2213,-3.2604,-3.1141,-2.4879,-2.549,-1.215,-1.2448,-0.105,-0.8681,0.0299,-4.4984,1.8808
-1.2915,-2.6861,-2.838,-3.8086,-2.4113,-2.6829,-0.6658,0.4829,1.1268,1.3919,2.2042,2.4594,-0.693,-2.8842,-0.4259,-2.9642,-1.4922,-1.6483,-2.0501,-3.3948,-3.0725,-2.2389,-2.3459,-0.9168,-1.1944,0.0216,-0.5933,0.1878,-4.4756,1.8712
-1.402,-2.7064,-3.0099,-3.8056,-2.3692,-2.6845,-0.7465,0.1883,0.424,1.1164,1.9823,2.6778,-0.2659,-2.6958,-0.5326,-3.0155,-1.3846,-1.505,-1.8876,-3.5152,-3.0746,-1.9904,-2.0993,-0.6647,-1.12,0.1024,-0.3768,0.2745,-4.4706,1.9633
-1.2864,-2.6211,-2.9655,-3.681,-2.3636,-2.5519,-0.979,-0.327,-0.6037,0.5788,1.5224,2.7902,0.1436,-2.4902,-0.4317,-2.9301,-1.1959,-1.1574,-1.6885,-3.5494,-3.0568,-1.7024,-1.7712,-0.4338,-1.0093,0.1405,-0.2099,0.2851,-4.4909,2.1508
-0.9242,-2.3834,-2.6601,-3.398,-2.3584,-2.2624,-1.3367,-1.0362,-1.898,-0.185,0.8562,2.8042,0.5656,-2.2143,-0.083,-2.6481,-0.8649,-0.5936,-1.3957,-3.4254,-2.9453,-1.3303,-1.3238,-0.1955,-0.8552,0.142,-0.0778,0.2249,-4.5411,2.4106
-0.3252,-1.9607,-2.0863,-2.9382,-2.3114,-1.8149,-1.7778,-1.8886,-3.3688,-1.1106,0.0406,2.7356,1.0292,-1.8202,0.5235,-2.131,-0.3375,0.1724,-0.9527,-3.0847,-2.6697,-0.835,-0.7318,0.0765,-0.6559,0.1146,0.0383,0.109,-4.6231,2.7041
0.4739,-1.3423,-1.2758,-2.3062,-2.1828,-1.234,-2.2515,-2.8176,-4.9061,-2.1143,-0.8512,2.6059,1.5549,-1.2767,1.3674,-1.3709,0.4179,1.1051,-0.3185,-2.4942,-2.179,-0.1931,0.009,0.3998,-0.4149,0.0667,0.1579,-0.0395,-4.7376,2.9853
1.4162,-0.5441,-0.2961,-1.5312,-1.9453,-0.5684,-2.7077,-3.7527,-6.3954,-3.1072,-1.7411,2.4395,2.1474,-0.5787,2.4019,-0.3941,1.4003,2.1532,0.5206,-1.6565,-1.4556,0.5954,0.8774,0.7794,-0.1406,0.0066,0.2972,-0.1923,-4.8852,3.2119
2.4345,0.3906,0.7591,-0.6653,-1.593,0.1157,-3.1059,-4.6313,-7.7333,-4.0083,-2.5575,2.2602,2.7915,0.247,3.561,0.7399,2.5707,3.2573,1.5437,-0.6128,-0.5236,1.5053,1.83,1.2059,0.1543,-0.0579,0.4663,-0.3209,-5.0648,3.3559
3.4613,1.3956,1.7835,0.2217,-1.146,0.7445,-3.4226,-5.4072,-8.8411,-4.757,-3.2456,2.0887,3.4527,1.1444,4.7686,1.9471,3.8568,4.357,2.6971,0.5609,0.553,2.4889,2.8085,1.6576,0.4533,-0.1207,0.667,-0.4017,-5.2734,3.4101
4.4356,2.3907,2.6745,1.0511,-0.6479,1.2481,-3.6534,-6.0543,-9.6724,-5.3192,-3.7724,1.9396,4.0827,2.037,5.9481,3.1317,5.1635,5.3959,3.9015,1.7664,1.681,3.4829,3.7487,2.104,0.7371,-0.1773,0.8924,-0.4201,-5.5047,3.3873
5.3062,3.2951,3.3497,1.7484,-0.1568,1.5721,-3.8103,-6.5641,-10.2131,-5.6875,-4.1275,1.8206,4.6272,2.8424,7.0315,4.2026,6.3902,6.3272,5.0653,2.9007,2.7552,4.4181,4.5893,2.5118,0.9849,-0.2252,1.1277,-0.3733,-5.7506,3.3117
6.0334,4.0403,3.761,2.2564,0.2679,1.6858,-3.9141,-6.9402,-10.4762,-5.8755,-4.3185,1.732,5.0366,3.4881,7.9683,5.0883,7.4478,7.1171,6.1004,3.8743,3.6792,5.2298,5.2796,2.8501,1.1776,-0.2634,1.3535,-0.2694,-6.0019,3.2078
6.5888,4.5808,3.9027,2.546,0.5788,1.5872,-3.9858,-7.1896,-10.4912,-5.9085,-4.3645,1.6683,5.2743,3.9234,8.7296,5.7488,8.2758,7.7485,6.9369,4.627,4.3818,5.8674,5.7848,3.0946,1.3004,-0.2915,1.5491,-0.1249,-6.2507,3.0899
6.9559,4.8998,3.8108,2.6206,0.7497,1.3044,-4.0382,-7.3167,-10.2933,-5.8138,-4.2877,1.62,5.3223,4.1275,9.3087,6.1802,8.8518,8.2206,7.535,5.1355,4.8276,6.3016,6.0904,3.2311,1.3451,-0.3087,1.6963,0.0407,-6.4903,2.9571
7.132,5.0094,3.5531,2.5118,0.7781,0.8911,-4.0722,-7.3205,-9.9144,-5.613,-4.1073,1.577,5.1835,4.1093,9.7164,6.4113,9.1933,8.5471,7.8898,5.4137,5.0184,6.5271,6.202,3.256,1.3118,-0.3129,1.7832,0.2085,-6.7154,2.7971
7.129,4.9442,3.2126,2.2694,0.6825,0.418,-4.0762,-7.1948,-9.3786,-5.3182,-3.8366,1.5309,4.88,3.9024,9.9727,6.4945,9.35,8.7488,8.0287,5.5042,4.9873,6.5612,6.1432,3.1764,1.2089,-0.3003,1.8064,0.3633,-6.9203,2.595
6.9739,4.7518,2.8685,1.9475,0.4947,-0.0399,-4.0311,-6.9327,-8.7027,-4.9331,-3.4827,1.4769,4.4485,3.5556,10.0973,6.4906,9.3879,8.8459,8.0007,5.4649,4.7878,6.4378,5.9494,3.0078,1.0512,-0.2665,1.7716,0.495,-7.0975,2.3449
6.7052,4.4821,2.5806,1.593,0.2514,-0.4177,-3.9156,-6.5325,-7.8996,-4.4562,-3.0495,1.4149,3.9344,3.1233,10.1038,6.4543,9.3701,8.8508,7.8629,5.354,4.4801,6.1992,5.6605,2.7722,0.858,-0.2081,1.6923,0.5982,-7.2374,2.0563
6.3666,4.1782,2.38,1.2379,-0.0127,-0.6718,-3.7135,-6.0016,-6.9845,-3.8871,-2.5419,1.3489,3.385,2.6561,9.9979,6.4218,9.3391,8.7653,7.6651,5.2173,4.1204,5.8875,5.3145,2.4949,0.6496,-0.1235,1.5876,0.6719,-7.3281,1.7547
5.999,3.8708,2.2686,0.8986,-0.2691,-0.7865,-3.4182,-5.3602,-5.9797,-3.2314,-1.9697,1.2862,2.8437,2.1954,9.7823,6.4055,9.3086,8.5851,7.4413,5.0807,3.7525,5.5383,4.9435,2.2021,0.4457,-0.0142,1.4782,0.7188,-7.3588,1.4735
5.6334,3.576,2.2257,0.5788,-0.4975,-0.7732,-3.0351,-4.64,-4.9173,-2.5042,-1.3497,1.2356,2.3467,1.7704,9.4648,6.3956,9.2651,8.307,7.2065,4.9493,3.4049,5.178,4.5725,1.919,0.2637,0.1151,1.384,0.745,-7.3212,1.2431
5.2862,3.2969,2.2173,0.2758,-0.6848,-0.6648,-2.5802,-3.8808,-3.8387,-1.7305,-0.7052,1.2069,1.9208,1.3987,9.0652,6.3666,9.1785,7.9376,6.9615,4.8122,3.0906,4.8243,4.2202,1.6688,0.1179,0.2577,1.3213,0.76,-7.2127,1.08
4.9591,3.028,2.2059,-0.0137,-0.8233,-0.5068,-2.0772,-3.125,-2.7903,-0.9428,-0.0641,1.2097,1.5837,1.0881,8.6176,6.288,9.0173,7.4976,6.6994,4.6502,2.8115,4.4886,3.9003,1.4714,0.019,0.4058,1.3019,0.7773,-7.0371,0.982
4.6426,2.7605,2.1589,-0.2898,-0.9089,-0.3462,-1.5529,-2.4118,-1.8184,-0.1761,0.545,1.2539,1.3447,0.8391,8.1652,6.133,8.7599,7.0206,6.4123,4.4444,2.5623,4.1783,3.6227,1.3432,-0.027,0.5526,1.3331,0.8133,-6.8054,0.9316
4.3226,2.4862,2.0529,-0.5494,-0.9414,-0.2213,-1.0334,-1.7718,-0.9632,0.536,1.0968,1.3486,1.2058,0.6473,7.7488,5.884,8.4005,6.5468,6.0945,4.1814,2.3344,3.8971,3.3922,1.2952,-0.0194,0.6943,1.4172,0.8862,-6.5343,0.9049
3.986,2.1991,1.8751,-0.789,-0.9257,-0.1558,-0.5426,-1.2255,-0.2544,1.1659,1.5711,1.5013,1.1608,0.5038,7.3927,5.534,7.9472,6.1133,5.7418,3.8551,2.118,3.6448,3.2072,1.3308,0.0368,0.8311,1.5525,1.0119,-6.2436,0.884
3.6259,1.8936,1.6226,-1.0103,-0.874,-0.158,-0.1018,-0.7839,0.2904,1.6924,1.9543,1.7149,1.1952,0.3947,7.095,5.0842,7.4162,5.7447,5.3505,3.4655,1.9016,3.4159,3.0585,1.4437,0.1316,0.9675,1.7333,1.2003,-5.9517,0.8651
3.2419,1.5629,1.3006,-1.2231,-0.8065,-0.2259,0.2693,-0.4513,0.6647,2.1015,2.2386,1.9857,1.2858,0.3009,6.8262,4.541,6.8254,5.4471,4.9165,3.015,1.6716,3.2005,2.931,1.618,0.2518,1.1125,1.9514,1.4514,-5.6724,0.8604
2.839,1.199,0.9207,-1.4444,-0.7503,-0.3527,0.5524,-0.2289,0.8718,2.3846,2.4213,2.3026,1.4023,0.1992,6.54,3.9142,6.1902,5.2076,4.4378,2.5069,1.4129,2.9873,2.8072,1.8305,0.3847,1.2786,2.1983,1.7549,-5.4135,0.8917
2.424,0.7954,0.4999,-1.6927,-0.7338,-0.5312,0.7323,-0.1173,0.9225,2.5388,2.5042,2.6473,1.5113,0.0656,6.1901,3.2171,5.5223,4.9992,3.9174,1.9448,1.1107,2.7677,2.673,2.0552,0.5212,1.4802,2.4672,2.0919,-5.1786,0.9795
2.0024,0.3506,0.0573,-1.9796,-0.7812,-0.754,0.7992,-0.1163,0.8339,2.567,2.4931,2.9968,1.5808,-0.1203,5.7483,2.4665,4.8298,4.7896,3.3652,1.3335,0.7538,2.539,2.5213,2.2687,0.6586,1.7303,2.7529,2.4381,-4.9709,1.1316
1.5757,-0.1301,-0.3894,-2.3053,-0.9068,-1.0121,0.7511,-0.2224,0.6289,2.4778,2.3973,3.326,1.5847,-0.3714,5.2151,1.6819,4.1175,4.5483,2.7958,0.6796,0.3371,2.3039,2.352,2.4533,0.7998,2.0362,3.051,2.7679,-4.7967,1.3369
1.1405,-0.6358,-0.8284,-2.6594,-1.1139,-1.2937,0.5958,-0.4254,0.3354,2.2867,2.2296,3.611,1.5063,-0.6916,4.6179,0.882,3.3853,4.2513,2.2236,-0.0094,-0.1369,2.0671,2.1681,2.5973,0.9501,2.3948,3.353,3.0586,-4.6659,1.566
0.6908,-1.1523,-1.2559,-3.0264,-1.3951,-1.5846,0.3516,-0.7048,-0.0141,2.0153,2.006,3.8316,1.3388,-1.0754,3.9998,0.0816,2.6288,3.8816,1.6577,-0.7253,-0.659,1.8311,1.9711,2.6935,1.1128,2.7901,3.6441,3.2934,-4.5897,1.7788
0.2206,-1.6649,-1.674,-3.3926,-1.7352,-1.8701,0.0462,-1.0287,-0.3834,1.6919,1.7466,3.9748,1.0873,-1.509,3.4019,-0.7095,1.8417,3.429,1.1005,-1.4593,-1.2137,1.5937,1.7577,2.7381,1.2854,3.1946,3.9028,3.4641,-4.5746,1.9376
-0.2717,-2.1599,-2.0875,-3.751,-2.1136,-2.1366,-0.2847,-1.356,-0.7341,1.3505,1.4758,4.0371,0.7677,-1.9711,2.8478,-1.4853,1.0218,2.8883,0.5516,-2.1994,-1.78,1.3496,1.5218,2.7308,1.4588,3.575,4.1048,3.5725,-4.6167,2.0183
-0.7809,-2.6267,-2.4984,-4.1011,-2.5063,-2.3728,-0.6011,-1.6418,-1.0277,1.0298,1.2226,4.0265,0.4073,-2.434,2.3355,-2.2408,0.1769,2.2594,0.0125,-2.9293,-2.3324,1.0951,1.258,2.6757,1.6196,3.9007,4.2302,3.6304,-4.6974,2.018
-1.2948,-3.0587,-2.9029,-4.4456,-2.8869,-2.5691,-0.8633,-1.8445,-1.2291,0.7707,1.0185,3.9618,0.0422,-2.8653,1.8386,-2.9686,-0.6721,1.5476,-0.5085,-3.6267,-2.8423,0.8319,0.9659,2.5834,1.7542,4.1525,4.2705,3.6566,-4.7829,1.9555
-1.7971,-3.4528,-3.2901,-4.7849,-3.2288,-2.7183,-1.0357,-1.9328,-1.3093,0.6123,0.8941,3.8704,-0.2853,-3.23,1.3161,-3.6576,-1.4933,0.7651,-0.9956,-4.2649,-3.2802,0.5694,0.6525,2.4716,1.8528,4.328,4.2341,3.6723,-4.8296,1.8643
-2.2716,-3.8073,-3.6448,-5.112,-3.5058,-2.815,-1.0917,-1.8917,-1.2487,0.5876,0.8753,3.7837,-0.5308,-3.4935,0.7286,-4.2926,-2.2506,-0.0683,-1.4284,-4.8152,-3.6184,0.3239,0.3326,2.3645,1.9131,4.4429,4.1475,3.6969,-4.7936,1.7814
-2.7066,-4.1195,-3.9516,-5.4102,-3.6956,-2.8561,-1.0159,-1.7241,-1.0396,0.7191,0.9786,3.732,-0.6529,-3.625,0.0549,-4.8557,-2.9113,-0.9238,-1.786,-5.2516,-3.835,0.1156,0.0262,2.291,1.9411,4.5279,4.0524,3.7449,-4.6423,1.7337
-3.0986,-4.3844,-4.2004,-5.656,-3.7816,-2.8408,-0.8057,-1.4499,-0.6873,1.0157,1.2083,3.7401,-0.6186,-3.6016,-0.6966,-5.3282,-3.4536,-1.7636,-2.0526,-5.5545,-3.9163,-0.0354,-0.2452,2.2806,1.9514,4.621,3.9985,3.8258,-4.3643,1.7278
-3.4524,-4.5958,-4.3885,-5.8251,-3.7559,-2.7709,-0.47,-1.1007,-0.2099,1.4706,1.5554,3.8239,-0.4075,-3.4115,-1.4845,-5.6928,-3.8684,-2.543,-2.2191,-5.7138,-3.8586,-0.1123,-0.4612,2.3597,1.9639,4.7598,4.0346,3.9458,-3.9748,1.7469
-3.7764,-4.7461,-4.5215,-5.8979,-3.6193,-2.6521,-0.0272,-0.7131,0.3643,2.0626,1.9987,3.9899,-0.0141,-3.0548,-2.2437,-5.9343,-4.1562,-3.2125,-2.2819,-5.7287,-3.6677,-0.1031,-0.6046,2.548,2.0007,4.9733,4.2001,4.1106,-3.5148,1.7576
-4.0764,-4.8268,-4.6116,-5.8637,-3.3799,-2.4951,0.4985,-0.3221,0.9997,2.7594,2.5085,4.2367,0.5527,-2.5429,-2.9005,-6.04,-4.3208,-3.7224,-2.2395,-5.6046,-3.3548,0.0004,-0.6609,2.8569,2.0823,5.2775,4.5198,4.3283,-3.044,1.7237
-4.3501,-4.827,-4.6744,-5.7197,-3.0502,-2.3163,1.0808,0.0445,1.6577,3.522,3.0514,4.5579,1.2724,-1.8952,-3.3909,-5.9994,-4.3631,-4.0288,-2.0881,-5.3491,-2.9324,0.2041,-0.6177,3.2889,2.2244,5.6739,5.0008,4.6099,-2.6292,1.6201
-4.5863,-4.7349,-4.7241,-5.4706,-2.6446,-2.1367,1.6939,0.3689,2.3005,4.3097,3.5957,4.9453,2.1167,-1.1361,-3.6747,-5.8048,-4.2791,-4.1002,-1.821,-4.9684,-2.4105,0.512,-0.4656,3.8384,2.4357,6.1513,5.6336,4.9673,-2.329,1.441
-4.7691,-4.5407,-4.7689,-5.1263,-2.1774,-1.9784,2.3142,0.6432,2.8939,5.0851,4.1145,5.3906,3.0532,-0.2915,-3.7407,-5.4532,-4.0623,-3.9257,-1.43,-4.4664,-1.7951,0.9249,-0.1996,4.4916,2.7162,6.6878,6.3932,5.4078,-2.1805,1.1988
-4.8846,-4.24,-4.8081,-4.701,-1.6622,-1.8597,2.9207,0.8669,3.4095,5.8162,4.5886,5.885,4.048,0.6128,-3.605,-4.9478,-3.7077,-3.5201,-0.91,-3.8454,-1.0895,1.4387,0.1778,5.2276,3.057,7.2544,7.2418,5.929,-2.1903,0.9162
-4.9259,-3.8354,-4.8313,-4.2114,-1.1124,-1.7911,3.4956,1.0444,3.8264,6.4788,5.0061,6.4185,5.0686,1.5531,-3.3026,-4.2985,-3.2143,-2.9241,-0.2629,-3.1078,-0.2964,2.043,0.6546,6.0187,3.4409,7.8174,8.1318,6.5138,-2.3345,0.6168
-4.8944,-3.3352,-4.8214,-3.6736,-0.5402,-1.7704,4.0247,1.1818,4.132,7.0564,5.3618,6.9775,6.0857,2.5096,-2.8797,-3.5205,-2.5864,-2.1996,0.5005,-2.2581,0.5798,2.7215,1.2096,6.8328,3.8444,8.3416,9.0102,7.1295,-2.5659,0.3192
-4.7955,-2.7485,-4.7585,-3.1003,0.0446,-1.781,4.4981,1.2851,4.3226,7.5398,5.655,7.544,7.075,3.4664,-2.387,-2.6321,-1.8319,-1.4189,1.3607,-1.3036,1.5313,3.4536,1.8156,7.6361,4.2415,8.7937,9.8233,7.7315,-2.827,0.0369
-4.6343,-2.0829,-4.6246,-2.4979,0.6356,-1.792,4.9117,1.3598,4.4035,7.9269,5.8878,8.0957,8.0182,4.4122,-1.8748,-1.653,-0.9611,-0.6527,2.2921,-0.2556,2.5463,4.2176,2.4425,8.3959,4.6063,9.1458,10.5224,8.2701,-3.0641,-0.2187
-4.4116,-1.343,-4.4072,-1.8667,1.2313,-1.7625,5.2674,1.4118,4.388,8.2217,6.0633,8.6066,8.9025,5.3383,-1.3893,-0.6027,0.0127,0.0414,3.2654,0.8703,3.6088,4.992,3.0625,9.0839,4.9166,9.3779,11.0684,8.6993,-3.2384,-0.4353
-4.1242,-0.5336,-4.1015,-1.2022,1.8344,-1.648,5.5728,1.4482,4.2954,8.4333,6.1855,9.0496,9.7205,6.2379,-0.9667,0.498,1.0718,0.6248,4.2512,2.0532,4.6984,5.758,3.6535,9.6783,5.1552,9.4799,11.4356,8.9847,-3.3312,-0.6003
-3.7681,0.3366,-3.71,-0.4987,2.4499,-1.4091,5.8397,1.4775,4.1489,8.5751,6.2587,9.3997,10.4689,7.1042,-0.6273,1.6266,2.1928,1.0806,5.2231,3.2667,5.7916,6.5004,4.2018,10.1663,5.3111,9.4514,11.6147,9.1085,-3.3424,-0.7045
-3.3437,1.2504,-3.2412,0.2453,3.0813,-1.0196,6.0818,1.5091,3.9727,8.663,6.2875,9.6371,11.1472,7.9303,-0.3721,2.7583,3.345,1.4122,6.159,4.4807,6.8638,7.209,4.7037,10.545,5.3804,9.3022,11.6136,9.0716,-3.2844,-0.7475
-2.8602,2.1796,-2.7084,1.0214,3.7265,-0.4739,6.3113,1.5515,3.7897,8.7142,6.2777,9.7511,11.7565,8.7091,-0.183,3.866,4.491,1.6384,7.0425,5.6631,7.8909,7.8779,5.1634,10.822,5.3664,9.0503,11.4573,8.8924,-3.1743,-0.742
-2.3379,3.0853,-2.1277,1.8074,4.3748,0.2096,6.537,1.6101,3.6195,8.7448,6.2358,9.7426,12.2986,9.4339,-0.029,4.921,5.5878,1.7888,7.8603,6.7823,8.8518,8.5048,5.5886,11.0138,5.2794,8.7212,11.1854,8.6031,-3.0267,-0.7127
-1.807,3.9214,-1.517,2.5667,5.0061,0.9887,6.7625,1.6864,3.4775,8.7696,6.1694,9.6256,12.7755,10.0989,0.123,5.8936,6.5899,1.8958,8.5998,7.809,9.7293,9.087,5.9836,11.1438,5.1362,8.3456,10.8474,8.2453,-2.8503,-0.6918
-1.305,4.64,-0.8951,3.2528,5.594,1.8032,6.987,1.7778,3.3745,8.8,6.0878,9.4263,13.1895,10.6996,0.297,6.7543,7.4524,1.9876,9.2459,8.7177,10.5099,9.6199,6.345,11.238,4.9581,7.9565,10.4968,7.8636,-2.6482,-0.7113
-0.8712,5.1996,-0.2816,3.8172,6.1106,2.5848,7.207,1.8791,3.3172,8.8451,6.0017,9.1805,13.5442,11.2329,0.4996,7.4759,8.1368,2.0811,9.7808,9.4879,11.184,10.0951,6.6598,11.3214,4.7692,7.5871,10.1844,7.5005,-2.422,-0.7951
-0.5423,5.5732,0.3027,4.2213,6.5337,3.2685,7.4193,1.9845,3.3088,8.9109,5.9238,8.9285,13.8454,11.698,0.7177,8.0358,8.6161,2.178,10.1854,10.1055,11.7456,10.5013,6.9088,11.4143,4.5937,7.2669,9.9518,7.1917,-2.1767,-0.9546
-0.3467,5.7548,0.8351,4.4481,6.8531,3.8039,7.6233,2.0888,3.3505,9.0018,5.8683,8.7096,14.1015,12.0971,0.9216,8.4198,8.8796,2.2658,10.4441,10.5643,12.1931,10.8264,7.0728,11.5299,4.4534,7.0193,9.8266,6.9637,-1.924,-1.1867
-0.3002,5.7628,1.2896,4.5091,7.0745,4.1627,7.8217,2.1887,3.4407,9.1206,5.8503,8.5575,14.3238,12.4362,1.0729,8.626,8.9367,2.3229,10.5502,10.8677,12.5303,11.0613,7.1404,11.674,4.3648,6.8601,9.8206,6.8329,-1.6819,-1.473
-0.402,5.6372,1.6387,4.4435,7.2186,4.3401,8.0202,2.2819,3.5761,9.2688,5.8838,8.4963,14.5256,12.7253,1.1321,8.6666,8.8168,2.3263,10.5114,11.0294,12.767,11.2028,7.1132,11.8457,4.3372,6.7968,9.9305,6.8066,-1.4704,-1.7828
-0.6347,5.4326,1.8551,4.309,7.3159,4.3514,8.225,2.3672,3.7504,9.4467,5.9789,8.5385,14.7194,12.9769,1.0672,8.5676,8.5659,2.2586,10.3505,11.072,12.9186,11.2562,7.0076,12.0395,4.3715,6.8285,10.1409,6.8841,-1.3056,-2.0764
-0.9667,5.2066,1.916,4.1668,7.3975,4.2266,8.44,2.4427,3.9544,9.6515,6.1392,8.6839,14.9154,13.2029,0.8599,8.3649,8.2392,2.1124,10.1031,11.0243,13.0039,11.2354,6.8515,12.2478,4.4607,6.9462,10.4285,7.0572,-1.194,-2.3136
-1.3584,5.0068,1.8086,4.0656,7.4858,4.0038,8.6634,2.5059,4.1758,9.8771,6.3592,8.9198,15.119,13.4118,0.5101,8.0983,7.8906,1.8915,9.8121,10.9162,13.0423,11.1612,6.6789,12.4631,4.5918,7.1335,10.7663,7.3106,-1.1308,-2.4616
-1.7681,4.8605,1.5337,4.0296,7.5889,3.7247,8.8874,2.5533,4.3997,10.1126,6.6244,9.2225,15.3299,13.6064,0.0372,7.8037,7.5623,1.6096,9.5199,10.7743,13.0509,11.0593,6.5239,12.6793,4.7485,7.368,11.1273,7.6221,-1.1003,-2.5026
-2.1589,4.7699,1.1098,4.0535,7.6993,3.4312,9.0988,2.5823,4.6106,10.3439,6.9123,9.5596,15.5426,13.7843,-0.5223,7.5073,7.2766,1.2868,9.2612,10.6183,13.0427,10.9566,6.4145,12.8925,4.9146,7.623,11.4865,7.9641,-1.0813,-2.4375
-2.5016,4.7147,0.5745,4.1057,7.798,3.1624,9.283,2.5928,4.7948,10.5544,7.1955,9.8937,15.7479,13.9395,-1.1202,7.2217,7.0331,0.9464,9.0569,10.4588,13.026,10.8774,6.369,13.1009,5.076,7.8718,11.8221,8.306,-1.0536,-2.2846
-2.7765,4.6619,-0.0177,4.1403,7.8629,2.9531,9.4282,2.5891,4.9429,10.7292,7.4463,10.1863,15.9354,14.0659,-1.7048,6.9459,6.8116,0.6121,8.9123,10.2975,13.0045,10.8396,6.3926,13.3033,5.2225,8.0905,12.1165,8.6178,-1.0045,-2.0744
-2.9736,4.5801,-0.5999,4.1134,7.8783,2.8317,9.5294,2.5808,5.0523,10.8578,7.6408,10.4028,16.0961,14.1608,-2.2281,6.6694,6.5821,0.3057,8.8189,10.1305,12.9794,10.8523,6.4783,13.4986,5.3476,8.2624,12.356,8.8743,-0.9335,-1.8427
-3.0911,4.4527,-1.1021,4.0009,7.8433,2.819,9.591,2.5822,5.1281,10.9367,7.7632,10.5173,16.2252,14.2276,-2.6524,6.379,6.3166,0.0477,8.7594,9.9529,12.9527,10.915,6.6086,13.6848,5.4486,8.3794,12.532,9.0581,-0.8526,-1.6245
-3.1337,4.2847,-1.461,3.8079,7.7752,2.9255,9.6262,2.61,5.1819,10.9705,7.8079,10.5163,16.3228,14.2767,-2.9529,6.067,6.0012,-0.1422,8.7155,9.7645,12.9298,11.0191,6.7609,13.8582,5.5252,8.4418,12.6405,9.1607,-0.7834,-1.4491
-3.1107,4.1014,-1.6311,3.569,7.7056,3.1499,9.6532,2.6795,5.2286,10.9697,7.7797,10.3995,16.3945,14.3245,-3.1181,5.7376,5.6432,-0.2445,8.6743,9.5743,12.9214,11.1517,6.9128,14.014,5.5789,8.4558,12.6819,9.1818,-0.7501,-1.3388
-3.034,3.9404,-1.5926,3.3379,7.6724,3.4757,9.6902,2.7996,5.2814,10.9474,7.6915,10.1799,16.4492,14.39,-3.1491,5.4103,5.2725,-0.2412,8.6345,9.4025,12.9437,11.3004,7.0488,14.1463,5.612,8.4293,12.6599,9.1269,-0.7711,-1.3081
-2.9158,3.8418,-1.3558,3.1724,7.709,3.8705,9.75,2.9691,5.347,10.9149,7.5598,9.8797,16.4976,14.4922,-3.0581,5.1192,4.9376,-0.1187,8.6092,9.2789,13.0163,11.458,7.1648,14.2501,5.6278,8.3688,12.5799,9.0054,-0.8511,-1.3636
-2.7657,3.8379,-0.959,3.1203,7.8368,4.2891,9.8377,3.1748,5.4232,10.8788,7.4016,9.5276,16.5501,14.6464,-2.8653,4.9069,4.6965,0.1263,8.6245,9.2392,13.159,11.6257,7.2692,14.3224,5.6308,8.2768,12.4484,8.8281,-0.9775,-1.5032
-2.589,3.9455,-0.4606,3.2071,8.0601,4.682,9.9502,3.3931,5.4985,10.8401,7.2305,9.154,16.6155,14.8626,-2.5959,4.8161,4.6041,0.483,8.7136,9.3172,13.3878,11.8118,7.3797,14.3629,5.627,8.1522,12.2717,8.6063,-1.1213,-1.715
-2.3865,4.1601,0.0735,3.4304,8.3655,5.005,10.0775,3.5946,5.556,10.7945,7.0561,8.7877,16.6997,15.1431,-2.2754,4.8783,4.6995,0.9244,8.908,9.5363,13.7103,12.0285,7.5182,14.3739,5.6224,7.9919,12.0558,8.3502,-1.243,-1.9776
-2.1563,4.4542,0.5824,3.7596,8.7246,5.2284,10.2059,3.7505,5.5777,10.7349,6.8838,8.4531,16.8043,15.4815,-1.9266,5.1042,4.9955,1.4098,9.2269,9.9011,14.1219,12.2858,7.703,14.3584,5.6215,7.7931,11.8054,8.0686,-1.3019,-2.262
-1.8972,4.7822,1.0208,4.1441,9.0994,5.3428,10.3199,3.8389,5.5495,10.653,6.7155,8.1684,16.9258,15.8623,-1.5672,5.4791,5.4733,1.8909,9.6696,10.3944,14.6048,12.586,7.9434,14.3179,5.6242,7.5553,11.5248,7.7684,-1.2658,-2.5349
-1.6115,5.0917,1.3654,4.5268,9.4517,5.3596,10.4047,3.8501,5.4641,10.5412,6.5514,7.944,17.0545,16.2617,-1.2106,5.9646,6.0849,2.3215,10.2127,10.9783,15.1295,12.9211,8.2355,14.2517,5.6247,7.2821,11.2168,7.4545,-1.1198,-2.7637
-1.3061,5.3391,1.615,4.8611,9.7514,5.3084,10.4486,3.788,5.3217,10.3938,6.3905,7.7825,17.1754,16.6502,-0.8668,6.5077,6.7612,2.6676,10.8115,11.6025,15.66,13.2715,8.5611,14.156,5.612,6.9804,10.8843,7.1308,-0.8702,-2.9224
-0.9919,5.5031,1.7878,5.124,9.9838,5.2303,10.4443,3.6685,5.1294,10.2083,6.2313,7.6787,17.2697,16.9971,-0.5438,7.0529,7.4267,2.9155,11.4081,12.2143,16.1594,13.6097,8.8907,14.0262,5.5715,6.6602,10.5303,6.8015,-0.5441,-2.9959
-0.682,5.5926,1.9143,5.3215,10.1521,5.1695,10.3895,3.5153,4.8993,9.9855,6.0721,7.6213,17.3174,17.2749,-0.2473,7.5545,8.0147,3.0748,11.9433,12.7697,16.596,13.9063,9.1899,13.859,5.4896,6.3317,10.1595,6.4716,-0.184,-2.9831
-0.3884,5.6428,2.0298,5.484,10.2756,5.1655,10.2873,3.3549,4.646,9.7295,5.911,7.5936,17.3012,17.4633,0.0198,7.9862,8.4823,3.1752,12.3691,13.2402,16.9482,14.1372,9.4283,13.6548,5.3572,6.0044,9.7781,6.1479,0.1613,-2.8978
-0.1196,5.7039,2.167,5.6536,10.3826,5.2448,10.1453,3.2111,4.3843,9.4479,5.7463,7.5762,17.2088,17.5523,0.2584,8.3435,8.8173,3.2569,12.6596,13.616,17.2066,14.2891,9.5864,13.419,5.1719,5.6847,9.394,5.8374,0.4474,-2.7643
0.1215,5.824,2.3509,5.8674,10.503,5.4177,9.9749,3.1019,4.1284,9.1509,5.5769,7.5493,17.0361,17.5424,0.4736,8.64,9.0382,3.3576,12.8146,13.9031,17.3734,14.3621,9.6603,13.1609,4.9388,5.3767,9.0155,5.5458,0.6441,-2.6126
0.3374,6.0343,2.5947,6.146,10.6608,5.6799,9.7893,3.0377,3.8896,8.8504,5.4021,7.4954,16.7876,17.4443,0.6731,8.8995,9.1849,3.5008,12.8569,14.1182,17.4601,14.3673,9.6611,12.8922,4.669,5.0818,8.6497,5.2756,0.7423,-2.4708
0.5352,6.3415,2.8982,6.4883,10.8693,6.017,9.602,3.0213,3.6765,8.5588,5.222,7.4012,16.476,17.2758,0.8648,9.1458,9.3052,3.6897,12.8232,14.2813,17.4839,14.3223,9.6101,12.6236,4.3766,4.8006,8.3014,5.025,0.7563,-2.3591
0.725,6.7283,3.2479,6.8756,11.1297,6.4102,9.4247,3.0495,3.4936,8.2873,5.0371,7.259,16.1201,17.0589,1.054,9.395,9.4396,3.9079,12.753,14.4108,17.4632,14.2446,9.5308,12.3624,4.0755,4.5325,7.9718,4.788,0.7198,-2.2856
0.9181,7.1613,3.6199,7.28,11.432,6.8383,9.2659,3.1146,3.3412,8.0436,4.8472,7.0663,15.7419,16.8168,1.2402,9.6507,9.6093,4.1268,12.6786,14.5191,17.4148,14.1474,9.442,12.1117,3.7772,4.2775,7.6591,4.556,0.677,-2.2458
1.1243,7.6,3.984,7.6738,11.7587,7.2771,9.1296,3.2057,3.2153,7.8307,4.6515,6.8254,15.3634,16.5707,1.4173,9.9045,9.8117,4.3172,12.6191,14.6121,17.352,14.0377,9.3539,11.8707,3.4906,4.0356,7.3598,4.3203,0.6699,-2.2262
1.3485,8.0057,4.3085,8.0354,12.089,7.6982,9.015,3.309,3.1082,7.6464,4.4486,6.542,15.0044,16.3385,1.5761,10.1396,10.0231,4.4605,12.581,14.6906,17.2846,13.919,9.2682,11.6371,3.2229,3.8083,7.0711,4.0755,0.7261,-2.212
1.5875,8.3466,4.5663,8.3499,12.4021,8.069,8.9172,3.4089,3.0094,7.4835,4.2363,6.2246,14.6807,16.1343,1.7088,10.3373,10.2087,4.554,12.5627,14.7529,17.2196,13.7951,9.1818,11.4107,2.9821,3.5987,6.7934,3.8217,0.8495,-2.1956
1.8287,8.6003,4.7395,8.6078,12.6796,8.3573,8.8286,3.4889,2.9079,7.332,4.0133,5.8841,14.404,15.9675,1.8126,10.4833,10.3364,4.6103,12.5607,14.7986,17.1634,13.6739,9.0918,11.1951,2.7785,3.412,6.5322,3.5656,1.0184,-2.1825
2.0514,8.7561,4.8225,8.8029,12.9083,8.5392,8.7415,3.5343,2.7955,7.1827,3.7805,5.5349,14.1819,15.844,1.891,10.5729,10.3883,4.65,12.575,14.8315,17.1237,13.5693,8.9986,10.9993,2.6248,3.2545,6.298,3.3191,1.1908,-2.1919
2.2309,8.8159,4.8228,8.933,13.0831,8.6075,8.652,3.5359,2.6702,7.0306,3.5428,5.1946,14.0188,15.7676,1.9538,10.6135,10.3687,4.6932,12.6117,14.8615,17.1108,13.4996,8.9098,10.8371,2.5343,3.1335,6.1058,3.097,1.3158,-2.2511
2.3451,8.7959,4.7602,9.0019,13.2092,8.5774,8.5619,3.4934,2.5373,6.8774,3.3092,4.8836,13.9174,15.7405,2.0155,10.6241,10.304,4.7531,12.6816,14.9044,17.137,13.4846,8.8399,10.725,2.5175,3.056,5.9722,2.9146,1.3476,-2.387
2.3812,8.7247,4.664,9.0214,13.3019,8.4845,8.4804,3.4169,2.4099,6.7312,3.0924,4.623,13.878,15.7638,2.0917,10.6308,10.2355,4.8334,12.7964,14.9781,17.2144,13.54,8.8094,10.6784,2.5785,3.0273,5.9119,2.7848,1.2592,-2.6157
2.34,8.6399,4.5689,9.0112,13.3843,8.3771,8.421,3.3253,2.305,6.6046,2.9063,4.4311,13.8982,15.8361,2.1958,10.6601,10.2067,4.9304,12.9621,15.0967,17.3498,13.6716,8.8379,10.7074,2.7117,3.05,5.9337,2.7162,1.0516,-2.9345
2.2385,8.5817,4.5091,8.9974,13.481,8.303,8.3981,3.2416,2.2395,6.5102,2.7631,4.3192,13.9711,15.9514,2.3339,10.7316,10.2501,5.0364,13.1746,15.2649,17.54,13.8718,8.9381,10.8124,2.901,3.1215,6.0369,2.7117,0.7564,-3.3173
2.1072,8.5858,4.5116,9.008,13.6124,8.2982,8.4221,3.1876,2.2253,6.4578,2.671,4.289,14.0851,16.0976,2.5017,10.8523,10.3774,5.1422,13.4179,15.4741,17.7693,14.1193,9.1096,10.9825,3.1218,3.2336,6.2099,2.7681,0.4301,-3.7172
1.9839,8.676,4.5912,9.0696,13.79,8.38,8.4958,3.1775,2.2666,6.4515,2.6325,4.3314,14.2239,16.2573,2.6832,11.015,10.5765,5.2393,13.6665,15.7023,18.0108,14.3826,9.3374,11.1966,3.3449,3.3725,6.4313,2.8759,0.1414,-4.0742
1.9048,8.8596,4.7464,9.2029,14.0135,8.5462,8.6127,3.2148,2.3587,6.4894,2.6447,4.4278,14.3684,16.4087,2.8533,11.2003,10.8163,5.3183,13.8911,15.919,18.2303,14.6266,9.5945,11.4263,3.5416,3.5202,6.6724,3.0201,-0.0448,-4.3291
1.8942,9.1261,4.959,9.4203,14.272,8.7783,8.7577,3.291,2.4881,6.5643,2.6994,4.5539,14.4989,16.5294,2.9831,11.3813,11.0561,5.3678,14.0649,16.0916,18.394,14.8187,9.8472,11.6404,3.6892,3.6574,6.9025,3.1811,-0.084,-4.4382
1.9575,9.4498,5.1964,9.7236,14.5461,9.047,8.9089,3.3883,2.6354,6.6644,2.7853,4.6839,14.5981,16.5994,3.0467,11.5301,11.2566,5.374,14.1686,16.1938,18.4748,14.9337,10.0618,11.81,3.7739,3.7664,7.0935,3.3372,0.0357,-4.3866
2.0781,9.7949,5.4174,10.1015,14.8124,9.3175,9.0422,3.4836,2.7785,6.7758,2.8899,4.7962,14.6531,16.6037,3.0282,11.6228,11.3887,5.3228,14.1933,16.2101,18.4577,14.9575,10.2108,11.9117,3.7917,3.8336,7.2241,3.4665,0.2904,-4.1929
2.2212,10.12,5.5793,10.5265,15.0456,9.5529,9.1347,3.554,2.8969,6.884,3.0009,4.8766,14.6565,16.5328,2.925,11.6425,11.437,5.2036,14.1396,16.1374,18.3404,14.8861,10.2757,11.9299,3.747,3.8516,7.2824,3.5506,0.626,-3.906
2.342,10.3813,5.6453,10.9515,15.2205,9.7186,9.1685,3.5817,2.9759,6.9758,3.1081,4.9206,14.6067,16.3822,2.7488,11.5795,11.3986,5.0129,14.0143,15.9819,18.1301,14.7242,10.2485,11.8572,3.6495,3.819,7.2661,3.5773,0.9726,-3.5923
2.3973,10.5349,5.5912,11.3115,15.3126,9.7862,9.133,3.5574,3.0086,7.0413,3.2043,4.9328,14.5063,16.1516,2.5225,11.4294,11.2781,4.7573,13.827,15.7534,17.8392,14.4818,10.1303,11.6946,3.5116,3.7402,7.1816,3.5435,1.2621,-3.3195
2.356,10.5414,5.409,11.5312,15.3003,9.7374,9.0258,3.4817,2.9967,7.0742,3.2847,4.9246,14.3616,15.8444,2.2756,11.1912,11.0822,4.4538,13.5861,15.4604,17.4811,14.1725,9.9294,11.4505,3.3459,3.6242,7.0412,3.4563,1.4445,-3.1401
2.2065,10.3713,5.1085,11.5418,15.1696,9.5681,8.8536,3.3643,2.9489,7.0732,3.3467,4.9096,14.1809,15.4692,2.0389,10.8674,10.8172,4.1292,13.2986,15.1082,17.0679,13.8116,9.6604,11.1407,3.1637,3.4829,6.8611,3.3318,1.4976,-3.0809
1.958,10.0139,4.7154,11.2994,14.9191,9.2892,8.631,3.2222,2.8776,7.0413,3.3886,4.8996,13.9739,15.0411,1.838,10.4648,10.4888,3.8172,12.9705,14.7003,16.6117,13.416,9.3415,10.7871,2.9756,3.3296,6.6585,3.1915,1.43,-3.1401
1.6369,9.4827,4.2694,10.8008,14.5639,8.9254,8.3786,3.0756,2.7956,6.9848,3.4089,4.9007,13.7498,14.5822,1.6899,9.9972,10.1046,3.5521,12.609,14.2416,16.1265,13.004,8.993,10.4156,2.7909,3.1769,6.4494,3.0573,1.2774,-3.293
1.2803,8.8175,3.8185,10.088,14.1346,8.511,8.12,2.9442,2.7134,6.9115,3.4057,4.9114,13.517,14.1202,1.6001,9.487,9.6777,3.3612,12.2255,13.7433,15.6304,12.5945,8.6354,10.0531,2.618,3.035,6.2464,2.9465,1.0943,-3.5007
0.9291,8.0813,3.4138,9.2435,13.6735,8.0848,7.8781,2.8435,2.637,6.8296,3.3768,4.9235,13.2824,13.6857,1.5639,8.9667,9.2298,3.258,11.8374,13.2264,15.1468,12.2078,8.2881,9.7242,2.4639,2.9099,6.058,2.8679,0.9423,-3.7212
0.6218,7.3513,3.1009,8.374,13.227,7.6849,7.6719,2.7818,2.5689,6.7461,3.3211,4.9238,13.0517,13.3072,1.5698,8.4771,8.7906,3.2395,11.4678,12.7213,14.7026,11.8637,7.9694,9.4471,2.3337,2.803,5.8876,2.8202,0.8779,-3.9179
0.3906,6.7071,2.9132,7.5899,12.8377,7.3438,7.5145,2.76,2.5101,6.6672,3.2398,4.8987,12.8303,13.0072,1.605,8.062,8.3947,3.2894,11.1425,12.2655,14.3247,11.5805,7.6956,9.2316,2.23,2.7108,5.7349,2.7926,0.9412,-4.0647
0.2589,6.2169,2.8668,6.983,12.5373,7.0852,7.4117,2.7727,2.4622,6.5988,3.1386,4.8383,12.6233,12.7978,1.6611,7.7617,8.0746,3.3851,10.8838,11.8962,14.0349,11.3718,7.4808,9.0783,2.1517,2.6268,5.5972,2.7686,1.1476,-4.1478
0.2391,5.9258,2.9579,6.6099,12.3422,6.9227,7.3622,2.8113,2.4289,6.546,3.0279,4.7397,12.4361,12.6783,1.7367,7.6038,7.8519,3.5068,10.7039,11.6425,13.8444,11.2432,7.3347,8.9794,2.0935,2.543,5.4708,2.7309,1.4856,-4.1639
0.3309,5.8473,3.1641,6.4828,12.2507,6.8597,7.3582,2.8665,2.4157,6.5129,2.9215,4.6086,12.2718,12.6346,1.8365,7.5955,7.7307,3.6415,10.5992,11.5164,13.7496,11.1888,7.2591,8.9208,2.0465,2.4522,5.3521,2.6658,1.9188,-4.1186
0.5186,5.9595,3.4479,6.5696,12.2443,6.8896,7.3865,2.9307,2.428,6.5007,2.8337,4.4584,12.1297,12.6393,1.9661,7.7188,7.6932,3.7831,10.5492,11.5073,13.7301,11.1901,7.2457,8.8847,1.9988,2.3492,5.2376,2.5683,2.3931,-4.0233
0.7706,6.2079,3.7622,6.803,12.2909,6.9956,7.4299,2.9983,2.4678,6.5061,2.776,4.3063,12.0029,12.6552,2.1255,7.9308,7.7034,3.9277,10.521,11.5817,13.7506,11.2184,7.2769,8.8527,1.9385,2.2329,5.1236,2.4428,2.8462,-3.8946
1.0427,6.5142,4.0567,7.0951,12.3506,7.1506,7.4684,3.0652,2.5314,6.5194,2.7529,4.1697,11.8783,12.6403,2.3028,8.171,7.7155,4.0665,10.4781,11.6891,13.7664,11.2397,7.3287,8.8085,1.8567,2.1064,5.0058,2.3017,3.2205,-3.7514
1.2849,6.7911,4.2868,7.3551,12.3828,7.3185,7.4811,3.1263,2.6081,6.5253,2.7601,4.061,11.7377,12.5549,2.4703,8.3736,7.6869,4.1818,10.3903,11.7724,13.7319,11.2215,7.3759,8.7402,1.7509,1.9779,4.8799,2.1606,3.4742,-3.611
1.4522,6.9593,4.4202,7.5051,12.3525,7.4588,7.4485,3.1742,2.6812,6.5042,2.7848,3.9846,11.5613,12.3684,2.5861,8.4812,7.5896,4.2469,10.2413,11.7813,13.6095,11.1395,7.3968,8.6412,1.6263,1.8592,4.7427,2.0334,3.5898,-3.4857
1.513,6.9626,4.4427,7.4909,12.2349,7.534,7.3539,3.1985,2.7308,6.4355,2.8071,3.935,11.3311,12.0647,2.601,8.4572,7.4169,4.2313,10.0321,11.6829,13.3778,10.9818,7.3771,8.5101,1.4945,1.7637,4.5925,1.9281,3.5773,-3.3811
1.454,6.7782,4.3592,7.2888,12.0183,7.5176,7.186,3.1885,2.7382,6.3017,2.8046,3.8982,11.0349,11.6452,2.4717,8.2913,7.1829,4.1093,9.7783,11.4676,13.035,10.7496,7.3108,8.3492,1.3705,1.7027,4.4296,1.845,3.4709,-3.2984
1.2811,6.4213,4.1899,6.9079,11.7065,7.4003,6.941,3.1355,2.6913,6.0924,2.7565,3.854,10.668,11.1282,2.1758,7.9998,6.9163,3.8691,9.5037,11.1496,12.5992,10.4559,7.1992,8.1619,1.2678,1.6816,4.2556,1.7767,3.3198,-3.2403
1.0147,5.9436,3.9642,6.3895,11.3201,7.1921,6.6258,3.0378,2.5875,5.8078,2.6486,3.7807,10.2354,10.546,1.7247,7.62,6.6513,3.5197,9.2331,10.7622,12.1041,10.1216,7.0476,7.9508,1.1941,1.6967,4.072,1.7105,3.1761,-3.2164
0.6857,5.4242,3.7146,5.8026,10.8961,6.9202,6.2584,2.9028,2.4364,5.461,2.4774,3.6606,9.7522,9.9404,1.1684,7.2017,6.4183,3.0933,8.9869,10.3495,11.593,9.7711,6.8631,7.7173,1.1489,1.735,3.8797,1.6322,3.0826,-3.2442
0.3308,4.9541,3.472,5.2315,10.484,6.6244,5.8689,2.7487,2.2589,5.0782,2.252,3.4841,9.243,9.3571,0.5883,6.7979,6.2382,2.6414,8.7782,9.9576,11.1115,9.4284,6.6523,7.4617,1.124,1.7753,3.6781,1.5302,3.0635,-3.3439
-0.0107,4.6175,3.2641,4.7603,10.1368,6.3499,5.4955,2.6016,2.0842,4.6965,1.9943,3.2529,8.7397,8.8396,0.079,6.4557,6.1206,2.2257,8.613,9.6257,10.6997,9.1149,6.422,7.1855,1.1057,1.7926,3.4654,1.3974,3.1215,-3.528
-0.299,4.4731,3.1145,4.4557,9.9006,6.1394,5.1798,2.4914,1.9453,4.359,1.7359,2.9811,8.2778,8.4239,-0.2754,6.2105,6.0673,1.9068,8.4935,9.381,10.3873,8.8488,6.1829,6.8941,1.0787,1.7626,3.2401,1.2324,3.2405,-3.7902
-0.4975,4.5437,3.041,4.3547,9.8055,6.0248,4.96,2.4458,1.873,4.109,1.5139,2.6934,7.8926,8.1345,-0.4228,6.0836,6.0779,1.7317,8.422,9.2366,10.1906,8.6464,5.954,6.599,1.0303,1.6677,3.0026,1.0388,3.3935,-4.0996
-0.5767,4.814,3.0533,4.4598,9.8589,6.0205,4.8638,2.4838,1.8899,3.9817,1.3639,2.4212,7.6136,7.982,-0.3555,6.0817,6.1544,1.7248,8.404,9.1936,10.1127,8.5233,5.7641,6.3184,0.9539,1.5012,2.757,0.8239,3.553,-4.4026
-0.5197,5.2374,3.1504,4.7426,10.0452,6.1202,4.9023,2.6108,2.0048,3.9978,1.3126,2.197,7.4602,7.9624,-0.1103,6.1997,6.3017,1.8824,8.448,9.2444,10.145,8.4935,5.6479,6.0743,0.8502,1.2688,2.512,0.5965,3.6984,-4.635
-0.3271,5.7495,3.3182,5.153,10.3284,6.299,5.0669,2.8155,2.2097,4.1571,1.3723,2.0479,7.4371,8.0582,0.2442,6.4223,6.5227,2.1735,8.5616,9.3762,10.2707,8.5659,5.6372,5.8888,0.727,0.989,2.28,0.3668,3.8203,-4.7393
-0.0203,6.2829,3.5307,5.6311,10.6605,6.5205,5.3296,3.0712,2.4793,4.4375,1.5366,1.9907,7.5332,8.241,0.6271,6.7263,6.8104,2.5455,8.746,9.5733,10.4669,8.7404,5.7507,5.7788,0.5977,0.6898,2.0755,0.1465,3.9174,-4.6824
0.3594,6.7802,3.7538,6.1189,10.9898,6.7461,5.6469,3.3389,2.7743,4.7969,1.7812,2.0297,7.7217,8.4746,0.9675,7.0829,7.1428,2.9361,8.9907,9.8176,10.7066,9.0043,5.9855,5.7524,0.4786,0.4046,1.913,-0.0499,3.9925,-4.4671
0.7562,7.2019,3.9523,6.5685,11.2704,6.9428,5.9668,3.5744,3.0476,5.1794,2.0674,2.1567,7.9639,8.7196,1.2218,7.4591,7.4821,3.2875,9.273,10.0884,10.96,9.3314,6.3157,5.8068,0.3864,0.1674,1.8044,-0.2048,4.0465,-4.1346
1.1092,7.527,4.0982,6.9449,11.4676,7.0872,6.2373,3.7348,3.2524,5.5248,2.349,2.3536,8.2143,8.9379,1.3817,7.821,7.782,3.5612,9.5611,10.3619,11.1962,9.6853,6.6965,5.9291,0.3358,0.0076,1.7576,-0.2984,4.0757,-3.7551
1.3646,7.7497,4.1768,7.2256,11.5608,7.1644,6.4136,3.786,3.35,5.7772,2.5795,2.5962,8.4281,9.0966,1.47,8.1371,7.9987,3.7458,9.8207,10.6123,11.3861,10.0248,7.0747,6.099,0.338,-0.0535,1.7755,-0.3121,4.073,-3.4101
1.4875,7.8732,4.1899,7.3967,11.5426,7.1638,6.4639,3.7074,3.316,5.8936,2.7203,2.858,8.5671,9.1717,1.5265,8.3823,8.1023,3.8569,10.0223,10.8149,11.5055,10.3118,7.4003,6.2919,0.3986,-0.0064,1.8559,-0.2334,4.0304,-3.1699
1.4708,7.9038,4.154,7.4498,11.416,7.0764,6.3732,3.4967,3.1452,5.8494,2.746,3.1136,8.6052,9.1492,1.5886,8.5409,8.0852,3.9265,10.1462,10.9494,11.5385,10.5168,7.6365,6.4822,0.5163,0.1455,1.9911,-0.0605,3.9443,-3.074
1.3364,7.8475,4.0941,7.3795,11.1908,6.8954,6.1439,3.1699,2.8522,5.6411,2.6481,3.3408,8.5312,9.0256,1.6752,8.6082,7.9642,3.9876,10.1853,11.0029,11.4792,10.6233,7.7646,6.6462,0.6819,0.3851,2.1687,0.1939,3.8185,-3.1202
1.1295,7.7082,4.036,7.1842,10.8815,6.6208,5.795,2.7603,2.4692,5.2859,2.4348,3.5223,8.3492,8.807,1.7796,8.5898,7.7752,4.0598,10.1446,10.9715,11.3314,10.6284,7.7839,6.764,0.8775,0.6843,2.3723,0.5025,3.6663,-3.2676
0.9065,7.4909,3.9978,6.8716,10.5072,6.2642,5.3589,2.3136,2.0408,4.818,2.1293,3.6462,8.0772,8.5075,1.8739,8.4991,7.5625,4.1429,10.0377,10.8598,11.1066,10.5411,7.7085,6.822,1.0785,1.0071,2.5826,0.8272,3.5083,-3.4502
0.7213,7.2067,3.9864,6.4644,10.0919,5.8524,4.8775,1.8804,1.6163,4.283,1.765,3.706,7.7435,8.1474,1.9222,8.3537,7.3657,4.2183,9.8828,10.6797,10.8212,10.3792,7.5619,6.8134,1.2562,1.3154,2.7795,1.126,3.3684,-3.5983
0.6128,6.8779,3.9977,6.0046,9.6652,5.4266,4.3963,1.5088,1.242,3.7312,1.3801,3.7004,7.3816,7.7515,1.8964,8.1721,7.2096,4.259,9.6975,10.448,10.4942,10.1644,7.3715,6.7391,1.383,1.5745,2.9438,1.3616,3.268,-3.6589
0.5976,6.54,4.0216,5.5501,9.2599,5.0359,3.9587,1.2367,0.9541,3.2106,1.0116,3.6322,7.0255,7.3463,1.7892,7.9722,7.1004,4.2415,9.496,10.1845,10.1456,9.9185,7.1632,6.6064,1.4377,1.7577,3.0595,1.508,3.2212,-3.6106
0.67,6.2369,4.0487,5.1639,8.9079,4.7274,3.6,1.0854,0.7735,2.7608,0.691,3.508,6.704,6.9578,1.6184,7.7699,7.0277,4.1555,9.2872,9.9106,9.7952,9.6594,6.957,6.4274,1.4103,1.8498,3.1149,1.5556,3.2322,-3.4672
0.8074,6.0107,4.0752,4.8985,8.6349,4.5349,3.3428,1.0572,0.7041,2.409,0.4398,3.3372,6.4374,6.6082,1.4221,7.5788,6.9718,4.0069,9.075,9.6469,9.4621,9.4,6.7629,6.2164,1.3039,1.8478,3.1041,1.5104,3.2956,-3.2699
0.9793,5.8899,4.1059,4.7828,8.4556,4.4711,3.1947,1.1357,0.7331,2.1681,0.2681,3.1301,6.235,6.3138,1.2465,7.4093,6.9111,3.8131,8.8594,9.4108,9.163,9.1471,6.5806,5.9875,1.134,1.7596,3.0266,1.3901,3.3992,-3.072
1.1553,5.8804,4.152,4.8159,8.3723,4.5265,3.149,1.2895,0.8351,2.0368,0.1742,2.8979,6.0964,6.0836,1.1301,7.2679,6.8281,3.5956,8.6386,9.2143,8.9111,8.9038,6.4013,5.7526,0.9244,1.6008,2.8874,1.2177,3.5264,-2.9224
1.3118,5.9663,4.2259,4.9718,8.3765,4.6737,3.1875,1.4795,0.9781,2.0027,0.1467,2.6508,6.0139,5.92,1.0932,7.1568,6.7128,3.3721,8.4117,9.0638,8.716,8.673,6.2145,5.522,0.702,1.3911,2.6962,1.0152,3.6601,-2.8526
1.4349,6.1169,4.3346,5.2097,8.4523,4.8756,3.2863,1.6675,1.1297,2.0465,0.1679,2.3992,5.9776,5.8221,1.1324,7.0763,6.5658,3.1528,8.1831,8.9615,8.5849,8.4618,6.0154,5.3054,0.4917,1.1517,2.4673,0.8002,3.785,-2.8713
1.5211,6.2991,4.4747,5.4868,8.5808,5.0934,3.4216,1.8237,1.2639,2.1471,0.2177,2.153,5.9794,5.7882,1.2249,7.0272,6.3997,2.9404,7.9662,8.9084,8.5241,8.2848,5.8126,5.1148,0.3133,0.9023,2.2196,0.5844,3.8885,-2.9663
1.5744,6.4872,4.6311,5.7672,8.7429,5.2934,3.5736,1.9327,1.3649,2.285,0.2779,1.9223,6.0159,5.8178,1.3371,7.0136,6.2393,2.7338,7.7848,8.906,8.5394,8.1641,5.6305,4.9643,0.1791,0.6603,1.9749,0.3746,3.9632,-3.1125
1.6022,6.6667,4.7797,6.0258,8.9201,5.4506,3.7285,1.9946,1.4282,2.4444,0.3345,1.7164,6.087,5.9101,1.4354,7.0416,6.1167,2.5339,7.6692,8.9556,8.6342,8.1234,5.5044,4.8687,0.0941,0.4395,1.7555,0.1742,4.0071,-3.2819
1.6111,6.8328,4.8936,6.2478,9.0957,5.5508,3.8774,2.0218,1.4583,2.6128,0.3791,1.5435,6.1924,6.0602,1.4947,7.1154,6.0612,2.3489,7.646,9.0548,8.8048,8.1791,5.4682,4.8383,0.0555,0.2499,1.5801,-0.0143,4.0238,-3.4516
1.6035,6.9856,4.9506,6.4286,9.2554,5.5904,4.0137,2.0335,1.4653,2.7792,0.4086,1.409,6.3262,6.254,1.5026,7.2307,6.0866,2.1958,7.725,9.1927,9.0353,8.3286,5.539,4.8741,0.0541,0.0971,1.4604,-0.1879,4.0213,-3.6075
1.5772,7.1239,4.9396,6.571,9.3884,5.5758,4.1304,2.0481,1.4603,2.9323,0.4237,1.3162,6.4738,6.4651,1.458,7.3689,6.1788,2.0973,7.8864,9.3456,9.2948,8.5423,5.7028,4.9636,0.0758,-0.0173,1.3981,-0.3413,4.0097,-3.7422
1.5275,7.2414,4.8646,6.6837,9.4884,5.5227,4.2185,2.0778,1.4525,3.0597,0.4279,1.2658,6.6107,6.6557,1.3665,7.4952,6.291,2.0745,8.0767,9.477,9.5371,8.7621,5.9095,5.08,0.1041,-0.0954,1.3847,-0.4665,3.9995,-3.8507
1.4494,7.3237,4.7447,6.7772,9.5536,5.4548,4.2666,2.1259,1.4478,3.1485,0.4265,1.2572,6.706,6.7809,1.2351,7.5619,6.3494,2.139,8.215,9.5422,9.7072,8.9106,6.0797,5.1863,0.1224,-0.1432,1.4034,-0.5534,4.0013,-3.9246
1.3412,7.3505,4.6111,6.8611,9.5862,5.401,4.2633,2.1876,1.4489,3.1874,0.4256,1.2888,6.7281,6.7975,1.0691,7.5173,6.2687,2.2896,8.2101,9.497,9.7508,8.9066,6.1219,5.2422,0.117,-0.1691,1.4335,-0.5919,4.0259,-3.9514
1.2054,7.3004,4.4987,6.942,9.5911,5.3905,4.1998,2.2531,1.4561,3.1692,0.4313,1.3575,6.6522,6.6738,0.8704,7.3178,5.9736,2.5127,7.9828,9.3075,9.6261,8.6839,5.9548,5.2129,0.0792,-0.183,1.455,-0.5746,4.0839,-3.9164
1.0478,7.1593,4.4377,7.0242,9.5752,5.4457,4.0727,2.3114,1.4682,3.0929,0.4481,1.4588,6.4668,6.3971,0.64,6.94,5.4195,2.7877,7.487,8.9592,9.3144,8.2086,5.5289,5.0775,0.0059,-0.1947,1.4525,-0.4998,4.1833,-3.8088
0.8756,6.9278,4.4439,7.1102,9.5461,5.5753,3.8871,2.3548,1.4828,2.9646,0.4778,1.5856,6.1773,5.9784,0.3798,6.3892,4.6066,3.0929,6.7229,8.4622,8.8262,7.4882,4.8406,4.8346,-0.0998,-0.2117,1.4184,-0.3732,4.3263,-3.6291
0.6951,6.6238,4.5142,7.2017,9.5115,5.7705,3.6569,2.381,1.498,2.7983,0.5193,1.7286,5.8067,5.4512,0.0967,5.701,3.5831,3.4105,5.7411,7.8509,8.2019,6.5731,3.9365,4.5036,-0.2297,-0.2379,1.3536,-0.2087,4.5059,-3.3918
0.5109,6.2803,4.6275,7.2997,9.4779,6.0058,3.4039,2.3942,1.512,2.6136,0.5682,1.8769,5.3919,4.8665,-0.1971,4.9363,2.4375,3.7283,4.6334,7.1777,7.5045,5.5485,2.9057,4.1212,-0.3725,-0.2732,1.2668,-0.0257,4.7059,-3.125
