FP1,F3,F7,FC3,C3,C5,P3,P7,PO7,PO3,O1,Oz,Pz,CPz,FP2,Fz,F4,F8,FC4,FCz,Cz,C4,C6,P4,P8,PO8,PO4,O2,(corr) HEOG,(corr) VEOG
0.2662,1.6571,1.5386,-0.4621,-0.2884,-0.3306,-0.065,-2.6053,-2.043,-0.4955,0.2842,0.2937,1.5632,2.9191,1.0691,1.6873,1.3577,-0.9739,1.1587,2.8896,3.4639,0.9264,0.2526,1.1685,-0.0903,-0.5354,0.6015,0.1295,-1.0234,-1.2815
0.711,2.1716,1.8204,0.2855,0.5067,0.3786,0.0106,-2.1469,-2.0462,-0.4966,0.5988,0.7738,1.7132,3.0734,1.2627,2.1417,1.6016,-0.4593,1.4918,3.1559,3.6421,1.407,0.6368,1.6599,0.1652,0.2565,1.4589,1.0083,-0.7192,-1.2318
1.0891,2.6042,2.0369,0.9373,1.2186,1.0191,0.0271,-1.7468,-2.0746,-0.5636,0.8185,1.1668,1.8066,3.2037,1.4192,2.5398,1.807,0.004,1.7875,3.393,3.8041,1.8509,0.9885,2.0791,0.3934,0.9531,2.1962,1.7612,-0.4481,-1.1967
1.3564,2.9015,2.1399,1.4219,1.7801,1.5339,-0.0481,-1.4464,-2.1366,-0.7333,0.8844,1.4093,1.8073,3.2931,1.515,2.8417,1.9501,0.3763,2.0218,3.582,3.9381,2.2319,1.2857,2.3717,0.5721,1.4722,2.7162,2.2891,-0.2326,-1.183
1.4843,3.0242,2.0954,1.692,2.1457,1.8802,-0.22,-1.2657,-2.2307,-1.0103,0.7734,1.4699,1.7031,3.3311,1.5325,3.0171,2.0116,0.6247,2.1727,3.7048,4.0314,2.5284,1.5099,2.5069,0.6905,1.7699,2.9628,2.5383,-0.0827,-1.1897
1.4659,2.9555,1.8914,1.734,2.2983,2.0372,-0.4634,-1.201,-2.3422,-1.3637,0.504,1.3538,1.5088,3.3147,1.4634,3.0506,1.981,0.7296,2.2245,3.7471,4.0722,2.7264,1.6496,2.4827,0.7504,1.8449,2.9294,2.5078,0.005,-1.2079
1.3188,2.7089,1.5449,1.5732,2.2529,2.0115,-0.7281,-1.2276,-2.4437,-1.735,0.1313,1.0997,1.2625,3.2494,1.3121,2.946,1.8611,0.6909,2.1737,3.7031,4.0519,2.8226,1.7043,2.3253,0.7636,1.7329,2.6556,2.2436,0.0464,-1.2234
1.084,2.332,1.1024,1.2738,2.0541,1.8382,-0.9506,-1.3074,-2.499,-2.0526,-0.267,0.7679,1.0163,3.1474,1.0977,2.7291,1.6712,0.5318,2.0338,3.58,3.9694,2.8268,1.6875,2.0817,0.7476,1.4902,2.2141,1.8229,0.064,-1.2215
0.8195,1.901,0.6333,0.9292,1.769,1.575,-1.0697,-1.3987,-2.471,-2.25,-0.6101,0.4242,0.8222,3.0247,0.8527,2.4447,1.4462,0.2977,1.8364,3.3997,3.832,2.7609,1.6257,1.8088,0.7186,1.1755,1.6918,1.3321,0.0796,-1.1919
0.5888,1.5064,0.2156,0.6434,1.474,1.2906,-1.0411,-1.4648,-2.3311,-2.2819,-0.8338,0.1242,0.72,2.8969,0.6184,2.1493,1.2303,0.0487,1.6262,3.1948,3.655,2.6548,1.5535,1.56,0.6863,0.8343,1.1704,0.8461,0.1065,-1.1327
0.4464,1.2303,-0.084,0.5071,1.2391,1.0491,-0.8484,-1.4803,-2.0667,-2.1341,-0.9052,-0.0992,0.7263,2.7749,0.4356,1.8979,1.0671,-0.1529,1.4504,3.0009,3.4575,2.5384,1.5052,1.3725,0.6512,0.4911,0.7111,0.4138,0.1443,-1.0508
0.4233,1.1236,-0.2277,0.5741,1.1134,0.8955,-0.5076,-1.4338,-1.6868,-1.8254,-0.829,-0.2408,0.8305,2.661,0.3342,1.7301,0.9865,-0.2572,1.3462,2.8448,3.2561,2.4329,1.5051,1.2609,0.6054,0.1504,0.3459,0.0529,0.1782,-0.96
0.5171,1.1896,-0.2175,0.8454,1.1141,0.8454,-0.064,-1.3273,-1.221,-1.4021,-0.6442,-0.3202,0.9968,2.547,0.3244,1.6589,0.9957,-0.2387,1.3284,2.7357,3.0586,2.3436,1.5596,1.2148,0.5368,-0.1942,0.0783,-0.2456,0.1831,-0.8764
0.6906,1.3804,-0.0935,1.267,1.2235,0.8837,0.417,-1.1729,-0.7147,-0.9258,-0.4117,-0.3723,1.1726,2.4148,0.3917,1.6657,1.0744,-0.1037,1.3846,2.6595,2.8611,2.2577,1.6539,1.2043,0.4352,-0.5485,-0.1099,-0.5061,0.1319,-0.8134
0.8798,1.6088,0.077,1.7428,1.3948,0.9701,0.8646,-0.9883,-0.2198,-0.4598,-0.1979,-0.4345,1.3008,2.2409,0.499,1.7047,1.1794,0.111,1.4767,2.5826,2.6485,2.1483,1.7554,1.1901,0.2977,-0.9069,-0.2479,-0.7534,0.0046,-0.7777
1.0087,1.7716,0.2173,2.1593,1.5646,1.0511,1.2167,-0.7916,0.2167,-0.0542,-0.0564,-0.534,1.3329,2.0022,0.5941,1.7156,1.2544,0.3468,1.551,2.4607,2.4003,1.9821,1.8214,1.134,0.1312,-1.248,-0.3638,-1.0008,-0.2031,-0.7673
1.008,1.7772,0.2595,2.4126,1.6687,1.0739,1.4318,-0.5977,0.5622,0.2622,-0.0148,-0.6792,1.2406,1.6837,0.6218,1.6388,1.2443,0.5374,1.5516,2.2519,2.0978,1.7303,1.8101,1.0094,-0.0485,-1.5366,-0.4755,-1.2429,-0.4756,-0.7715
0.8324,1.5686,0.1585,2.431,1.6572,0.9994,1.4947,-0.4159,0.8034,0.4846,-0.0696,-0.8574,1.0208,1.2841,0.5362,1.4311,1.1081,0.6251,1.4341,1.9289,1.7311,1.3771,1.6905,0.8074,-0.2199,-1.731,-0.5866,-1.4553,-0.7787,-0.7735
0.4705,1.136,-0.0996,2.1865,1.5036,0.8105,1.4163,-0.2495,0.9458,0.6283,-0.1898,-1.0384,0.6966,0.8188,0.3117,1.0755,0.8279,0.5738,1.176,1.4866,1.3034,0.9255,1.4507,0.5377,-0.3609,-1.7936,-0.6863,-1.6013,-1.0659,-0.7538
-0.0514,0.5167,-0.4963,1.6974,1.209,0.5157,1.2276,-0.0979,1.0075,0.7197,-0.3287,-1.1832,0.3119,0.3185,-0.0502,0.585,0.4127,0.3765,0.7813,0.9436,0.8316,0.3987,1.101,0.2267,-0.4537,-1.7003,-0.7541,-1.6417,-1.2897,-0.6947
-0.6749,-0.2155,-0.9839,1.0222,0.8005,0.1474,0.9717,0.0416,1.0125,0.7872,-0.4376,-1.2532,-0.0778,-0.1749,-0.5205,-0.0012,-0.1033,0.0567,0.2799,0.3378,0.3432,-0.1635,0.6726,-0.0891,-0.4873,-1.447,-0.767,-1.5455,-1.4123,-0.584
-1.3202,-0.9668,-1.4928,0.2475,0.3243,-0.243,0.6947,0.1716,0.9843,0.8529,-0.4786,-1.22,-0.4162,-0.6164,-1.0473,-0.6263,-0.6679,-0.3375,-0.2784,-0.2817,-0.1296,-0.7112,0.2129,-0.3698,-0.4594,-1.0516,-0.7078,-1.2984,-1.4144,-0.4179
-1.9013,-1.6414,-1.9417,-0.528,-0.1629,-0.5941,0.4377,0.2931,0.9425,0.9274,-0.4314,-1.071,-0.6562,-0.9652,-1.5652,-1.2266,-1.2196,-0.742,-0.8327,-0.8638,-0.5548,-1.1928,-0.2234,-0.5807,-0.3763,-0.5521,-0.5719,-0.9082,-1.2984,-0.2018
-2.3401,-2.1584,-2.2501,-1.2097,-0.6046,-0.8453,0.2308,0.4054,0.9012,1.008,-0.297,-0.8127,-0.7684,-1.1916,-2.0067,-1.7422,-1.6968,-1.09,-1.3207,-1.3627,-0.9056,-1.5634,-0.5838,-0.6983,-0.2519,-0.0016,-0.3703,-0.4064,-1.0857,0.0501
-2.5794,-2.4621,-2.3513,-1.7215,-0.9521,-0.9484,0.0894,0.5059,0.8677,1.0797,-0.0955,-0.4703,-0.7449,-1.2806,-2.3119,-2.1237,-2.046,-1.3239,-1.6877,-1.742,-1.1622,-1.7911,-0.8269,-0.7156,-0.1062,0.538,-0.1298,0.1556,-0.8099,0.316
-2.5897,-2.5276,-2.2047,-2.0143,-1.1711,-0.8785,0.0136,0.5901,0.841,1.1189,0.1369,-0.0845,-0.5996,-1.232,-2.4366,-2.3366,-2.2277,-1.4063,-1.8933,-1.9755,-1.311,-1.8604,-0.9293,-0.6423,0.0374,1.0033,0.1124,0.7122,-0.5077,0.5688
-2.3716,-2.3596,-1.8039,-2.0686,-1.2437,-0.6396,-0.0093,0.652,0.8113,1.0994,0.3545,0.2948,-0.3641,-1.0582,-2.3573,-2.3619,-2.2196,-1.3248,-1.9148,-2.0474,-1.3436,-1.7716,-0.8877,-0.5028,0.1553,1.3374,0.3158,1.1931,-0.2111,0.78
-1.9518,-1.9875,-1.1789,-1.8936,-1.169,-0.2648,0.0003,0.6851,0.7615,1.0004,0.5102,0.6158,-0.0807,-0.7806,-2.0727,-2.196,-2.0184,-1.0918,-1.7489,-1.9512,-1.2562,-1.5388,-0.718,-0.3298,0.2277,1.4972,0.4455,1.5344,0.0573,0.9245
-1.3763,-1.4591,-0.3925,-1.5228,-0.961,0.1901,0.0214,0.6855,0.6725,0.8141,0.5648,0.834,0.206,-0.4266,-1.6036,-1.851,-1.6399,-0.7386,-1.4109,-1.6912,-1.051,-1.1868,-0.4506,-0.1578,0.2421,1.4602,0.4793,1.6881,0.285,0.9857
-0.7023,-0.8334,0.4679,-1.0074,-0.6463,0.6573,0.0389,0.6546,0.5322,0.5533,0.4975,0.9201,0.4565,-0.0284,-0.9905,-1.3545,-1.1183,-0.3079,-0.933,-1.2853,-0.7399,-0.7484,-0.1257,-0.0167,0.1959,1.2288,0.4104,1.6308,0.4674,0.9593
0.008,-0.1754,1.3025,-0.4085,-0.2613,1.069,0.0488,0.6028,0.3454,0.2531,0.3124,0.8661,0.6416,0.3778,-0.2904,-0.7509,-0.5032,0.1545,-0.3621,-0.7683,-0.3488,-0.2634,0.2124,0.0723,0.0964,0.8316,0.2481,1.3672,0.6052,0.8553
0.6919,0.4487,2.0128,0.2097,0.1501,1.3681,0.059,0.5491,0.1405,-0.0317,0.041,0.6875,0.7445,0.7506,0.4285,-0.1003,0.1433,0.6049,0.2426,-0.1937,0.0794,0.2223,0.5199,0.0977,-0.0405,0.3204,0.0138,0.9305,0.7014,0.6962
1.2898,0.9756,2.5148,0.7835,0.5379,1.5148,0.0852,0.5191,-0.0324,-0.2382,-0.263,0.4206,0.76,1.0444,1.0929,0.5242,0.7517,1.0056,0.814,0.3675,0.4845,0.6577,0.757,0.0568,-0.1943,-0.2372,-0.2637,0.3766,0.7603,0.5135
1.747,1.3485,2.7514,1.2524,0.849,1.49,0.1435,0.5387,-0.1123,-0.3104,-0.5358,0.115,0.6912,1.2114,1.6313,1.0434,1.2519,1.3252,1.2815,0.8321,0.7937,0.989,0.8903,-0.0478,-0.3445,-0.7686,-0.554,-0.2252,0.7864,0.3413
2.0187,1.5221,2.6995,1.5621,1.0317,1.295,0.2412,0.6262,-0.0459,-0.216,-0.7187,-0.1774,0.5449,1.2071,1.9834,1.3814,1.5807,1.5383,1.5786,1.1163,0.9319,1.1648,0.8947,-0.2114,-0.475,-1.2085,-0.8309,-0.8044,0.7839,0.2105
2.0753,1.4692,2.3738,1.6705,1.0429,0.9495,0.3711,0.7858,0.1938,0.0422,-0.7728,-0.4136,0.329,0.9978,2.1082,1.4789,1.6919,1.6251,1.6529,1.15,0.8352,1.1436,0.756,-0.4282,-0.5764,-1.5097,-1.0752,-1.3008,0.7566,0.1431
1.909,1.1865,1.8245,1.5546,0.8576,0.4888,0.5109,1.0055,0.5968,0.4254,-0.6871,-0.566,0.0512,0.5695,1.9925,1.3054,1.5655,1.5745,1.4766,0.8919,0.4662,0.9036,0.4744,-0.6915,-0.6467,-1.6494,-1.2758,-1.6722,0.7069,0.149
1.539,0.6979,1.1304,1.2168,0.4759,-0.0414,0.6277,1.2582,1.1151,0.8669,-0.4792,-0.6264,-0.2795,-0.0655,1.655,0.8677,1.2134,1.3879,1.0549,0.3417,-0.1746,0.4504,0.0664,-0.9909,-0.6884,-1.6315,-1.4281,-1.8983,0.6371,0.226
1.011,0.0533,0.3862,0.6869,-0.0736,-0.5909,0.6872,1.5081,1.673,1.2874,-0.189,-0.6036,-0.6509,-0.8666,1.1443,0.2115,0.6794,1.0831,0.4285,-0.4568,-1.045,-0.1795,-0.4349,-1.3111,-0.7067,-1.4823,-1.5327,-1.9799,0.5499,0.3611
0.392,-0.679,-0.3141,0.0188,-0.7368,-1.1129,0.6623,1.717,2.1834,1.6128,0.1309,-0.5194,-1.0464,-1.7691,0.5314,-0.5857,0.0318,0.6942,-0.3322,-1.4216,-2.0658,-0.9226,-0.9833,-1.632,-0.7068,-1.2432,-1.5922,-1.9347,0.451,0.535
-0.2408,-1.4217,-0.8945,-0.7173,-1.4422,-1.571,0.5397,1.8511,2.5654,1.7885,0.4272,-0.402,-1.4444,-2.6928,-0.1031,-1.4283,-0.6489,0.2679,-1.1384,-2.4458,-3.1344,-1.698,-1.5271,-1.9298,-0.6921,-0.9601,-1.6098,-1.7906,0.3493,0.7264
-0.8119,-2.1006,-1.3094,-1.446,-2.1122,-1.9435,0.3226,1.8855,2.7585,1.7885,0.655,-0.2792,-1.8187,-3.553,-0.683,-2.2185,-1.2848,-0.1446,-1.899,-3.4163,-4.1412,-2.4209,-2.0168,-2.1795,-0.6632,-0.6726,-1.5865,-1.5783,0.2576,0.915
-1.2601,-2.6529,-1.5492,-2.0965,-2.6753,-2.224,0.0291,1.8069,2.7316,1.6165,0.7855,-0.1723,-2.1412,-4.2728,-1.1482,-2.872,-1.8124,-0.4966,-2.5346,-4.2316,-4.9868,-3.017,-2.413,-2.3574,-0.6174,-0.4066,-1.5209,-1.3246,0.19,1.0846
-1.5463,-3.0344,-1.6359,-2.6103,-3.0767,-2.4179,-0.3121,1.6152,2.484,1.3003,0.808,-0.0926,-2.3844,-4.7924,-1.4621,-3.33,-2.1904,-0.7534,-2.9889,-4.8172,-5.5961,-3.4341,-2.6919,-2.444,-0.5483,-0.1714,-1.4097,-1.0482,0.1586,1.2228
-1.6571,-3.2224,-1.6122,-2.9473,-3.2862,-2.5362,-0.6681,1.323,2.0422,0.8822,0.7288,-0.0415,-2.5267,-5.0768,-1.6137,-3.5648,-2.4016,-0.897,-3.2346,-5.1349,-5.9271,-3.6486,-2.8467,-2.4268,-0.448,0.0377,-1.251,-0.7599,0.1695,1.3212
-1.6052,-3.2165,-1.5264,-3.0888,-3.3015,-2.5908,-1.008,0.9536,1.4519,0.4066,0.5654,-0.0136,-2.5566,-5.1192,-1.6145,-3.5811,-2.4505,-0.9272,-3.2742,-5.1857,-5.9741,-3.6672,-2.8866,-2.3035,-0.3097,0.2313,-1.0479,-0.4664,0.22,1.3738
-1.4235,-3.0366,-1.4206,-3.0391,-3.1471,-2.5902,-1.3093,0.5367,0.7697,-0.09,0.3397,-0.0023,-2.4772,-4.9406,-1.4927,-3.4112,-2.3578,-0.8612,-3.1353,-5.0056,-5.7649,-3.5216,-2.8326,-2.0845,-0.132,0.4167,-0.8128,-0.1767,0.2991,1.3762
-1.1583,-2.7186,-1.3216,-2.8235,-2.8681,-2.5392,-1.5595,0.104,0.0548,-0.5841,0.0723,-0.0051,-2.3068,-4.5858,-1.2863,-3.1061,-2.1549,-0.7301,-2.8628,-4.6559,-5.3541,-3.2596,-2.7135,-1.7935,0.0776,0.5908,-0.5689,0.0925,0.3896,1.3248
-0.8587,-2.3084,-1.2399,-2.4836,-2.5201,-2.4396,-1.7567,-0.3142,-0.6377,-1.0648,-0.2205,-0.0261,-2.0771,-4.1149,-1.0348,-2.7241,-1.8767,-0.5739,-2.509,-4.2093,-4.8114,-2.9342,-2.5596,-1.4657,0.3015,0.7369,-0.348,0.3155,0.4735,1.2177
-0.5673,-1.8547,-1.1723,-2.0698,-2.1579,-2.2928,-1.9051,-0.6903,-1.2606,-1.5275,-0.5263,-0.0742,-1.8272,-3.5935,-0.7722,-2.3196,-1.5565,-0.4338,-2.123,-3.7351,-4.21,-2.5919,-2.3978,-1.1413,0.5141,0.829,-0.1847,0.4613,0.5364,1.0557
-0.3125,-1.4023,-1.1085,-1.6337,-1.8248,-2.1022,-2.0097,-0.9999,-1.7756,-1.9643,-0.8323,-0.1587,-1.5948,-3.081,-0.5216,-1.9334,-1.2214,-0.3436,-1.7424,-3.2867,-3.6143,-2.264,-2.2464,-0.8578,0.6882,0.8408,-0.1076,0.5025,0.5718,0.8437
-0.1042,-0.9858,-1.0368,-1.2207,-1.5456,-1.8748,-2.0705,-1.2213,-2.1515,-2.3559,-1.1208,-0.2814,-1.4075,-2.6223,-0.2923,-1.587,-0.8892,-0.3212,-1.3876,-2.8943,-3.0719,-1.9625,-2.1119,-0.6402,0.8025,0.7564,-0.1301,0.4256,0.5815,0.5914
0.065,-0.627,-0.948,-0.8649,-1.3251,-1.6217,-2.0798,-1.3364,-2.362,-2.6683,-1.3662,-0.4327,-1.2773,-2.2421,-0.0804,-1.2822,-0.5678,-0.3643,-1.0613,-2.5631,-2.6089,-1.6807,-1.9878,-0.4951,0.8482,0.5797,-0.2439,0.2387,0.5744,0.3131
0.2141,-0.3346,-0.8376,-0.585,-1.151,-1.3581,-2.0223,-1.3324,-2.3856,-2.8562,-1.5368,-0.5896,-1.199,-1.9466,0.1264,-1.006,-0.2583,-0.4509,-0.7537,-2.2787,-2.2313,-1.4002,-1.8582,-0.4094,0.8321,0.3374,-0.4183,-0.0274,0.5615,0.0263
0.3644,-0.1061,-0.7057,-0.3836,-1.0017,-1.1015,-1.8808,-1.2039,-2.2068,-2.8731,-1.5994,-0.7202,-1.1556,-1.7286,0.342,-0.739,0.0407,-0.5469,-0.4509,-2.0171,-1.9319,-1.1018,-1.7044,-0.357,0.7745,0.0736,-0.6073,-0.325,0.552,-0.2505
0.5303,0.0666,-0.5573,-0.2503,-0.8563,-0.8703,-1.6437,-0.9545,-1.821,-2.6846,-1.5279,-0.7915,-1.1271,-1.5784,0.5738,-0.466,0.3271,-0.6166,-0.1452,-1.7573,-1.6999,-0.777,-1.5136,-0.3097,0.7025,-0.161,-0.7618,-0.6012,0.5484,-0.4994
0.7122,0.1919,-0.4029,-0.169,-0.7051,-0.682,-1.3131,-0.598,-1.2393,-2.2803,-1.3107,-0.7778,-1.1011,-1.4937,0.8171,-0.1851,0.59,-0.6343,0.1565,-1.4926,-1.5316,-0.4376,-1.288,-0.2505,0.6412,-0.3228,-0.8445,-0.8117,0.5457,-0.7043
0.8944,0.2727,-0.26,-0.1276,-0.5567,-0.553,-0.9101,-0.1582,-0.4929,-1.6807,-0.9556,-0.6686,-1.0803,-1.4861,1.0522,0.0868,0.8079,-0.5924,0.4294,-1.2379,-1.4379,-0.1191,-1.0489,-0.1833,0.6066,-0.3867,-0.8409,-0.9308,0.5335,-0.8511
1.0487,0.3034,-0.1531,-0.1246,-0.4388,-0.4991,-0.4735,0.3326,0.3657,-0.9363,-0.4904,-0.4712,-1.084,-1.5811,1.2474,0.315,0.9507,-0.5043,0.6332,-1.0295,-1.444,0.1237,-0.8368,-0.1342,0.6025,-0.35,-0.7636,-0.956,0.4998,-0.9274
1.1418,0.2716,-0.1118,-0.1701,-0.3912,-0.5337,-0.0541,0.8358,1.2659,-0.1197,0.0411,-0.2091,-1.1411,-1.8093,1.3655,0.4544,0.986,-0.3999,0.7213,-0.9167,-1.5825,0.2294,-0.7035,-0.1437,0.6217,-0.2283,-0.6464,-0.9039,0.4352,-0.923
1.1443,0.164,-0.1637,-0.2805,-0.4525,-0.6657,0.2969,1.3105,2.1269,0.6873,0.586,0.0837,-1.2785,-2.1916,1.3738,0.4623,0.8889,-0.3178,0.6548,-0.9473,-1.8802,0.1464,-0.6987,-0.252,0.6531,-0.0458,-0.5314,-0.8,0.3367,-0.8327
1.0394,-0.0252,-0.3255,-0.4709,-0.6463,-0.8948,0.5387,1.7192,2.868,1.4067,1.0899,0.3705,-1.5073,-2.7248,1.2539,0.3124,0.6523,-0.2933,0.4157,-1.1515,-2.3427,-0.1494,-0.8558,-0.4815,0.6885,0.1781,-0.452,-0.6668,0.2084,-0.6595
0.828,-0.2879,-0.5945,-0.7473,-0.9698,-1.2078,0.6496,2.0317,3.4218,1.975,1.5039,0.6184,-1.8141,-3.3723,1.008,0.0053,0.293,-0.3498,0.0165,-1.5292,-2.9448,-0.6452,-1.1801,-0.8246,0.7289,0.438,-0.4202,-0.5139,0.0616,-0.4174
0.5296,-0.5998,-0.9452,-1.1025,-1.3918,-1.5771,0.6288,2.2291,3.7444,2.3484,1.7893,0.8031,-2.1605,-4.0659,0.6603,-0.4276,-0.1482,-0.4928,-0.4997,-2.0459,-3.6295,-1.29,-1.6447,-1.2398,0.7857,0.7457,-0.4203,-0.3342,-0.0879,-0.1325
0.1778,-0.9244,-1.3324,-1.5161,-1.8586,-1.9649,0.4928,2.3057,3.8218,2.5036,1.9197,0.9103,-2.4915,-4.7185,0.2514,-0.9305,-0.6143,-0.7114,-1.0684,-2.6393,-4.3188,-2.0061,-2.1959,-1.6601,0.8773,1.1263,-0.4123,-0.1067,-0.2234,0.1601
-0.1877,-1.2231,-1.7023,-1.9587,-2.3076,-2.3312,0.2679,2.2687,3.6709,2.4355,1.8837,0.9363,-2.751,-5.2448,-0.1707,-1.4364,-1.046,-0.9827,-1.6198,-3.2343,-4.932,-2.7066,-2.7662,-2.0084,1.0229,1.6084,-0.3432,0.1955,-0.3306,0.4222
-0.5306,-1.4657,-2.0064,-2.3986,-2.6836,-2.6441,-0.0184,2.1357,3.3342,2.1552,1.685,0.8875,-2.8966,-5.5824,-0.5628,-1.8846,-1.3968,-1.2806,-2.0961,-3.7617,-5.4063,-3.3157,-3.2899,-2.2169,1.2359,2.2129,-0.1622,0.595,-0.4018,0.6208
-0.8268,-1.6408,-2.2153,-2.8096,-2.9536,-2.8882,-0.3426,1.9313,2.8714,1.6886,1.3444,0.7803,-2.9111,-5.7073,-0.8955,-2.2357,-1.6441,-1.5826,-2.4643,-4.1759,-5.7124,-3.7831,-3.7179,-2.2424,1.5191,2.9436,0.1649,1.1013,-0.4365,0.7346
-1.069,-1.7579,-2.3265,-3.1762,-3.1135,-3.067,-0.6864,1.6831,2.349,1.0784,0.8995,0.6404,-2.8039,-5.6373,-1.1581,-2.48,-1.7934,-1.8736,-2.7208,-4.4638,-5.8597,-4.09,-4.0247,-2.0741,1.8647,3.7817,0.6468,1.7052,-0.4423,0.758
-1.2657,-1.8432,-2.3645,-3.4937,-3.1871,-3.1991,-1.0338,1.418,1.83,0.3841,0.4034,0.5016,-2.605,-5.4247,-1.3573,-2.6371,-1.8724,-2.1462,-2.8866,-4.645,-5.8909,-4.2454,-4.2083,-1.7325,2.2559,4.6845,1.264,2.3778,-0.433,0.7016
-1.4346,-1.929,-2.3712,-3.7646,-3.2146,-3.3087,-1.3647,1.16,1.3669,-0.3174,-0.0785,0.4025,-2.3518,-5.1384,-1.51,-2.7457,-1.9193,-2.3962,-2.9949,-4.7612,-5.8664,-4.275,-4.2816,-1.2591,2.671,5.5893,1.9745,3.0735,-0.4259,0.5876
-1.5914,-2.0399,-2.3917,-3.991,-3.2376,-3.4138,-1.6499,0.9291,0.9951,-0.9374,-0.476,0.3824,-2.0747,-4.8435,-1.6324,-2.848,-1.9671,-2.6161,-3.0751,-4.8592,-5.8442,-4.2063,-4.2608,-0.7028,3.0869,6.4194,2.7232,3.7359,-0.4383,0.4436
-1.7391,-2.1804,-2.4566,-4.1674,-3.282,-3.5169,-1.8492,0.7416,0.7292,-1.3856,-0.7232,0.474,-1.7857,-4.5815,-1.7287,-2.9719,-2.029,-2.7892,-3.1381,-4.9721,-5.8599,-4.0554,-4.1532,-0.1069,3.4812,7.0925,3.4528,4.306,-0.4834,0.2955
-1.8599,-2.3275,-2.5693,-4.2742,-3.3459,-3.6009,-1.9156,0.608,0.5601,-1.5853,-0.7713,0.697,-1.4746,-4.3597,-1.783,-3.1165,-2.0895,-2.8868,-3.1676,-5.1037,-5.9133,-3.8196,-3.9498,0.4994,3.8325,7.5297,4.1121,4.7275,-0.5669,0.1608
-1.914,-2.4315,-2.6992,-4.2763,-3.3961,-3.6294,-1.8057,0.5307,0.4545,-1.4915,-0.5999,1.0515,-1.1132,-4.1488,-1.7564,-3.2461,-2.1029,-2.8677,-3.1203,-5.2223,-5.9649,-3.4767,-3.6249,1.1022,4.1189,7.663,4.6596,4.9529,-0.6854,0.0453
-1.8437,-2.4231,-2.7854,-4.1272,-3.3724,-3.5535,-1.4918,0.5004,0.3569,-1.1048,-0.2253,1.5142,-0.6662,-3.8927,-1.5913,-3.2933,-2.0006,-2.6827,-2.9331,-5.2624,-5.9421,-2.9914,-3.142,1.6994,4.3167,7.4432,5.0633,4.9466,-0.8268,-0.057
-1.5821,-2.2269,-2.7462,-3.7761,-3.2007,-3.3212,-0.9726,0.4933,0.1965,-0.4773,0.2995,2.0409,-0.1034,-3.5229,-1.221,-3.1703,-1.704,-2.2804,-2.537,-5.1377,-5.7556,-2.3267,-2.4638,2.2941,4.4009,6.8461,5.3004,4.6886,-0.9738,-0.1611
-1.0652,-1.7752,-2.4953,-3.1773,-2.8097,-2.8885,-0.279,0.4717,-0.1019,0.2922,0.8923,2.5735,0.5893,-2.9772,-0.5825,-2.7872,-1.1403,-1.6164,-1.8727,-4.7583,-5.3185,-1.4551,-1.5641,2.8882,4.3482,5.8786,5.3577,4.1785,-1.1089,-0.2856
-0.2441,-1.0228,-1.9605,-2.3008,-2.1489,-2.2308,0.528,0.3876,-0.6054,1.0754,1.4566,3.0506,1.4034,-2.2165,0.3688,-2.0711,-0.2586,-0.6619,-0.9053,-4.0513,-4.5684,-0.3699,-0.4378,3.4785,4.1429,4.5819,5.2342,3.4388,-1.2199,-0.4472
0.9025,0.0429,-1.1019,-1.142,-1.2042,-1.3527,1.3656,0.1927,-1.359,1.738,1.9002,3.419,2.307,-1.2366,1.6464,-0.9852,0.957,0.5862,0.3645,-2.9802,-3.4836,0.9078,0.892,4.0552,3.7839,3.0311,4.9438,2.5156,-1.3037,-0.6554
2.3588,1.3951,0.0753,0.271,-0.0057,-0.2917,2.1426,-0.1502,-2.3744,2.1651,2.1521,3.6424,3.2479,-0.0737,3.2231,0.4579,2.4786,2.0991,1.8945,-1.5567,-2.0934,2.3262,2.3706,4.601,3.2896,1.3297,4.5164,1.4757,-1.3666,-0.9086
4.0672,2.9685,1.5153,1.8759,1.3732,0.8837,2.7756,-0.6541,-3.6229,2.2825,2.1752,3.7065,4.1612,1.1994,5.028,2.192,4.2318,3.8132,3.6022,0.1543,-0.4777,3.8057,3.9141,5.0929,2.6973,-0.4013,3.995,0.3989,-1.4207,-1.1929
5.931,4.667,3.1177,3.5802,2.8258,2.0843,3.2027,-1.301,-5.0352,2.0699,1.9718,3.6187,4.9787,2.4836,6.9518,4.1021,6.102,5.6333,5.3728,2.0416,1.2435,5.2468,5.4168,5.5043,2.0588,-2.038,3.4299,-0.6335,-1.4778,-1.4837
7.8248,6.376,4.7527,5.2712,4.2297,3.2143,3.3945,-2.0418,-6.5068,1.5637,1.5814,3.4043,5.6388,3.6701,8.8583,6.0405,7.948,7.4417,7.0736,3.963,2.9289,6.5435,6.7645,5.8082,1.4314,-3.4691,2.8714,-1.5498,-1.5437,-1.7498
9.611,7.9788,6.2819,6.8298,5.4665,4.1865,3.3579,-2.8042,-7.9103,0.8482,1.0714,3.101,6.0954,4.658,10.603,7.8481,9.6215,9.112,8.5725,5.7664,4.4372,7.5991,7.8514,5.9817,0.8688,-4.6071,2.3637,-2.2965,-1.6141,-1.9598
11.1587,9.3704,7.58,8.1472,6.4406,4.9344,3.1331,-3.5062,-9.1105,0.0403,0.5247,2.7513,6.3241,5.3693,12.0525,9.3788,10.9886,10.5251,9.7571,7.3119,5.6481,8.3399,8.5964,6.0105,0.4152,-5.3944,1.9403,-2.8412,-1.6757,-2.0881
12.3598,10.4679,8.5518,9.1397,7.0924,5.4195,2.7852,-4.0693,-9.9816,-0.7322,0.0258,2.3964,6.3238,5.7589,13.1018,10.5189,11.9478,11.584,10.5487,8.4896,6.4773,8.7257,8.9556,5.892,0.1016,-5.8037,1.6221,-3.172,-1.7106,-2.12
13.1387,11.2157,9.1417,9.7591,7.4037,5.6326,2.3917,-4.4304,-10.424,-1.3518,-0.3524,2.0705,6.1139,5.8183,13.6864,11.1993,12.4416,12.2246,10.9107,9.2305,6.8842,8.7522,8.9272,5.6374,-0.0543,-5.834,1.4168,-3.2938,-1.7034,-2.0551
13.456,11.5853,9.3353,9.9951,7.395,5.5918,2.0285,-4.5499,-10.3782,-1.7295,-0.5589,1.7954,5.7287,5.5721,13.786,11.3992,12.4594,12.4204,10.8479,9.5089,6.8711,8.4477,8.5486,5.2703,-0.0462,-5.5055,1.3189,-3.2242,-1.6468,-1.9071
13.3066,11.5725,9.1545,9.8689,7.1147,5.3356,1.7576,-4.4156,-9.8345,-1.8173,-0.5714,1.5782,5.2083,5.07,13.4217,11.1398,12.0319,12.1804,10.3983,9.338,6.4763,7.8641,7.8859,4.8228,0.1226,-4.8543,1.3113,-2.9901,-1.5444,-1.7008
12.7148,11.1926,8.6487,9.421,6.6255,4.9148,1.6174,-4.0424,-8.837,-1.6129,-0.3998,1.4111,4.5915,4.3763,12.6466,10.474,11.2201,11.5429,9.6221,8.7595,5.7622,7.066,7.0206,4.3308,0.4409,-3.9283,1.3675,-2.6256,-1.4099,-1.4659
11.7294,10.4762,7.8842,8.6999,5.9896,4.383,1.6181,-3.4691,-7.4801,-1.1577,-0.0845,1.2733,3.9105,3.5586,11.5341,9.4735,10.1024,10.5682,8.5888,7.8336,4.8027,6.1204,6.0359,3.8288,0.8902,-2.7855,1.4558,-2.1701,-1.262,-1.2298
10.419,9.4663,6.9326,7.754,5.2574,3.788,1.7418,-2.7529,-5.8977,-0.5278,0.31,1.1367,3.1885,2.6785,10.1663,8.2165,8.7631,9.3311,7.369,6.6278,3.6719,5.0892,5.0063,3.3455,1.4457,-1.4928,1.5436,-1.6658,-1.1185,-1.0108
8.8683,8.2166,5.8632,6.6313,4.4634,3.166,1.9486,-1.9621,-4.2456,0.1801,0.7069,0.973,2.442,1.7863,8.626,6.7798,7.2838,7.9165,6.0292,5.2106,2.4371,4.026,3.9924,2.9023,2.0771,-0.1245,1.6031,-1.155,-0.9917,-0.8142
7.173,6.7906,4.7383,5.3816,3.627,2.5383,2.1864,-1.1681,-2.6803,0.8654,1.0309,0.7617,1.6852,0.9186,6.9915,5.2341,5.7393,6.4151,4.6304,3.6478,1.1548,2.9758,3.0395,2.5143,2.7505,1.2408,1.616,-0.6753,-0.8857,-0.6321
5.4354,5.2593,3.6115,4.0618,2.7592,1.9127,2.403,-0.4383,-1.3381,1.4416,1.2238,0.4968,0.9356,0.1005,5.3358,3.6427,4.1969,4.9195,3.2296,2.0026,-0.1276,1.9776,2.1801,2.193,3.4317,2.5267,1.5793,-0.2544,-0.7977,-0.4472
3.7573,3.6992,2.5283,2.7369,1.8711,1.2877,2.5574,0.1712,-0.3184,1.849,1.2545,0.1906,0.2194,-0.6499,3.7284,2.0635,2.7175,3.5189,1.8811,0.3363,-1.3698,1.0668,1.4383,1.9504,4.0895,3.6673,1.5078,0.0948,-0.7204,-0.2395
2.2323,2.1871,1.527,1.4776,0.9799,0.6588,2.6275,0.6203,0.3243,2.0626,1.1241,-0.1269,-0.4273,-1.3173,2.236,0.5512,1.356,2.2924,0.6374,-1.2898,-2.5356,0.2773,0.8324,1.8009,4.6988,4.6153,1.434,0.3762,-0.6464,0.0077
0.9384,0.7948,0.6389,0.3507,0.1121,0.0247,2.6118,0.8883,0.5799,2.0914,0.8627,-0.4137,-0.9606,-1.8859,0.9232,-0.8424,0.1612,1.3022,-0.4527,-2.8158,-3.5913,-0.3602,0.3769,1.7611,5.242,5.3464,1.4031,0.6093,-0.5704,0.3015
-0.0684,-0.4171,-0.1112,-0.5915,-0.698,-0.6078,2.5267,0.9726,0.4757,1.9712,0.5191,-0.6247,-1.336,-2.3386,-0.1509,-2.0692,-0.8272,0.5887,-1.3485,-4.1853,-4.5059,-0.8211,0.0806,1.8463,5.7078,5.8595,1.4638,0.8228,-0.4915,0.638
-0.757,-1.4025,-0.7038,-1.319,-1.4117,-1.2206,2.3996,0.8866,0.0655,1.7536,0.149,-0.7223,-1.5162,-2.6583,-0.937,-3.0857,-1.5802,0.1675,-2.0213,-5.3485,-5.2525,-1.0909,-0.0558,2.0657,6.0898,6.1725,1.6571,1.0463,-0.4127,1.0016
-1.1193,-2.1304,-1.1247,-1.8249,-1.9897,-1.7837,2.2622,0.6556,-0.5799,1.4942,-0.1966,-0.6841,-1.4782,-2.8301,-1.4002,-3.8553,-2.0807,0.0301,-2.4568,-6.2638,-5.809,-1.1668,-0.0408,2.4183,6.3844,6.3153,2.0073,1.3018,-0.3403,1.367
-1.1654,-2.5819,-1.3645,-2.1186,-2.395,-2.2569,2.146,0.3142,-1.3805,1.2438,-0.4784,-0.5071,-1.217,-2.8433,-1.5235,-4.3483,-2.322,0.1473,-2.6546,-6.8995,-6.1579,-1.0573,0.1089,2.8918,6.5901,6.323,2.5165,1.5989,-0.2808,1.7024
-0.9183,-2.7479,-1.4185,-2.2149,-2.5958,-2.5943,2.0785,-0.0969,-2.2521,1.0417,-0.6718,-0.2071,-0.746,-2.6925,-1.3089,-4.544,-2.3055,0.4756,-2.6252,-7.2343,-6.2868,-0.7789,0.3718,3.4633,6.7074,6.2301,3.1635,1.9322,-0.2383,1.9733
-0.4085,-2.6273,-1.2883,-2.1252,-2.5688,-2.7514,2.0821,-0.5313,-3.1099,0.914,-0.765,0.186,-0.0931,-2.3785,-0.7771,-4.4323,-2.0385,0.9649,-2.3852,-7.2596,-6.1893,-0.3519,0.7267,4.1036,6.7398,6.0672,3.9085,2.284,-0.2115,2.1474
0.3277,-2.2288,-0.9824,-1.8544,-2.3023,-2.6938,2.1738,-0.9394,-3.8729,0.8749,-0.7546,0.6358,0.7042,-1.9082,0.0334,-4.0186,-1.5339,1.5657,-1.9546,-6.9823,-5.8675,0.2027,1.1573,4.7821,6.6954,5.8603,4.7001,2.6292,-0.1936,2.1995
1.2492,-1.5749,-0.5167,-1.4033,-1.7995,-2.4039,2.366,-1.2715,-4.4679,0.9307,-0.6409,1.1072,1.6046,-1.295,1.0692,-3.3271,-0.8118,2.2354,-1.3555,-6.428,-5.3344,0.8641,1.6542,5.4718,6.5883,5.6319,5.4855,2.9431,-0.1735,2.1165
2.308,-0.7047,0.0849,-0.7765,-1.08,-1.885,2.6667,-1.4834,-4.8349,1.0839,-0.4236,1.5741,2.5692,-0.5586,2.2641,-2.4045,0.0974,2.9401,-0.613,-5.6431,-4.6173,1.611,2.2142,6.1524,6.4386,5.4029,6.219,3.2077,-0.14,1.9
3.4485,0.3237,0.7908,0.0087,-0.1793,-1.1638,3.0789,-1.5429,-4.9324,1.3368,-0.1004,2.0223,3.5637,0.2742,3.5427,-1.3197,1.1489,3.6539,0.2413,-4.6943,-3.7585,2.4181,2.8353,6.8104,6.271,5.1936,6.8681,3.4162,-0.0848,1.5677
4.6059,1.4348,1.5592,0.9164,0.8524,-0.2892,3.5994,-1.4368,-4.7425,1.6918,0.3314,2.4496,4.5592,1.1698,4.8233,-0.161,2.2816,4.3536,1.1652,-3.665,-2.8149,3.2531,3.51,7.4364,6.1108,5.0222,7.4145,3.573,-0.0054,1.1509
5.7065,2.5405,2.3376,1.8906,1.9537,0.6719,4.2171,-1.1743,-4.2751,2.1492,0.8701,2.8613,5.5305,2.0878,6.0223,0.9707,3.4176,5.0147,2.1039,-2.6489,-1.8545,4.0739,4.22,8.0215,5.9793,4.9028,7.8519,3.6908,0.0943,0.6913
6.6718,3.5477,3.0638,2.8599,3.0573,1.6417,4.9114,-0.7865,-3.5686,2.7028,1.5046,3.2634,6.454,2.9831,7.0579,1.9719,4.4678,5.6081,2.9908,-1.7404,-0.9494,4.8306,4.9328,8.5545,5.8907,4.8421,8.1814,3.7842,0.2054,0.2356
7.4248,4.3702,3.6718,3.7481,4.0957,2.5419,5.6527,-0.3214,-2.6875,3.3357,2.2098,3.656,7.3066,3.8106,7.8562,2.7492,5.3407,6.1011,3.7542,-1.0233,-0.1666,5.4704,5.6047,9.0219,5.851,4.8384,8.408,3.8644,0.3161,-0.1708
7.8995,4.9394,4.1002,4.4866,5.0095,3.3044,6.4039,0.1659,-1.7155,4.017,2.9449,4.0274,8.0673,4.5313,8.3581,3.2311,5.9555,6.4616,4.3269,-0.559,0.4424,5.9477,6.1878,9.4114,5.8588,4.8823,8.539,3.9343,0.4135,-0.4897
8.0506,5.2141,4.3032,5.0252,5.7542,3.8809,7.124,0.6236,-0.7472,4.7006,3.654,4.3531,8.72,5.1197,8.5264,3.3787,6.2545,6.6641,4.6581,-0.3775,0.851,6.2347,6.6405,9.7167,5.9095,4.9597,8.5848,3.9875,0.4864,-0.6954
7.8609,5.1855,4.2594,5.338,6.3061,4.2498,7.7736,1.0125,0.1233,5.3282,4.2715,4.5977,9.2576,5.5692,8.3511,3.1892,6.2134,6.6956,4.7238,-0.4725,1.0616,6.3301,6.9376,9.9422,5.9989,5.0563,8.5613,4.0107,0.527,-0.778
7.3433,4.8779,3.9761,5.425,6.664,4.4185,8.3195,1.3119,0.8133,5.8363,4.7299,4.7224,9.6846,5.8937,7.8518,2.6955,5.8456,6.5589,4.533,-0.8035,1.1044,6.2623,7.0769,10.1058,6.1269,5.1624,8.4928,3.9884,0.5308,-0.7451
6.5383,4.3436,3.4878,5.3093,6.8487,4.4202,8.7405,1.5208,1.2633,6.1674,4.972,4.6949,10.0189,6.1252,7.0752,1.9587,5.2001,6.2727,4.1271,-1.3034,1.0309,6.0869,7.0816,10.2374,6.2981,5.2765,8.4135,3.9109,0.4964,-0.6207
5.5068,3.6536,2.8491,5.0316,6.8981,4.3065,9.0323,1.6557,1.4471,6.2851,4.9643,4.5012,10.2905,6.3078,6.088,1.0577,4.3528,5.8677,3.574,-1.8898,0.9031,5.8773,6.9958,10.3747,6.5209,5.4066,8.3657,3.7802,0.4231,-0.4411
4.3195,2.8848,2.1227,4.6412,6.8594,4.1359,9.2106,1.7456,1.3806,6.1887,4.71,4.1556,10.5378,6.4888,4.9666,0.0772,3.3938,5.3817,2.9567,-2.4789,0.7825,5.711,6.8768,10.5564,6.8043,5.5673,8.3937,3.6143,0.3096,-0.2479
3.0472,2.1056,1.3658,4.1862,6.7799,3.9605,9.3105,1.8258,1.1234,5.9224,4.256,3.7049,10.8012,6.7087,3.7852,-0.9048,2.4111,4.8528,2.3586,-2.999,0.7195,5.6553,6.7828,10.8132,7.1527,5.7743,8.5344,3.4457,0.1532,-0.0804
1.7503,1.364,0.6193,3.7049,6.6979,3.8138,9.3816,1.9308,0.7724,5.5727,3.69,3.2239,11.1147,6.9938,2.6045,-1.8265,1.477,4.3126,1.8489,-3.4001,0.7453,5.7538,6.7604,11.1589,7.5609,6.0361,8.8062,3.3146,-0.0486,0.0318
0.4733,0.6812,-0.0969,3.2207,6.6369,3.7048,9.4775,2.0875,0.4436,5.2524,3.1242,2.8005,11.4977,7.3499,1.4651,-2.6474,0.6388,3.7823,1.4717,-3.6587,0.8693,6.0187,6.8354,11.5849,8.0107,6.3472,9.2006,3.257,-0.2961,0.0738
-0.7558,0.0552,-0.7799,2.7454,6.6049,3.6209,9.6439,2.31,0.2477,5.0729,2.6706,2.515,11.9503,7.7643,0.3862,-3.347,-0.0826,3.2716,1.2433,-3.775,1.0826,6.4308,7.009,12.0596,8.4712,6.6849,9.6802,3.2934,-0.5842,0.045
-1.9194,-0.5272,-1.4322,2.2887,6.6008,3.5382,9.9081,2.5987,0.2621,5.1133,2.4118,2.418,12.4551,8.2121,-0.6272,-3.9169,-0.6849,2.7833,1.157,-3.7626,1.3667,6.9488,7.2623,12.536,8.9025,7.011,10.1863,3.4195,-0.9007,-0.0436
-3.0008,-1.074,-2.0485,1.8696,6.6244,3.437,10.2723,2.9411,0.5105,5.3948,2.3778,2.515,12.9834,8.6685,-1.5736,-4.3495,-1.1716,2.3205,1.195,-3.6346,1.7063,7.5237,7.5667,12.9641,9.2624,7.277,10.6516,3.6033,-1.226,-0.1767
-3.9738,-1.5719,-2.6035,1.5278,6.6862,3.316,10.7137,3.3168,0.9534,5.8688,2.5342,2.7605,13.5059,9.1205,-2.4418,-4.6264,-1.5389,1.8947,1.3418,-3.3906,2.0999,8.115,7.8961,13.3046,9.5126,7.4303,11.0153,3.788,-1.5348,-0.3423
-4.7959,-1.9771,-3.047,1.3258,6.8145,3.2011,11.1901,3.7017,1.4944,6.4241,2.788,3.0657,14.0007,9.5751,-3.2018,-4.7129,-1.766,1.5309,1.595,-3.0094,2.5658,8.7023,8.2371,13.5385,9.6232,7.4181,11.2333,3.8998,-1.8004,-0.5372
-5.4081,-2.2161,-3.3087,1.3427,7.054,3.1455,11.6489,4.0742,2.0021,6.9114,3.0092,3.3177,14.458,10.0599,-3.8026,-4.5593,-1.8141,1.2684,1.969,-2.4494,3.1408,9.2895,8.5923,13.6702,9.5741,7.1908,11.2836,3.8602,-1.9995,-0.77
-5.7431,-2.199,-3.3104,1.6593,7.4585,3.2213,12.0402,4.4192,2.3422,7.1798,3.0649,3.4069,14.8802,10.6165,-4.1796,-4.1105,-1.634,1.1543,2.4911,-1.6585,3.8713,9.9004,8.9785,13.7237,9.3561,6.7075,11.1655,3.6019,-2.1167,-1.0578
-5.7413,-1.8413,-2.9858,2.3368,8.0775,3.5031,12.3261,4.7319,2.4109,7.1165,2.8552,3.2551,15.2764,11.2877,-4.2701,-3.3215,-1.1806,1.2324,3.1901,-0.5891,4.7996,10.5659,9.417,13.7326,8.9711,5.9445,10.8955,3.0853,-2.147,-1.4203
-5.3689,-1.0893,-2.3002,3.398,8.9404,4.0474,12.4886,5.0175,2.1621,6.6761,2.3416,2.8363,15.6558,12.103,-4.0332,-2.175,-0.4315,1.5293,4.0818,0.7838,5.9478,11.3094,9.9225,13.7291,8.4331,4.9052,10.5024,2.3119,-2.0962,-1.8707
-4.6349,0.0592,-1.2674,4.8131,10.0442,4.8746,12.5303,5.2874,1.6175,5.8934,1.5584,2.1842,16.0209,13.0662,-3.4672,-0.6945,0.5995,2.0425,5.1565,2.4478,7.3067,12.1332,10.4925,13.7343,7.7689,3.6302,10.0229,1.3301,-1.9787,-2.4094
-3.5984,1.5461,0.0451,6.4984,11.3471,5.9578,12.4716,5.5537,0.8601,4.8746,0.604,1.3842,16.3639,14.1505,-2.618,1.0515,1.8569,2.7353,6.3736,4.3468,8.8308,13.0136,11.1031,13.7547,7.018,2.1991,9.4973,0.2294,-1.8146,-3.0206
-2.3639,3.2604,1.5238,8.3265,12.7728,7.2245,12.3459,5.8231,0.0125,3.7725,-0.3832,0.5526,16.6695,15.3031,-1.5747,2.9568,3.2505,3.5412,7.6657,6.3868,10.4446,13.9047,11.7133,13.7834,6.2308,0.725,8.9661,-0.8744,-1.626,-3.6758
-1.0639,5.0591,3.0293,10.1488,14.2232,8.5699,12.1941,6.0948,-0.7926,2.753,-1.2569,-0.1891,16.9216,16.4563,-0.4539,4.8946,4.673,4.3764,8.9522,8.4504,12.0566,14.7515,12.2757,13.8079,5.4643,-0.6619,8.4672,-1.8617,-1.4335,-4.3397
0.1655,6.7951,4.4239,11.8225,15.5967,9.8779,12.0597,6.3609,-1.4399,1.9624,-1.8937,-0.7391,17.1112,17.5434,0.6231,6.74,6.0207,5.1558,10.1558,10.4187,13.5769,15.5054,12.7502,13.8179,4.776,-1.836,8.0329,-2.6317,-1.2537,-4.9782
1.2098,8.3441,5.5959,13.2362,16.8066,11.0434,11.9837,6.6109,-1.8524,1.5029,-2.2143,-1.0322,17.2422,18.5117,1.5517,8.3908,7.2126,5.8098,11.2178,12.1913,14.9335,16.138,13.1146,13.812,4.2166,-2.6983,7.6881,-3.119,-1.0976,-5.5657
1.9945,9.6235,6.4767,14.3272,17.794,11.9891,11.9994,6.8366,-1.9993,1.4199,-2.193,-1.047,17.3321,19.3307,2.2602,9.7811,8.2016,6.2939,12.1072,13.7013,16.0824,16.6465,13.3696,13.8,3.8229,-3.1929,7.4496,-3.3024,-0.9707,-6.0882
2.4929,10.599,7.046,15.0858,18.5337,12.6739,12.1272,7.0359,-1.8932,1.701,-1.8548,-0.8039,17.4083,19.9936,2.7166,10.8864,8.9748,6.5924,12.8204,14.9207,17.0097,17.0527,13.5354,13.8005,3.6141,-3.3127,7.326,-3.2024,-0.873,-6.5435
2.7225,11.2806,7.3259,15.5475,19.033,13.0933,12.3714,7.2144,-1.58,2.2845,-1.265,-0.3561,17.5004,20.513,2.9263,11.7185,9.5475,6.7149,13.3756,15.8565,17.728,17.3928,13.6437,13.8366,3.591,-3.0944,7.3193,-2.8716,-0.8003,-6.938
2.7342,11.71,7.3699,15.7775,19.3249,13.2742,12.7184,7.3827,-1.1251,3.0739,-0.5142,0.2221,17.6343,20.9157,2.9244,12.3155,9.952,6.6892,13.8028,16.5416,18.2687,17.7069,13.7277,13.9294,3.7377,-2.6067,7.425,-2.381,-0.7442,-7.2819
2.5973,11.9464,7.2481,15.8531,19.4596,13.2676,13.1398,7.5523,-0.6018,3.9548,0.2973,0.8481,17.8264,21.2358,2.765,12.7288,10.2279,6.5545,14.1352,17.0228,18.6731,18.0278,13.8144,14.0934,4.0263,-1.9357,7.6327,-1.8071,-0.6929,-7.5845
2.3863,12.0536,7.0356,15.8493,19.4953,13.1395,13.5968,7.7319,-0.0801,4.813,1.0743,1.4433,18.0831,21.5113,2.5119,13.0129,10.4155,6.3558,14.4044,17.3505,18.9864,18.3765,13.9223,14.3343,4.4211,-1.1712,7.9264,-1.2208,-0.633,-7.851
2.1701,12.0913,6.8041,15.8286,19.49,12.9629,14.0479,7.9255,0.3812,5.5509,1.7386,1.9429,18.401,21.7797,2.2298,13.2176,10.5526,6.1406,14.6374,17.5724,19.2522,18.7608,14.0619,14.6488,4.8835,-0.3956,8.284,-0.6797,-0.5519,-8.0816
2.0051,12.1101,6.6177,15.8364,19.4938,12.8077,14.4561,8.132,0.7408,6.1007,2.2391,2.3042,18.7695,22.0748,1.9773,13.383,10.6729,5.9556,14.8567,17.7279,19.5083,19.1778,14.2386,15.0251,5.3754,0.3227,8.6795,-0.2245,-0.442,-8.2716
1.9305,12.1483,6.529,15.9003,19.5438,12.7313,14.7939,8.3469,0.9779,6.4318,2.5557,2.5108,19.1734,22.4219,1.8004,13.537,10.8036,5.8434,15.0791,17.8464,19.7823,19.6158,14.4548,15.4448,5.8614,0.9323,9.0833,0.1226,-0.3031,-8.4136
1.9669,12.2321,6.5758,16.0321,19.6593,12.7703,15.0463,8.5624,1.0927,6.5511,2.6989,2.5712,19.5935,22.8327,1.7278,13.6936,10.9629,5.8385,15.3138,17.9448,20.0883,20.0569,14.7106,15.8835,6.309,1.398,9.4646,0.355,-0.1443,-8.4987
2.1163,12.3758,6.7782,16.2319,19.8404,12.9362,15.2095,8.7687,1.1024,6.4952,2.703,2.5137,20.0076,23.3015,1.7684,13.854,11.1569,5.9621,15.5614,18.0276,20.4231,20.4783,15.0024,16.3115,6.6893,1.6977,9.7925,0.4773,0.0174,-8.5189
2.3655,12.5833,7.1351,16.4908,20.0691,13.2152,15.2874,8.9535,1.0343,6.3174,2.615,2.3763,20.3905,23.8041,1.9123,14.0075,11.3788,6.2178,15.812,18.0876,20.7662,20.8544,15.3212,16.6959,6.9774,1.8204,10.0373,0.4995,0.1611,-8.4689
2.6904,12.8484,7.6248,16.7916,20.3116,13.5738,15.2862,9.1036,0.9173,6.0716,2.4825,2.1958,20.7142,24.2992,2.135,14.1353,11.61,6.589,16.0464,18.1077,21.0821,21.1579,15.6499,17.0019,7.1537,1.764,10.1719,0.4322,0.2676,-8.3469
3.0604,13.1537,8.2068,17.1068,20.5235,13.9661,15.21,9.2053,0.7731,5.7994,2.3428,1.9994,20.9495,24.7338,2.4026,14.2134,11.8232,7.0398,16.2382,18.0642,21.3248,21.3625,15.963,17.1971,7.205,1.5348,10.1746,0.2837,0.3258,-8.1554
3.4429,13.4698,8.8274,17.3986,20.6567,14.3414,15.0584,9.2463,0.6108,5.5211,2.2165,1.7988,21.0682,25.0502,2.6782,14.2169,11.987,7.5198,16.3573,17.9312,21.4451,21.4447,16.2275,17.2543,7.1257,1.1477,10.031,0.0601,0.3366,-7.9004
3.8057,13.7567,9.4262,17.6213,20.6665,14.6525,14.8265,9.2174,0.4261,5.2348,2.1065,1.5898,21.0459,25.1941,2.9275,14.1237,12.0718,7.9725,16.3743,17.6849,21.3986,21.3866,16.4063,17.1553,6.9179,0.6256,9.7376,-0.2338,0.3132,-7.591
4.1197,13.9688,9.9446,17.7282,20.5197,14.8611,14.5077,9.1137,0.2043,4.9214,2.0013,1.3564,20.8654,25.1228,3.1233,13.9176,12.0539,8.3459,16.2652,17.3086,21.1527,21.1772,16.4646,16.8931,6.591,-0.0021,9.3024,-0.5921,0.277,-7.2378
4.3607,14.0631,10.3359,17.6817,20.2008,14.9434,14.0975,8.9352,-0.0717,4.5546,1.881,1.0784,20.5197,24.8125,3.2475,13.5915,11.9193,8.6008,16.0156,16.7964,20.6935,20.8143,16.376,16.4724,6.1601,-0.7022,8.7453,-1.0063,0.2511,-6.8528
4.5126,14.0094,10.5733,17.4631,19.7167,14.8923,13.5994,8.688,-0.4136,4.1118,1.725,0.7405,20.0146,24.2632,3.2929,13.1491,11.6669,8.7187,15.6245,16.1564,20.0298,20.306,16.1296,15.9101,5.646,-1.4404,8.0955,-1.464,0.2532,-6.4478
4.5707,13.7997,10.655,17.0809,19.0983,14.7184,13.0275,8.3845,-0.82,3.5838,1.5187,0.3395,19.3706,23.5023,3.2633,12.6076,11.3094,8.704,15.107,15.4121,19.1953,19.6721,15.734,15.2344,5.0734,-2.1842,7.3883,-1.9495,0.2909,-6.0351
4.5438,13.4532,10.6038,16.5742,18.3984,14.4483,12.4087,8.0442,-1.2729,2.9798,1.259,-0.1111,18.6233,22.5835,3.1732,11.9975,10.8738,8.5826,14.4951,14.6019,18.2459,18.9455,15.2194,14.4831,4.4711,-2.9048,6.6611,-2.4447,0.3605,-5.6281
4.455,13.0167,10.4628,16.0085,17.6853,14.1212,11.7803,7.6933,-1.7396,2.3277,0.956,-0.5823,17.8201,21.5813,3.0467,11.362,10.4002,8.3974,13.8364,13.7754,17.2537,18.1709,14.6346,13.7018,3.8698,-3.5788,5.9499,-2.9312,0.4487,-5.2421
4.3391,12.5567,10.2862,15.4634,17.0316,13.7836,11.1851,7.3625,-2.1785,1.669,0.6318,-1.0347,17.016,20.5802,2.9153,10.7521,9.9367,8.1994,13.1884,12.9867,16.296,17.4021,14.0408,12.9392,3.3001,-4.1892,5.2848,-3.3923,0.5376,-4.8948
4.2368,12.1467,10.1291,15.0144,16.5003,13.4828,10.6635,7.0827,-2.5482,1.05,0.316,-1.4277,16.2653,19.661,2.8132,10.2193,9.5333,8.0374,12.6104,12.2856,15.4426,16.6958,13.5022,12.2426,2.7889,-4.7259,4.6883,-3.815,0.6094,-4.6055
4.1871,11.8515,10.0378,14.7144,16.133,13.2589,10.246,6.8784,-2.8173,0.5124,0.038,-1.729,15.6137,18.8866,2.7719,9.8066,9.2337,7.9495,12.1542,11.7098,14.7439,16.1035,13.0755,11.6515,2.3567,-5.1868,4.1725,-4.1917,0.6525,-4.3919
4.2187,11.7125,10.0428,14.5813,15.9415,13.1382,9.9462,6.763,-2.9718,0.0843,-0.1812,-1.9238,15.0905,18.2923,2.814,9.5404,9.0675,7.9559,11.8556,11.2783,14.2235,15.6645,12.8008,11.193,2.0151,-5.5779,3.739,-4.5219,0.6644,-4.2668
4.3438,11.7393,10.155,14.5951,15.9081,13.1284,9.7581,6.7356,-3.0191,-0.2257,-0.3355,-2.0188,14.7039,17.8818,2.9496,9.4257,9.0457,8.0585,11.728,10.9906,13.877,15.3993,12.696,10.8775,1.7659,-5.9125,3.3796,-4.8119,0.652,-4.2334
4.5574,11.9085,10.3662,14.7057,15.9907,13.2187,9.6573,6.7815,-2.9871,-0.4295,-0.4363,-2.0423,14.4402,17.63,3.1753,9.4461,9.1588,8.2444,11.7617,10.8287,13.6768,15.3079,12.7554,10.6981,1.6018,-6.2088,3.0773,-5.0741,0.6292,-4.2826
4.8403,12.1712,10.6543,14.8478,16.1344,13.3831,9.6057,6.8762,-2.9182,-0.557,-0.5102,-2.0378,14.2668,17.4918,3.4768,9.5685,9.3797,8.4925,11.9256,10.7631,13.5805,15.3703,12.9515,10.6315,1.5086,-6.4862,2.81,-5.3249,0.6125,-4.3916
5.1667,12.4658,10.9892,14.9574,16.2822,13.5867,9.559,6.9904,-2.8607,-0.6491,-0.5932,-2.0551,14.1396,17.4132,3.8334,9.7506,9.6683,8.7802,12.1723,10.7595,13.5417,15.5495,13.2401,10.6415,1.4674,-6.7612,2.5529,-5.5817,0.6158,-4.527
5.5128,12.7343,11.3412,14.9873,16.386,13.7918,9.4739,7.0949,-2.8596,-0.7514,-0.7217,-2.1393,14.0102,17.3424,4.223,9.9492,9.9786,9.0875,12.4456,10.7839,13.518,15.7968,13.5662,10.6847,1.4574,-7.0445,2.2826,-5.8604,0.6481,-4.6493
5.8622,12.9348,11.6846,14.9172,16.4131,13.9635,9.3143,7.1636,-2.9486,-0.9062,-0.9243,-2.3221,13.8341,17.2376,4.6256,10.1268,10.265,9.3979,12.6875,10.8069,13.4767,16.0568,13.8703,10.7155,1.4571,-7.3407,1.9788,-6.1727,0.7112,-4.7209
6.2077,13.0484,12.0001,14.7568,16.3506,14.0735,9.0561,7.1755,-3.1455,-1.1467,-1.2155,-2.6163,13.5767,17.0711,5.0243,10.2557,10.4872,9.6963,12.8454,10.805,13.3976,16.2742,14.0949,10.6924,1.4452,-7.6499,1.6265,-6.5256,0.8011,-4.7133
6.5471,13.0796,12.273,14.5408,16.2037,14.1017,8.6892,7.116,-3.4521,-1.4933,-1.5931,-3.0145,13.2176,16.8311,5.404,10.3189,10.6142,9.9664,12.879,10.7618,13.2723,16.4006,14.1915,10.5829,1.401,-7.9708,1.2165,-6.9197,0.91,-4.6129
6.8765,13.0479,12.4905,14.3153,15.9915,14.0368,8.2179,6.9786,-3.8561,-1.9506,-2.0391,-3.4917,12.7524,16.5201,5.7494,10.3086,10.6268,10.1891,12.7659,10.6676,13.1028,16.4016,14.1269,10.3677,1.3063,-8.3032,0.7466,-7.35,1.0302,-4.4228
7.1848,12.9783,12.6409,14.1203,15.7392,13.8753,7.6592,6.7656,-4.3346,-2.5084,-2.5242,-4.0122,12.1926,16.1526,6.0429,10.2245,10.5194,10.3437,12.5054,10.5193,12.8988,16.2631,13.8894,10.0439,1.1479,-8.6485,0.2218,-7.8065,1.1569,-4.1624
7.4513,12.8922,12.7145,13.9764,15.4703,13.6206,7.0386,6.4892,-4.859,-3.1439,-3.0139,-4.5365,11.5625,15.7513,6.2655,10.0724,10.302,10.4119,12.1198,10.3217,12.6756,15.9945,13.4917,9.6245,0.921,-9.0074,-0.3453,-8.2753,1.2898,-3.8622
7.6489,12.8027,12.7071,13.8783,15.2021,13.2822,6.3856,6.1696,-5.3972,-3.8257,-3.4756,-5.0292,10.8944,15.3436,6.3993,9.8637,9.9996,10.3843,11.6521,10.0873,12.4517,15.6281,12.9707,9.1359,0.6319,-9.3773,-0.9352,-8.74,1.4312,-3.5588
7.7511,12.7141,12.6227,13.8007,14.9443,12.8743,5.7284,5.8314,-5.9178,-4.52,-3.8847,-5.4644,10.2224,14.9558,6.4312,9.6149,9.6495,10.2649,11.1588,9.8354,12.2456,15.2124,12.3818,8.6126,0.2989,-9.7501,-1.5237,-9.1839,1.5822,-3.2876
7.7393,12.6244,12.4733,13.709,14.6991,12.4141,5.0894,5.4975,-6.3938,-5.1959,-4.2298,-5.8292,9.5753,14.6082,6.3569,9.3464,9.2947,10.0735,10.7,9.5895,12.0728,14.8022,11.7891,8.0898,-0.05,-10.1107,-2.086,-9.5911,1.7384,-3.0771
7.6081,12.5273,12.2757,13.572,14.4632,11.9198,4.4817,5.1823,-6.8059,-5.8309,-4.5158,-6.1236,8.9715,14.3095,6.1822,9.0781,8.9748,9.8414,10.3268,9.3721,11.9414,14.4462,11.2533,7.5965,-0.3811,-10.4393,-2.6011,-9.9492,1.8875,-2.9443
7.3659,12.413,12.0454,13.3703,14.228,11.4069,3.9085,4.8878,-7.1449,-6.4128,-4.7622,-6.3592,8.4159,14.0544,5.9219,8.8256,8.7165,9.6035,10.0701,9.1986,11.8488,14.176,10.8195,7.15,-0.6626,-10.7143,-3.0559,-10.2506,2.0109,-2.8921
7.0326,12.2675,11.7906,13.0971,13.9797,10.8862,3.3642,4.6037,-7.4118,-6.9402,-4.9987,-6.5555,7.9011,13.8231,5.5963,8.5952,8.5272,9.3879,9.9342,9.0723,11.7799,13.9989,10.5094,6.7532,-0.8702,-10.9176,-3.4477,-10.4945,2.0878,-2.9097
6.6329,12.0725,11.5088,12.7561,13.7006,10.362,2.838,4.3128,-7.6157,-7.4199,-5.258,-6.7358,7.4098,13.5852,5.226,8.3818,8.3933,9.2068,9.8958,8.9824,11.7085,13.8971,10.3178,6.3963,-0.993,-11.0399,-3.7842,-10.6877,2.1016,-2.9758
6.191,11.8073,11.1878,12.3576,13.3713,9.8337,2.3165,3.9982,-7.7717,-7.8643,-5.5685,-6.9242,6.9197,13.3055,4.8287,8.1701,8.2841,9.0519,9.9098,8.9055,11.6009,13.8325,10.2157,6.0591,-1.035,-11.0849,-4.0827,-10.8447,2.0446,-3.0636
5.7255,11.4536,10.8104,11.9163,12.9746,9.2975,1.7864,3.6512,-7.8979,-8.2889,-5.9482,-7.1427,6.4064,12.9498,4.4163,7.9387,8.16,8.8972,9.9194,8.8106,11.422,13.7552,10.1572,5.716,-1.0144,-11.0708,-4.3669,-10.9868,1.9204,-3.1469
5.2488,11.0006,10.3623,11.4501,12.5,8.7507,1.2352,3.2751,-8.0134,-8.7108,-6.403,-7.41,5.8476,12.4909,3.9954,7.6657,7.9824,8.7076,9.8683,8.6658,11.1414,13.6144,10.0899,5.3405,-0.9584,-11.028,-4.6644,-11.1396,1.7428,-3.2043
4.7683,10.4497,9.8387,10.9775,11.9451,8.1933,0.6513,2.8843,-8.1366,-9.1475,-6.9263,-7.7396,5.225,11.9121,3.5689,7.3347,7.7225,8.4515,9.7116,8.4443,10.7381,13.3682,9.9657,4.9106,-0.8974,-10.9934,-5.0016,-11.3287,1.5332,-3.2211
4.2906,9.8156,9.2488,10.5153,11.3169,7.6294,0.0248,2.4992,-8.2834,-9.6145,-7.5014,-8.1372,4.5282,11.209,3.1397,6.9386,7.3669,8.1115,9.4235,8.1296,10.204,12.9919,9.75,4.4125,-0.8575,-11.0017,-5.3989,-11.5731,1.316,-3.1886
3.8246,9.1241,8.6169,10.0749,10.6305,7.0667,-0.6505,2.1387,-8.4656,-10.1224,-8.1035,-8.5983,3.7575,10.3904,2.7125,6.481,6.9194,7.6909,9.0009,7.718,9.5461,12.4813,9.4277,3.8446,-0.8561,-11.0763,-5.8655,-11.8795,1.1148,-3.1023
3.3833,8.4079,7.981,9.6618,9.9072,6.5153,-1.3734,1.8144,-8.6881,-10.6721,-8.7011,-9.1054,2.9273,9.4787,2.2962,5.9761,6.3999,7.2144,8.4633,7.2191,8.7856,11.8542,9.0055,3.2187,-0.8996,-11.2231,-6.3945,-12.237,0.9477,-2.9605
2.9821,7.701,7.387,9.2742,9.173,5.987,-2.1321,1.5274,-8.9492,-11.2517,-9.259,-9.628,2.0671,8.5085,1.9031,5.4457,5.8399,6.7219,7.848,6.6551,7.9575,11.147,8.509,2.5598,-0.984,-11.4274,-6.9607,-12.6161,0.8251,-2.7641
2.6361,7.0332,6.881,8.9038,8.4554,5.4937,-2.9029,1.2686,-9.2402,-11.8357,-9.7421,-10.1258,1.2188,7.5242,1.5481,4.9166,5.2784,6.261,7.204,6.0576,7.1068,10.4095,7.9765,1.9031,-1.0979,-11.6571,-7.5229,-12.9722,0.7472,-2.519
2.3555,6.4268,6.4993,8.5391,7.7813,5.0457,-3.6529,1.0209,-9.5491,-12.3889,-10.1212,-10.5549,0.43,6.5754,1.2471,4.4172,4.7568,5.8774,6.5842,5.4653,6.2844,9.6973,7.452,1.2881,-1.2261,-11.8704,-8.0308,-13.2545,0.7045,-2.2376
2.1439,5.8955,6.2586,8.1697,7.1735,4.6503,-4.3459,0.763,-9.8638,-12.8733,-10.3799,-10.8767,-0.2555,5.7104,1.0157,3.9751,4.3152,5.6085,6.0388,4.9199,5.5409,9.064,6.9775,0.7521,-1.3537,-12.0261,-8.4349,-13.4181,0.6789,-1.9415
1.9974,5.4462,6.1506,7.7923,6.6485,4.3101,-4.9511,0.4744,-10.1761,-13.2579,-10.5194,-11.0671,-0.8084,4.9686,0.8678,3.6155,3.9883,5.4782,5.6092,4.4609,4.9195,8.5527,6.5871,0.3218,-1.4683,-12.0935,-8.6992,-13.4358,0.6477,-1.6599
1.9071,5.0809,6.1424,7.4125,6.2128,4.0228,-5.4509,0.1393,-10.4836,-13.527,-10.5601,-11.123,-1.2222,4.372,0.8139,3.3576,3.801,5.4929,5.3227,4.1197,4.448,8.1893,6.3024,0.0075,-1.5626,-12.0609,-8.8115,-13.3079,0.5883,-1.4266
1.8611,4.7973,6.1837,7.0432,5.8601,3.7809,-5.8481,-0.2491,-10.7891,-13.6867,-10.5392,-11.0651,-1.5173,3.9198,0.8578,3.2117,3.7637,5.6391,5.189,3.9121,4.1321,7.9772,6.1297,-0.201,-1.6353,-11.9386,-8.7893,-13.0655,0.4837,-1.2733
1.8469,4.5889,6.2186,6.698,5.5701,3.5721,-6.1665,-0.6856,-11.0971,-13.7652,-10.5046,-10.9354,-1.7384,3.5858,0.9931,3.1744,3.8675,5.8821,5.196,3.8332,3.952,7.8954,6.0581,-0.3336,-1.6909,-11.7576,-8.6789,-12.766,0.3275,-1.2224
1.8516,4.443,6.1973,6.3843,5.311,3.3808,-6.4472,-1.1523,-11.4097,-13.8081,-10.5056,-10.7887,-1.9451,3.3233,1.2003,3.2256,4.0805,6.168,5.3097,3.8541,3.8645,7.9004,6.0608,-0.4348,-1.7381,-11.5626,-8.5466,-12.4821,0.1265,-1.2808
1.8611,4.3398,6.0849,6.0994,5.0458,3.191,-6.7381,-1.6191,-11.7204,-13.8673,-10.5831,-10.6812,-2.1979,3.0753,1.4455,3.3278,4.3497,6.4298,5.4758,3.9248,3.8103,7.9331,6.0976,-0.554,-1.7875,-11.4023,-8.4643,-12.2863,-0.0991,-1.437
1.8585,4.2524,5.8643,5.8299,4.7401,2.9881,-7.0816,-2.0486,-12.0119,-13.9882,-10.7614,-10.6579,-2.5443,2.7873,1.6824,3.4298,4.6055,6.5971,5.6265,3.9817,3.7258,7.9283,6.1212,-0.7345,-1.8485,-11.3191,-8.4941,-12.2351,-0.3196,-1.6625
1.8225,4.1478,5.535,5.555,4.3696,2.7621,-7.5033,-2.403,-12.2551,-14.198,-11.0425,-10.7433,-3.0077,2.42,1.8571,3.4737,4.7725,6.609,5.6905,3.9586,3.5553,7.8266,6.0838,-1.0042,-1.9273,-11.3405,-8.6756,-12.358,-0.501,-1.9163
1.7283,3.9911,5.109,5.2516,3.9245,2.5084,-8.0054,-2.652,-12.4145,-14.4984,-11.406,-10.9371,-3.583,1.9574,1.9168,3.4042,4.7823,6.4254,5.6052,3.7991,3.2617,7.5851,5.9459,-1.3707,-2.0254,-11.4752,-9.0184,-12.6525,-0.613,-2.1522
1.5517,3.7517,4.6065,4.9008,3.4102,2.2283,-8.5657,-2.7789,-12.4563,-14.8653,-11.8129,-11.2165,-4.2386,1.4087,1.8196,3.1791,4.5873,6.0371,5.3289,3.4669,2.8324,7.185,5.6828,-1.8217,-2.1399,-11.7129,-9.5031,-13.0862,-0.6354,-2.3271
1.276,3.4106,4.0544,4.495,2.8457,1.9285,-9.1424,-2.783,-12.3587,-15.2555,-12.214,-11.5434,-4.9237,0.8055,1.5441,2.7786,4.1719,5.4702,4.8506,2.9533,2.2807,6.6351,5.2909,-2.329,-2.2645,-12.0276,-10.0865,-13.6052,-0.5635,-2.4075
0.9,2.9675,3.4855,4.0425,2.2595,1.6201,-9.6839,-2.6798,-12.1219,-15.617,-12.5591,-11.8734,-5.5786,0.1948,1.0968,2.2111,3.5579,4.7838,4.1953,2.2795,1.6426,5.971,4.7905,-2.8555,-2.391,-12.3827,-10.7115,-14.1451,-0.4091,-2.3747
0.4438,2.4441,2.9385,3.5705,1.6857,1.3173,-10.1394,-2.499,-11.7717,-15.9015,-12.8074,-12.1649,-6.1455,-0.3706,0.5153,1.5142,2.8036,4.0616,3.4217,1.4942,0.9698,5.2497,4.2241,-3.362,-2.5115,-12.7378,-11.3183,-14.6425,-0.1982,-2.2266
-0.0504,1.882,2.455,3.1207,1.1586,1.0371,-10.4709,-2.2817,-11.3588,-16.0765,-12.9344,-12.3864,-6.5778,-0.8421,-0.1353,0.7502,1.996,3.3987,2.615,0.6668,0.3211,4.54,3.6514,-3.8135,-2.6205,-13.0558,-11.8545,-15.046,0.0346,-1.9779
-0.5228,1.3347,2.076,2.7405,0.7086,0.7978,-10.6605,-2.0762,-10.9491,-16.1321,-12.9358,-12.5198,-6.8476,-1.1837,-0.7705,-0.0046,1.2361,2.8855,1.8722,-0.1242,-0.2477,3.9114,3.1397,-4.1838,-2.7168,-13.3101,-12.2834,-15.3239,0.2533,-1.656
-0.9064,0.8561,1.8351,2.4705,0.357,0.6188,-10.714,-1.9315,-10.6115,-16.0833,-12.8264,-12.5623,-6.9499,-1.3785,-1.3011,-0.6727,0.6211,2.593,1.2843,-0.8039,-0.6931,3.4215,2.7513,-4.4591,-2.8049,-13.49,-12.5895,-15.4687,0.4273,-1.296
-1.1402,0.4896,1.7532,2.3328,0.1126,0.5164,-10.6598,-1.8887,-10.4025,-15.9658,-12.6355,-12.5247,-6.9041,-1.4332,-1.6489,-1.1906,0.2261,2.5608,0.919,-1.3148,-0.9919,3.106,2.5313,-4.6395,-2.8947,-13.6032,-12.7791,-15.4967,0.5371,-0.9334
-1.183,0.2589,1.8337,2.3234,-0.0309,0.4992,-10.5426,-1.973,-10.3548,-15.8278,-12.4006,-12.4287,-6.7519,-1.3786,-1.7624,-1.5207,0.089,2.7909,0.8059,-1.6274,-1.1463,2.9712,2.4982,-4.7383,-2.9997,-13.6739,-12.8782,-15.4434,0.5764,-0.5975
-1.0229,0.1635,2.0603,2.4107,-0.0948,0.5639,-10.416,-2.1863,-10.4711,-15.7196,-12.16,-12.3033,-6.5523,-1.2664,-1.6273,-1.6586,0.2032,3.2471,0.9308,-1.746,-1.1847,2.993,2.6398,-4.7801,-3.1339,-13.7372,-12.9255,-15.3559,0.5513,-0.3071
-0.6823,0.1789,2.3987,2.5407,-0.1128,0.6917,-10.3333,-2.5062,-10.7244,-15.6848,-11.9481,-12.1795,-6.3737,-1.1619,-1.2698,-1.6338,0.5196,3.8618,1.2381,-1.7086,-1.1572,3.122,2.9155,-4.7958,-3.3078,-13.829,-12.9637,-15.2823,0.4773,-0.0683
-0.2148,0.2609,2.8005,2.6472,-0.1267,0.8501,-10.3403,-2.8887,-11.0662,-15.7537,-11.7917,-12.0862,-6.2837,-1.1339,-0.7521,-1.5028,0.9575,4.5474,1.6424,-1.5798,-1.1276,3.2933,3.2654,-4.8178,-3.5242,-13.9773,-13.03,-15.2616,0.3737,0.1235
0.3029,0.3551,3.2094,2.6646,-0.1801,0.9968,-10.4694,-3.2781,-11.4376,-15.9417,-11.7092,-12.0453,-6.3385,-1.2428,-0.1608,-1.3375,1.4216,5.2117,2.0459,-1.438,-1.1619,3.4396,3.6215,-4.8737,-3.7756,-14.193,-13.1486,-15.3164,0.2582,0.2801
0.7853,0.4063,3.5684,2.5399,-0.3121,1.086,-10.7366,-3.6193,-11.7822,-16.2484,-11.7108,-12.0689,-6.5745,-1.5297,0.4094,-1.2108,1.8212,5.7727,2.3574,-1.3615,-1.3159,3.5033,3.9204,-4.9822,-4.0438,-14.4667,-13.3263,-15.448,0.1419,0.416
1.153,0.3699,3.8271,2.2412,-0.5523,1.0758,-11.1409,-3.8719,-12.0575,-16.6604,-11.7982,-12.1568,-7.0012,-2.0087,0.8726,-1.1836,2.086,6.171,2.5079,-1.4135,-1.6255,3.446,4.1127,-5.149,-4.3021,-14.7688,-13.5518,-15.6368,0.0269,0.5443
1.3481,0.2194,3.9472,1.7628,-0.9168,0.9346,-11.6648,-4.0194,-12.2415,-17.152,-11.9638,-12.2968,-7.5992,-2.6636,1.1651,-1.2951,2.1761,6.3754,2.4619,-1.6316,-2.0998,3.2533,4.1699,-5.366,-4.5204,-15.0555,-13.7991,-15.8467,-0.0934,0.6736
1.3433,-0.0487,3.9071,1.1262,-1.4056,0.6456,-12.2763,-4.0725,-12.3331,-17.6871,-12.1898,-12.4658,-8.3215,-3.4486,1.2547,-1.5572,2.0849,6.3833,2.2198,-2.0221,-2.7188,2.9348,4.0867,-5.6121,-4.671,-15.2772,-14.0329,-16.032,-0.2304,0.8066
1.1463,-0.4148,3.7042,0.3774,-2.0022,0.2105,-12.9311,-4.063,-12.3476,-18.2194,-12.4477,-12.6328,-9.0992,-4.295,1.143,-1.9552,1.8348,6.2156,1.8146,-2.5606,-3.4366,2.5197,3.8789,-5.8564,-4.7351,-15.3898,-14.2152,-16.1468,-0.3945,0.9398
0.7957,-0.8399,3.3554,-0.4188,-2.6745,-0.3508,-13.577,-4.0331,-12.3067,-18.6951,-12.6996,-12.7633,-9.8504,-5.1215,0.8617,-2.4526,1.4678,5.9087,1.3018,-3.1981,-4.1891,2.0485,3.5787,-6.0646,-4.7076,-15.3646,-14.3134,-16.1541,-0.5893,1.0649
0.3516,-1.2742,2.8945,-1.1889,-3.3799,-1.0013,-14.1587,-4.022,-12.2291,-19.0572,-12.9024,-12.8249,-10.4938,-5.8479,0.4639,-2.9996,1.0351,5.5064,0.7449,-3.8719,-4.906,1.564,3.2258,-6.2065,-4.5989,-15.195,-14.3066,-16.0333,-0.8077,1.1705
-0.1175,-1.668,2.3672,-1.8641,-4.072,-1.6916,-14.6252,-4.055,-12.1225,-19.2524,-13.0135,-12.7924,-10.9618,-6.4099,0.012,-3.5441,0.5851,5.0525,0.2016,-4.5192,-5.5247,1.1021,2.8585,-6.2639,-4.4337,-14.8992,-14.1921,-15.7851,-1.0307,1.2467
-0.5489,-1.9854,1.824,-2.3946,-4.7097,-2.3676,-14.938,-4.1378,-11.9823,-19.2406,-12.9983,-12.6534,-11.214,-6.7724,-0.4352,-4.043,0.154,4.5842,-0.2896,-5.0907,-6.0038,0.6839,2.5044,-6.2374,-4.2473,-14.5169,-13.9878,-15.4323,-1.2302,1.2884
-0.8984,-2.2156,1.3122,-2.7626,-5.2667,-2.9796,-15.0791,-4.2566,-11.7944,-19.0047,-12.8388,-12.4115,-11.247,-6.9382,-0.8349,-4.4715,-0.2409,4.1274,-0.7168,-5.5618,-6.3331,0.3111,2.1737,-6.1498,-4.0801,-14.1036,-13.7329,-15.0179,-1.375,1.2995
-1.1486,-2.3793,0.8674,-2.9879,-5.7387,-3.4923,-15.0564,-4.384,-11.5435,-18.5586,-12.5393,-12.0882,-11.0976,-6.9502,-1.1677,-4.8298,-0.6045,3.6942,-1.0974,-5.9378,-6.537,-0.0354,1.8555,-6.0458,-3.9729,-13.7227,-13.4849,-14.6006,-1.4381,1.2952
-1.3099,-2.5261,0.5077,-3.1244,-6.1443,-3.8931,-14.9059,-4.4887,-11.2215,-17.9502,-12.1304,-11.7219,-10.8382,-6.8839,-1.4388,-5.1422,-0.9605,3.2837,-1.4714,-6.252,-6.6694,-0.3914,1.5208,-5.9867,-3.9622,-13.4381,-13.3131,-14.2475,-1.4035,1.3002
-1.4153,-2.7224,0.2319,-3.2456,-6.5204,-4.1937,-14.6862,-4.5451,-10.835,-17.2576,-11.6653,-11.3632,-10.5639,-6.8318,-1.6718,-5.449,-1.343,2.8861,-1.8888,-6.5547,-6.8003,-0.8002,1.1298,-6.04,-4.0764,-13.3071,-13.2886,-14.0256,-1.27,1.3441
-1.5072,-3.03,0.0241,-3.4233,-6.9096,-4.4246,-14.4687,-4.5413,-10.4096,-16.5774,-11.2119,-11.0666,-10.3725,-6.8816,-1.8969,-5.7923,-1.7826,2.4902,-2.3921,-6.896,-6.996,-1.299,0.6453,-6.2649,-4.332,-13.3726,-13.471,-13.9914,-1.0522,1.454
-1.6226,-3.4844,-0.1372,-3.7051,-7.3457,-4.624,-14.324,-4.4838,-9.9893,-16.0086,-10.8396,-10.8803,-10.3432,-7.0951,-2.1367,-6.1986,-2.2927,2.0921,-2.9992,-7.3073,-7.3002,-1.9041,0.0471,-6.6975,-4.7299,-13.6568,-13.8947,-14.1798,-0.7776,1.6452
-1.7795,-4.0773,-0.2678,-4.0974,-7.8398,-4.8228,-14.3084,-4.3963,-9.6319,-15.6351,-10.606,-10.8363,-10.5193,-7.4926,-2.3961,-6.6652,-2.8592,1.7015,-3.692,-7.7881,-7.7194,-2.6003,-0.6571,-7.3392,-5.2529,-14.1543,-14.5575,-14.5956,-0.4808,1.9155
-1.9695,-4.7508,-0.3696,-4.5592,-8.3729,-5.0342,-14.4534,-4.3158,-9.3994,-15.5111,-10.5453,-10.9431,-10.8988,-8.0473,-2.6567,-7.1542,-3.4378,1.3438,-4.4143,-8.3004,-8.2197,-3.3379,-1.4272,-8.1514,-5.8655,-14.8294,-15.415,-15.2084,-0.1969,2.242
-2.1582,-5.4051,-0.4281,-5.0087,-8.8969,-5.2487,-14.7614,-4.2845,-9.346,-15.6524,-10.6615,-11.1828,-11.4356,-8.6912,-2.8805,-7.5971,-3.9611,1.0567,-5.0807,-8.7755,-8.7332,-4.0398,-2.1961,-9.0592,-6.5171,-15.6166,-16.3833,-15.9531,0.0442,2.5841
-2.2931,-5.9186,-0.4173,-5.3396,-9.3443,-5.4385,-15.2062,-4.3408,-9.5057,-16.0348,-10.9286,-11.5138,-12.0505,-9.3303,-3.0182,-7.9085,-4.3513,0.8816,-5.5947,-9.1284,-9.174,-4.6162,-2.8829,-9.9625,-7.148,-16.4273,-17.35,-16.7379,0.2217,2.8908
-2.3166,-6.1738,-0.3086,-5.4452,-9.6432,-5.5667,-15.7388,-4.5105,-9.8816,-16.5994,-11.2957,-11.8781,-12.6472,-9.8642,-3.0222,-8.0055,-4.5373,0.8521,-5.869,-9.2776,-9.4574,-4.9834,-3.4093,-10.7533,-7.698,-17.1611,-18.1918,-17.4575,0.3263,3.1098
-2.1803,-6.0835,-0.0818,-5.2422,-9.7342,-5.5986,-16.2959,-4.8002,-10.4421,-17.2626,-11.6967,-12.2114,-13.1314,-10.2055,-2.8577,-7.826,-4.4694,0.9837,-5.8456,-9.1631,-9.518,-5.0818,-3.717,-11.3343,-8.1147,-17.7211,-18.7957,-18.0102,0.3586,3.1971
-1.8578,-5.6102,0.2666,-4.6918,-9.5842,-5.5101,-16.8085,-5.1941,-11.1232,-17.9285,-12.0615,-12.4534,-13.4272,-10.2954,-2.5121,-7.3444,-4.1301,1.2671,-5.5074,-8.7601,-9.3231,-4.8877,-3.7785,-11.6353,-8.3613,-18.0299,-19.0773,-18.3147,0.3282,3.1245
-1.3533,-4.7763,0.7177,-3.8131,-9.1942,-5.2933,-17.2107,-5.6538,-11.837,-18.5017,-12.3255,-12.5569,-13.4885,-10.113,-1.9987,-6.5787,-3.538,1.6674,-4.8821,-8.0852,-8.8786,-4.4176,-3.6015,-11.6243,-8.4215,-18.0439,-18.9951,-18.3239,0.2505,2.8841
-0.7055,-3.6629,1.2308,-2.6854,-8.6006,-4.9574,-17.4456,-6.1225,-12.4845,-18.8981,-12.4365,-12.4935,-13.3034,-9.6762,-1.3572,-5.5907,-2.7461,2.1299,-4.037,-7.1947,-8.2277,-3.7249,-3.2255,-11.311,-8.3014,-17.761,-18.5558,-18.0316,0.1448,2.4896
0.016,-2.3979,1.7481,-1.4379,-7.8682,-4.5279,-17.4696,-6.5318,-12.9691,-19.0518,-12.3591,-12.2549,-12.8917,-9.0375,-0.6488,-4.4774,-1.8345,2.5905,-3.0662,-6.1758,-7.4424,-2.8897,-2.7128,-10.7428,-8.0272,-17.2212,-17.8111,-17.4723,0.0315,1.975
0.7196,-1.1349,2.2042,-0.2268,-7.0786,-4.0423,-17.2558,-6.8101,-13.208,-18.9196,-12.0745,-11.8519,-12.297,-8.2724,0.0518,-3.3563,-0.8985,2.9889,-2.0753,-5.1334,-6.6109,-2.005,-2.1366,-9.9941,-7.6402,-16.4979,-16.8469,-16.7117,-0.0697,1.39
1.3066,-0.0283,2.5376,0.7927,-6.3149,-3.5434,-16.7953,-6.8918,-13.141,-18.483,-11.5808,-11.3093,-11.5757,-7.4669,0.667,-2.347,-0.0353,3.2794,-1.1639,-4.1743,-5.8229,-1.1617,-1.5685,-9.1526,-7.1905,-15.684,-15.768,-15.8339,-0.1434,0.7937
1.6884,0.7916,2.703,1.4944,-5.6487,-3.0719,-16.0988,-6.7277,-12.7377,-17.7482,-10.8912,-10.6614,-10.787,-6.7033,1.1272,-1.5538,0.6697,3.4373,-0.413,-3.3927,-5.1565,-0.4368,-1.069,-8.305,-6.729,-14.8746,-14.6814,-14.9265,-0.1791,0.2471
1.8034,1.2386,2.6798,1.8013,-5.1305,-2.6598,-15.198,-6.2944,-12.0022,-16.7465,-10.0332,-9.9466,-9.9853,-6.0492,1.3813,-1.05,1.1549,3.4593,0.1249,-2.858,-4.6683,0.1148,-0.6811,-7.5254,-6.3013,-14.1511,-13.6814,-14.0663,-0.1729,-0.1959
1.6296,1.2829,2.4764,1.6969,-4.7859,-2.3265,-14.1454,-5.6032,-10.9765,-15.5339,-9.048,-9.204,-9.2158,-5.5503,1.4045,-0.8691,1.3895,3.3597,0.4278,-2.6061,-4.3879,0.4637,-0.4283,-6.8679,-5.9427,-13.5697,-12.8397,-13.311,-0.1267,-0.495
1.1907,0.9549,2.1291,1.2257,-4.6155,-2.0772,-13.0138,-4.7044,-9.7409,-14.1914,-7.9904,-8.4721,-8.5143,-5.2268,1.2028,-1.0011,1.3764,3.1647,0.5031,-2.6369,-4.3172,0.6045,-0.3157,-6.364,-5.675,-13.1566,-12.1998,-12.695,-0.048,-0.63
0.5542,0.3397,1.696,0.4865,-4.5993,-1.9055,-11.8924,-3.687,-8.4114,-12.8238,-6.9297,-7.7891,-7.9102,-5.0769,0.8129,-1.3959,1.1493,2.907,0.3803,-2.9152,-4.4338,0.5527,-0.3337,-6.0247,-5.5053,-12.9087,-11.7774,-12.2315,0.0499,-0.6029
-0.1792,-0.4377,1.2475,-0.3829,-4.7023,-1.7963,-10.8823,-2.6703,-7.13,-11.556,-5.9486,-7.1943,-7.4303,-5.0823,0.2967,-1.9733,0.7653,2.6221,0.104,-3.3783,-4.6978,0.3385,-0.4618,-5.8462,-5.4272,-12.8011,-11.5654,-11.9177,0.1479,-0.4375
-0.8924,-1.2332,0.8528,-1.2248,-4.8828,-1.7304,-10.0876,-1.7908,-6.0512,-10.5249,-5.1399,-6.729,-7.103,-5.2174,-0.268,-2.6359,0.2943,2.3451,-0.2753,-3.9466,-5.0606,0.001,-0.6731,-5.816,-5.4224,-12.7955,-11.5415,-11.7422,0.2214,-0.1749
-1.4728,-1.9073,0.5681,-1.8825,-5.0982,-1.6883,-9.6045,-1.1823,-5.322,-9.8648,-4.5976,-6.4341,-6.9586,-5.4567,-0.8013,-3.2857,-0.1928,2.1092,-0.7076,-4.5366,-5.4741,-0.4181,-0.9383,-5.919,-5.4646,-12.8507,-11.6755,-11.6913,0.242,0.1337
-1.8316,-2.3457,0.4285,-2.2225,-5.3101,-1.6517,-9.5072,-0.9545,-5.0595,-9.6867,-4.4026,-6.3451,-7.0247,-5.7799,-1.2343,-3.8377,-0.635,1.9424,-1.1495,-5.0734,-5.8975,-0.8791,-1.2295,-6.1403,-5.5246,-12.9294,-11.9353,-11.7515,0.1805,0.4363
-1.9176,-2.4766,0.4445,-2.1542,-5.4888,-1.6051,-9.833,-1.173,-5.3299,-10.0559,-4.6064,-6.483,-7.3185,-6.1722,-1.5202,-4.2332,-0.9895,1.8647,-1.5674,-5.5014,-6.3018,-1.3493,-1.5231,-6.4656,-5.5749,-13.0029,-12.29,-11.9098,0.0126,0.6887
-1.7239,-2.2794,0.6047,-1.6471,-5.6155,-1.5366,-10.5722,-1.8446,-6.1326,-10.9739,-5.2149,-6.8465,-7.8375,-6.6224,-1.6417,-4.4469,-1.2365,1.8841,-1.9413,-5.7923,-6.6717,-1.806,-1.803,-6.8791,-5.5952,-13.053,-12.7113,-12.1514,-0.2741,0.8627
-1.2869,-1.787,0.8801,-0.7381,-5.6851,-1.4403,-11.6637,-2.9133,-7.396,-12.3697,-6.1802,-7.4063,-8.5529,-7.1191,-1.6116,-4.4888,-1.3802,1.9934,-2.2655,-5.9477,-7.0046,-2.238,-2.0617,-7.3616,-5.5758,-13.0716,-13.1739,-12.457,-0.6747,0.9502
-0.6769,-1.0778,1.2305,0.4713,-5.7063,-1.3172,-13.0014,-4.2668,-8.9857,-14.1068,-7.403,-8.1058,-9.4093,-7.6475,-1.4686,-4.4008,-1.4449,2.1698,-2.5483,-5.9969,-7.3079,-2.6454,-2.3002,-7.8884,-5.518,-13.0597,-13.6546,-12.8027,-1.1647,0.964
0.0158,-0.2606,1.6104,1.8324,-5.6984,-1.1755,-14.4488,-5.7559,-10.7262,-16.0029,-8.7471,-8.8686,-10.3308,-8.1881,-1.2678,-4.2453,-1.4675,2.3782,-2.8076,-5.988,-7.5942,-3.036,-2.5253,-8.4306,-5.4333,-13.0248,-14.1327,-13.16,-1.7026,0.9325
