FP1,F3,F7,FC3,C3,C5,P3,P7,PO7,PO3,O1,Oz,Pz,CPz,FP2,Fz,F4,F8,FC4,FCz,Cz,C4,C6,P4,P8,PO8,PO4,O2,HEOG_left,HEOG_right
1.8398,0.7418,0.1928,0.8248,-0.2689,-1.1071,-2.4468,-2.5449,-2.6094,-2.7743,-1.8034,-1.1083,-0.478,0.5176,1.092,2.1,1.6983,1.0751,2.0019,2.4119,1.6656,1.8353,1.188,0.7144,0.8356,0.0876,-0.2464,-0.1181,0.5451,0.6433
1.9997,1.2609,0.7107,1.4534,0.6256,-0.2588,-1.3152,-1.5995,-1.7468,-1.7164,-1.0185,-0.3795,0.4213,1.3814,1.4923,2.393,1.9868,1.0771,2.2048,2.838,2.2935,2.0507,1.3515,1.2543,1.0608,0.4547,0.3569,0.3743,0.7621,0.4622
2.1371,1.7547,1.204,2.0462,1.4688,0.566,-0.2425,-0.6951,-0.9199,-0.719,-0.2822,0.2819,1.2443,2.1734,1.8412,2.6445,2.2294,1.0458,2.3723,3.2157,2.8596,2.2344,1.4892,1.7274,1.237,0.7553,0.8826,0.7972,0.9801,0.2846
2.2269,2.1926,1.6416,2.5653,2.2068,1.3296,0.7192,0.1295,-0.1634,0.1668,0.3631,0.8188,1.9309,2.8369,2.0958,2.82,2.3901,0.9636,2.4807,3.5051,3.3151,2.3663,1.5815,2.0839,1.3339,0.9382,1.271,1.0976,1.1919,0.1166
2.256,2.5522,2.0028,2.9845,2.797,1.9989,1.5302,0.8444,0.4947,0.9031,0.8871,1.1937,2.4419,3.3363,2.2338,2.9043,2.4526,0.8292,2.5214,3.6857,3.6322,2.4369,1.6166,2.2942,1.3338,0.9739,1.4868,1.2436,1.3902,-0.0335
2.2245,2.8207,2.2779,3.2908,3.2128,2.5486,2.1674,1.4309,1.0357,1.4689,1.2742,1.3937,2.7647,3.6605,2.2556,2.9037,2.4223,0.6591,2.5012,3.7575,3.8073,2.4485,1.5922,2.3531,1.2349,0.8595,1.5242,1.2295,1.5675,-0.1557
2.1421,2.9935,2.466,3.483,3.4457,2.961,2.6248,1.8818,1.451,1.8617,1.5244,1.43,2.9125,3.8214,2.1814,2.8403,2.3219,0.4821,2.4389,3.7371,3.8575,2.4136,1.5153,2.2795,1.0525,0.6196,1.4064,1.0755,1.714,-0.2408
2.0213,3.0708,2.5713,3.5658,3.5031,3.2254,2.912,2.1986,1.7409,2.0955,1.6509,1.3332,2.9187,3.8476,2.0414,2.7412,2.1815,0.3305,2.3572,3.6479,3.8126,2.3501,1.3993,2.1114,0.8173,0.2998,1.1785,0.8222,1.816,-0.2847
1.8696,3.0528,2.5983,3.5445,3.4055,3.3365,3.0498,2.3897,1.9136,2.1972,1.6758,1.1455,2.8279,3.7747,1.8654,2.627,2.0269,0.229,2.274,3.5106,3.7048,2.2757,1.2603,1.8967,0.5698,-0.0425,0.8979,0.5214,1.8564,-0.2916
1.6853,2.9383,2.5486,3.421,3.1811,3.2926,3.0659,2.4677,1.983,2.2006,1.6263,0.9113,2.6853,3.6365,1.6724,2.5024,1.8704,0.1861,2.195,3.3352,3.5589,2.2015,1.1132,1.6828,0.3532,-0.3499,0.6222,0.2257,1.8166,-0.2764
1.4582,2.7251,2.4204,3.1942,2.8623,3.0966,2.9895,2.4476,1.9666,2.1406,1.5294,0.6698,2.5278,3.4578,1.4671,2.3546,1.7073,0.1915,2.1117,3.119,3.3876,2.129,0.9685,1.5065,0.2036,-0.5762,0.3983,-0.0222,1.6826,-0.2636
1.1751,2.4128,2.2099,2.8648,2.4818,2.7569,2.8472,2.3456,1.8831,2.0466,1.4086,0.4495,2.3771,3.2508,1.2409,2.1581,1.5195,0.2188,2.0029,2.8494,3.1899,2.0484,0.8307,1.387,0.1423,-0.6944,0.2555,-0.1957,1.4497,-0.2824
0.8259,2.0073,1.9143,2.4394,2.0698,2.2896,2.6591,2.1769,1.75,1.9381,1.2812,0.2662,2.2376,3.0149,0.9789,1.8847,1.283,0.2336,1.8412,2.5104,2.9546,1.9411,0.6982,1.3233,0.1704,-0.7005,0.2013,-0.2874,1.1262,-0.3602
0.4098,1.5232,1.5357,1.9341,1.6503,1.7188,2.4359,1.9541,1.5813,1.8215,1.1559,0.1237,2.0976,2.7397,0.6686,1.5139,0.9772,0.2028,1.6003,2.0892,2.6654,1.7839,0.5645,1.2966,0.2692,-0.612,0.223,-0.3077,0.7319,-0.5149
-0.0625,0.9842,1.0843,1.3744,1.2377,1.0754,2.1786,1.6857,1.3861,1.6906,1.0329,0.0163,1.9345,2.4104,0.3072,1.041,0.5931,0.1038,1.2631,1.5824,2.307,1.5554,0.4204,1.2758,0.4051,-0.4619,0.2933,-0.2793,0.2945,-0.7496
-0.5695,0.4211,0.5785,0.7912,0.8355,0.3945,1.8798,1.3761,1.1682,1.5295,0.9051,-0.0661,1.7219,2.0137,-0.0947,0.4806,0.1371,-0.0704,0.8269,0.9989,1.8705,1.242,0.2566,1.2265,0.5384,-0.2904,0.378,-0.2296,-0.1567,-1.0488
-1.0815,-0.133,0.043,0.2155,0.4359,-0.2886,1.5278,1.0269,0.9271,1.3185,0.761,-0.1346,1.4372,1.5434,-0.5133,-0.1349,-0.3681,-0.3094,0.3067,0.3599,1.3573,0.8437,0.0673,1.1197,0.633,-0.1358,0.4444,-0.1832,-0.5951,-1.3803
-1.5632,-0.6473,-0.4943,-0.3272,0.0237,-0.9412,1.1119,0.6385,0.6592,1.0402,0.589,-0.1975,1.0681,1.0041,-0.916,-0.7606,-0.887,-0.5891,-0.2651,-0.3025,0.7802,0.3768,-0.1468,0.9385,0.6644,-0.0273,0.4688,-0.1564,-0.999,-1.6998
-1.9774,-1.0961,-1.004,-0.8192,-0.4168,-1.5348,0.6269,0.2135,0.361,0.6853,0.3818,-0.2579,0.6169,0.4122,-1.2666,-1.3456,-1.3756,-0.8766,-0.8422,-0.9487,0.1635,-0.1271,-0.3769,0.6819,0.6247,0.02,0.4398,-0.1536,-1.3502,-1.9591
-2.2869,-1.461,-1.4568,-1.2512,-0.8946,-2.0455,0.0775,-0.2421,0.0308,0.2567,0.1398,-0.3131,0.1014,-0.2051,-1.5305,-1.8393,-1.7868,-1.1368,-1.3701,-1.5353,-0.4599,-0.6249,-0.6053,0.3646,0.524,0.0061,0.3592,-0.1686,-1.6315,-2.1146
-2.4591,-1.7302,-1.823,-1.6195,-1.4054,-2.4536,-0.5196,-0.7165,-0.3287,-0.2291,-0.1279,-0.3557,-0.4475,-0.8138,-1.6787,-2.1979,-2.0759,-1.3365,-1.7933,-2.0198,-1.0522,-1.0685,-0.8074,0.0141,0.3869,-0.0555,0.2405,-0.1861,-1.8255,-2.1343
-2.4716,-1.8975,-2.0754,-1.9223,-1.9291,-2.7438,-1.1371,-1.1922,-0.7089,-0.7441,-0.4037,-0.3756,-0.9899,-1.3775,-1.6905,-2.3893,-2.2059,-1.4474,-2.0634,-2.3653,-1.5748,-1.4131,-0.9551,-0.3344,0.2469,-0.1413,0.1039,-0.1873,-1.9154,-2.0024
-2.3173,-1.9608,-2.1935,-2.1571,-2.4321,-2.9075,-1.7393,-1.647,-1.0946,-1.2522,-0.6654,-0.3633,-1.4842,-1.8627,-1.556,-2.3968,-2.1532,-1.449,-2.1466,-2.5461,-1.9938,-1.625,-1.0219,-0.6454,0.1384,-0.224,-0.0275,-0.1549,-1.8889,-1.7203
-2.01,-1.922,-2.1697,-2.3187,-2.8733,-2.9454,-2.2878,-2.0568,-1.4653,-1.7156,-0.8903,-0.3133,-1.8933,-2.2436,-1.2789,-2.2222,-1.9127,-1.3307,-2.0301,-2.5516,-2.2851,-1.6872,-0.9887,-0.8889,0.0893,-0.2779,-0.1337,-0.0779,-1.7434,-1.3065
-1.5841,-1.7864,-2.0135,-2.4006,-3.2129,-2.8706,-2.7472,-2.3986,-1.7966,-2.1004,-1.0599,-0.2267,-2.1909,-2.5057,-0.8784,-1.8864,-1.5012,-1.0944,-1.7259,-2.389,-2.4375,-1.6039,-0.8491,-1.0468,0.1141,-0.2849,-0.2019,0.044,-1.4897,-0.7931
-1.09,-1.5632,-1.7511,-2.3966,-3.4207,-2.708,-3.09,-2.654,-2.0637,-2.3819,-1.1636,-0.1126,-2.3652,-2.6475,-0.3895,-1.4273,-0.9568,-0.7559,-1.2712,-2.0836,-2.4553,-1.3998,-0.6128,-1.1156,0.2109,-0.2386,-0.2292,0.1993,-1.1525,-0.2225
-0.5844,-1.2666,-1.4201,-2.3039,-3.4809,-2.4908,-3.299,-2.8101,-2.2443,-2.5468,-1.1995,0.013,-2.4194,-2.6791,0.1393,-0.8951,-0.3353,-0.3454,-0.7242,-1.6756,-2.3573,-1.1164,-0.3055,-1.1075,0.3609,-0.1462,-0.224,0.3657,-0.768,0.3575
-0.119,-0.9155,-1.0615,-2.1245,-3.3934,-2.2522,-3.3683,-2.8596,-2.3218,-2.5935,-1.1746,0.1298,-2.3698,-2.6204,0.6521,-0.3462,0.2968,0.0952,-0.1565,-1.2148,-2.1729,-0.8057,0.0335,-1.047,0.5316,-0.0273,-0.2042,0.5134,-0.3779,0.8986
0.2694,-0.5353,-0.7121,-1.8668,-3.1709,-2.0164,-3.3012,-2.8,-2.287,-2.5298,-1.1017,0.2166,-2.2415,-2.4963,1.0927,0.1637,0.8714,0.5174,0.3568,-0.7543,-1.938,-0.5213,0.357,-0.9669,0.6823,0.0896,-0.1936,0.6111,-0.0231,1.3574
0.5637,-0.157,-0.3999,-1.5464,-2.8345,-1.7927,-3.1084,-2.6325,-2.1404,-2.3701,-0.9967,0.2557,-2.064,-2.3335,1.413,0.5862,1.3271,0.873,0.748,-0.3441,-1.6892,-0.3104,0.6165,-0.9022,0.7702,0.1729,-0.2176,0.6309,0.263,1.7006
0.7652,0.1835,-0.1426,-1.1856,-2.4092,-1.5739,-2.8063,-2.3626,-1.8916,-2.1325,-0.8757,0.2351,-1.8667,-2.1573,1.5784,0.8844,1.6171,1.1216,0.9666,-0.0266,-1.4599,-0.2077,0.7693,-0.8842,0.7583,0.1949,-0.2973,0.5546,0.4584,1.9082
0.8885,0.4493,0.0499,-0.8132,-1.9226,-1.3415,-2.4157,-2.0009,-1.5596,-1.8361,-0.7528,0.1511,-1.6762,-1.9892,1.5716,1.036,1.7147,1.2374,0.986,0.168,-1.278,-0.2309,0.7855,-0.9351,0.6223,0.1377,-0.4452,0.3764,0.5546,1.9766
0.9519,0.6071,0.1723,-0.463,-1.4041,-1.0752,-1.9616,-1.5642,-1.1702,-1.4999,-0.6383,0.0082,-1.5136,-1.8457,1.3938,1.0339,1.6165,1.2135,0.8076,0.2229,-1.1634,-0.3787,0.653,-1.0637,0.3569,-0.0018,-0.6609,0.1061,0.5558,1.9179
0.9698,0.6332,0.2207,-0.1706,-0.8863,-0.7629,-1.4726,-1.0757,-0.7534,-1.1418,-0.5389,-0.1809,-1.3926,-1.7374,1.0645,0.8854,1.3419,1.0634,0.4595,0.1365,-1.1272,-0.6319,0.3811,-1.2631,-0.0212,-0.2095,-0.9295,-0.2327,0.4753,1.7582
0.9466,0.5171,0.1917,0.0307,-0.4045,-0.4086,-0.9801,-0.5646,-0.34,-0.779,-0.4575,-0.3978,-1.3184,-1.669,0.6186,0.61,0.9295,0.817,-0.0091,-0.0794,-1.1717,-0.9567,0,-1.511,-0.4743,-0.4564,-1.2226,-0.6047,0.3316,1.5313
0.8757,0.2652,0.0838,0.1156,0.0056,-0.0349,-0.5163,-0.064,0.0413,-0.4281,-0.3948,-0.6206,-1.2883,-1.6398,0.1026,0.2355,0.4299,0.5139,-0.5364,-0.4011,-1.2905,-1.31,-0.4437,-1.7735,-0.9501,-0.7032,-1.5039,-0.969,0.1448,1.2727
0.744,-0.0998,-0.0991,0.0712,0.3118,0.3205,-0.1114,0.3921,0.3665,-0.1058,-0.3504,-0.8273,-1.2931,-1.6454,-0.4315,-0.2056,-0.1035,0.1938,-1.059,-0.7966,-1.4701,-1.6467,-0.8941,-2.0112,-1.3911,-0.9082,-1.7352,-1.2853,-0.0666,1.0119
0.5383,-0.5405,-0.3451,-0.0994,0.492,0.6141,0.2097,0.7731,0.6182,0.1721,-0.3238,-0.9985,-1.3183,-1.6779,-0.9334,-0.6793,-0.622,-0.1102,-1.5217,-1.2297,-1.6903,-1.9257,-1.2957,-2.1858,-1.7452,-1.0358,-1.8841,-1.5199,-0.2862,0.7685
0.2537,-1.0099,-0.6329,-0.3766,0.5391,0.8077,0.431,1.0553,0.787,0.3921,-0.3139,-1.119,-1.3468,-1.7266,-1.3611,-1.153,-1.0883,-0.3766,-1.8842,-1.663,-1.9268,-2.1159,-1.6015,-2.2671,-1.9745,-1.0625,-1.9288,-1.6499,-0.4997,0.5505
-0.1019,-1.4571,-0.9342,-0.7257,0.4647,0.8794,0.5479,1.2259,0.8718,0.5453,-0.3186,-1.1787,-1.3608,-1.7774,-1.6862,-1.5963,-1.4788,-0.5943,-2.1249,-2.0611,-2.1519,-2.1986,-1.7804,-2.2372,-2.0607,-0.9806,-1.8609,-1.6653,-0.6935,0.3571
-0.5051,-1.8343,-1.2156,-1.1017,0.2978,0.8291,0.5685,1.2836,0.8796,0.6291,-0.3335,-1.1727,-1.343,-1.8133,-1.8963,-1.9819,-1.7827,-0.759,-2.2403,-2.3924,-2.3365,-2.1691,-1.8204,-2.0928,-2.0065,-0.7986,-1.6845,-1.568,-0.8534,0.1845
-0.9188,-2.1025,-1.4426,-1.4547,0.0808,0.6796,0.5122,1.2384,0.8238,0.6482,-0.3521,-1.1008,-1.2791,-1.8151,-1.9947,-2.2857,-1.9988,-0.869,-2.2416,-2.6309,-2.4531,-2.0353,-1.7291,-1.8451,-1.8329,-0.5384,-1.4145,-1.3702,-0.9643,0.0309
-1.2959,-2.2363,-1.5823,-1.7365,-0.1383,0.4716,0.4066,1.1087,0.7217,0.6142,-0.3662,-0.9672,-1.1596,-1.764,-1.9973,-2.4871,-2.1315,-0.9215,-2.1496,-2.7574,-2.478,-1.8158,-1.531,-1.5176,-1.5749,-0.2307,-1.0736,-1.0914,-1.0114,-0.0999
-1.5848,-2.2263,-1.6075,-1.906,-0.314,0.2551,0.283,0.9185,0.5926,0.5445,-0.3664,-0.7793,-0.981,-1.644,-1.9282,-2.5702,-2.1864,-0.912,-1.9896,-2.7604,-2.3952,-1.5364,-1.2619,-1.1413,-1.2744,0.0903,-0.6885,-0.7558,-0.9814,-0.1976
-1.7366,-2.079,-1.5001,-1.9342,-0.4103,0.0804,0.1726,0.6951,0.4562,0.4605,-0.3431,-0.5464,-0.7459,-1.445,-1.8137,-2.5256,-2.1675,-0.8362,-1.786,-2.6369,-2.1978,-1.2252,-0.9619,-0.7486,-0.9718,0.3937,-0.2865,-0.3885,-0.8656,-0.2479
-1.7145,-1.8149,-1.2553,-1.807,-0.4043,-0.0105,0.1022,0.4667,0.3316,0.3852,-0.2868,-0.2777,-0.4623,-1.1649,-1.6763,-2.3519,-2.0768,-0.6927,-1.5586,-2.3926,-1.8893,-0.9089,-0.6679,-0.3677,-0.6988,0.6573,0.1089,-0.0124,-0.6618,-0.2367
-1.5023,-1.465,-0.8857,-1.5273,-0.2893,0.0099,0.0917,0.2605,0.2361,0.3403,-0.1893,0.0188,-0.1434,-0.8112,-1.53,-2.0582,-1.9155,-0.4865,-1.3206,-2.0417,-1.484,-0.6094,-0.408,-0.0189,-0.4746,0.8704,0.4793,0.3538,-0.3767,-0.1547
-1.1133,-1.0674,-0.4229,-1.1167,-0.0752,0.15,0.1507,0.0999,0.1828,0.3415,-0.0465,0.3344,0.1932,-0.4029,-1.3787,-1.6651,-1.6888,-0.2309,-1.0806,-1.6082,-1.0069,-0.3434,-0.1994,0.2854,-0.306,1.0327,0.8123,0.6957,-0.028,-0.0015
-0.5928,-0.663,0.0837,-0.6144,0.2125,0.3966,0.276,0.0009,0.1784,0.3947,0.1393,0.6577,0.5246,0.0294,-1.2187,-1.2059,-1.4093,0.0519,-0.8458,-1.1259,-0.4943,-0.1236,-0.0495,0.5378,-0.1921,1.1497,1.0985,1.0009,0.3562,0.212
-0.0139,-0.2911,0.573,-0.0738,0.5353,0.7169,0.4514,-0.0301,0.2214,0.4935,0.3571,0.9722,0.8236,0.4456,-1.0434,-0.7237,-1.0988,0.3337,-0.6252,-0.6371,0.0089,0.0392,0.0408,0.7319,-0.1312,1.2261,1.3291,1.2578,0.739,0.4641
0.5341,0.0164,0.9824,0.446,0.8486,1.0637,0.6502,0.0037,0.3025,0.6209,0.5882,1.2563,1.0611,0.8006,-0.8476,-0.2663,-0.7862,0.5853,-0.4305,-0.1883,0.4532,0.1358,0.0742,0.8592,-0.1255,1.2617,1.4941,1.4539,1.0807,0.7254
0.963,0.2403,1.2592,0.8897,1.109,1.385,0.8399,0.0906,0.4067,0.7525,0.8093,1.4853,1.2106,1.0513,-0.6322,0.1215,-0.502,0.7832,-0.2747,0.1763,0.7912,0.1591,0.0542,0.9087,-0.1823,1.2493,1.5826,1.5774,1.3452,0.9648
1.2038,0.376,1.3705,1.2147,1.2819,1.6321,0.9882,0.2134,0.5162,0.8626,0.9962,1.6359,1.2515,1.1639,-0.406,0.4052,-0.2717,0.9135,-0.1693,0.4212,0.9843,0.1054,-0.016,0.8686,-0.312,1.1764,1.5833,1.6178,1.5065,1.1553
1.22,0.4307,1.307,1.3955,1.3445,1.7665,1.0677,0.3519,0.6141,0.9284,1.1279,1.6896,1.1717,1.118,-0.1866,0.5639,-0.1115,0.9727,-0.1224,0.5233,1.0074,-0.0249,-0.1341,0.7288,-0.5235,1.0288,1.4869,1.5681,1.552,1.2778
1.0142,0.4171,1.0825,1.4238,1.2857,1.7633,1.0592,0.4854,0.6854,0.9328,1.1894,1.6355,0.9677,0.908,0.0004,0.5904,-0.028,0.9646,-0.1388,0.4727,0.8508,-0.2286,-0.2993,0.4837,-0.8202,0.7957,1.2876,1.4253,1.4829,1.323
0.6257,0.3446,0.7276,1.304,1.1037,1.6121,0.9525,0.594,0.7191,0.8658,1.1723,1.472,0.6434,0.5415,0.1235,0.4873,-0.0205,0.8946,-0.2215,0.2704,0.5185,-0.5013,-0.5129,0.1333,-1.1967,0.4731,0.9835,1.1901,1.3109,1.2903
0.1213,0.2135,0.2815,1.0484,0.8029,1.3158,0.7461,0.661,0.7083,0.7239,1.0758,1.2072,0.2087,0.0358,0.1495,0.2627,-0.0855,0.7648,-0.3746,-0.0751,0.0254,-0.8404,-0.7785,-0.3163,-1.6395,0.0662,0.5777,0.8674,1.0546,1.1855
-0.4188,0.0136,-0.2153,0.6726,0.3931,0.89,0.4466,0.6742,0.6509,0.5102,0.9058,0.8576,-0.3209,-0.5846,0.05,-0.0728,-0.2204,0.5713,-0.6049,-0.55,-0.6046,-1.2459,-1.1016,-0.853,-2.1281,-0.4098,0.0787,0.466,0.7354,1.0183
-0.9173,-0.2717,-0.7268,0.1945,-0.1093,0.3617,0.0684,0.6282,0.5498,0.2343,0.6747,0.4475,-0.924,-1.2894,-0.1917,-0.5062,-0.4243,0.3063,-0.9201,-1.1347,-1.3403,-1.7195,-1.4873,-1.4593,-2.638,-0.931,-0.4982,-0.0002,0.3755,0.8005
-1.3146,-0.6563,-1.2242,-0.3643,-0.6793,-0.2318,-0.3662,0.5251,0.4134,-0.0879,0.4007,0.007,-1.572,-2.0426,-0.5736,-1.0201,-0.697,-0.0369,-1.326,-1.8028,-2.1421,-2.2611,-1.9379,-2.1121,-3.1424,-1.4666,-1.1297,-0.5106,-0.0027,0.5452
-1.5798,-1.1414,-1.6863,-0.977,-1.2821,-0.8465,-0.8278,0.3742,0.2541,-0.4344,0.1065,-0.4301,-2.2288,-2.8019,-1.0721,-1.5902,-1.035,-0.4574,-1.8208,-2.5185,-2.963,-2.864,-2.4479,-2.7816,-3.6144,-1.9811,-1.7834,-1.0379,-0.3772,0.2668
-1.7145,-1.7089,-2.0997,-1.6106,-1.8751,-1.4359,-1.2825,0.1898,0.0867,-0.7796,-0.1826,-0.8291,-2.8528,-3.52,-1.6446,-2.184,-1.4282,-0.9402,-2.39,-3.2377,-3.7496,-3.5103,-3.0009,-3.4317,-4.0277,-2.4376,-2.4183,-1.5474,-0.727,-0.0196
-1.7491,-2.3197,-2.4566,-2.2267,-2.4127,-1.9569,-1.6955,-0.0122,-0.0742,-1.0975,-0.442,-1.1589,-3.4003,-4.1473,-2.2357,-2.7629,-1.8568,-1.4541,-3.0033,-3.9095,-4.4467,-4.1671,-3.5665,-4.0196,-4.3577,-2.8006,-2.9872,-2.0006,-1.0342,-0.2982
-1.7321,-2.9186,-2.7527,-2.7849,-2.8527,-2.3744,-2.0353,-0.2171,-0.2167,-1.365,-0.6505,-1.3954,-3.8302,-4.6369,-2.7875,-3.2851,-2.2909,-1.9517,-3.6149,-4.4824,-5.0022,-4.7864,-4.0999,-4.4986,-4.5828,-3.0398,-3.4409,-2.3589,-1.2847,-0.5531
-1.7166,-3.4448,-2.9841,-3.2464,-3.1621,-2.6636,-2.2785,-0.4133,-0.333,-1.5656,-0.7939,-1.5261,-4.1101,-4.9503,-3.2483,-3.7117,-2.6925,-2.3764,-4.168,-4.9108,-5.3746,-5.3091,-4.5458,-4.8221,-4.6865,-3.1325,-3.7343,-2.5899,-1.4704,-0.7688
-1.747,-3.8446,-3.1463,-3.5794,-3.3221,-2.8113,-2.4128,-0.5933,-0.4198,-1.6914,-0.8672,-1.552,-4.2203,-5.0639,-3.5812,-4.0123,-3.0214,-2.672,-4.6037,-5.1629,-5.5388,-5.674,-4.846,-4.9499,-4.6595,-3.067,-3.8328,-2.6724,-1.589,-0.9309
-1.8488,-4.0837,-3.2356,-3.7641,-3.3306,-2.8168,-2.4379,-0.7533,-0.4781,-1.7433,-0.8749,-1.4885,-4.1577,-4.974,-3.7694,-4.1718,-3.2423,-2.7957,-4.8726,-5.227,-5.4925,-5.8291,-4.95,-4.8562,-4.5025,-2.844,-3.7187,-2.6012,-1.6454,-1.028
-2.0251,-4.1539,-3.2519,-3.7965,-3.2024,-2.6921,-2.3653,-0.8921,-0.5113,-1.7301,-0.8312,-1.362,-3.9364,-4.6993,-3.8186,-4.193,-3.3331,-2.7288,-4.9459,-5.1153,-5.2574,-5.7449,-4.8274,-4.5364,-4.2276,-2.4788,-3.3954,-2.3886,-1.6512,-1.0546
-2.257,-4.0735,-3.2021,-3.6896,-2.9661,-2.461,-2.2148,-1.0104,-0.5244,-1.6652,-0.7565,-1.2055,-3.5858,-4.2793,-3.7558,-4.0973,-3.2895,-2.4829,-4.8225,-4.8626,-4.8778,-5.4233,-4.4763,-4.0112,-3.8588,-2.0007,-2.889,-2.0631,-1.6239,-1.0139
-2.5087,-3.8806,-3.1008,-3.4708,-2.6582,-2.1563,-2.0093,-1.1084,-0.5224,-1.5633,-0.6742,-1.0517,-3.1449,-3.7677,-3.6223,-3.9191,-3.1258,-2.0992,-4.5302,-4.519,-4.4127,-4.8999,-3.9272,-3.3254,-3.4288,-1.4503,-2.2443,-1.6648,-1.5841,-0.918
-2.7353,-3.622,-2.9685,-3.1753,-2.3154,-1.8142,-1.77,-1.185,-0.5102,-1.4367,-0.6061,-0.927,-2.6548,-3.2225,-3.4638,-3.6974,-2.8706,-1.6392,-4.1193,-4.1394,-3.9244,-4.2382,-3.2388,-2.5418,-2.9751,-0.8748,-1.5188,-1.2383,-1.5512,-0.7862
-2.8923,-3.3407,-2.8278,-2.8389,-1.9681,-1.468,-1.5116,-1.2374,-0.4927,-1.293,-0.5693,-0.8462,-2.1511,-2.6943,-3.3169,-3.4657,-2.5585,-1.171,-3.6512,-3.7713,-3.4661,-3.5176,-2.4882,-1.7304,-2.5341,-0.3211,-0.7731,-0.8251,-1.5388,-0.6391
-2.9438,-3.0658,-2.698,-2.4897,-1.6356,-1.1433,-1.2411,-1.2618,-0.4768,-1.1354,-0.5743,-0.8105,-1.658,-2.2166,-3.1986,-3.2433,-2.2213,-0.7533,-3.1844,-3.4445,-3.0719,-2.8176,-1.7556,-0.9573,-2.1357,0.1717,-0.061,-0.4569,-1.5498,-0.4926
-2.8681,-2.8066,-2.5907,-2.1441,-1.3248,-0.8551,-0.9587,-1.2559,-0.4717,-0.9644,-0.6254,-0.8085,-1.186,-1.8009,-3.1004,-3.0306,-1.8807,-0.4222,-2.7626,-3.1662,-2.7511,-2.2028,-1.1089,-0.2737,-1.7993,0.5781,0.5775,-0.1505,-1.5733,-0.351
-2.6597,-2.5534,-2.5071,-1.805,-1.0322,-0.6076,-0.6615,-1.2207,-0.49,-0.7805,-0.7216,-0.8193,-0.7316,-1.4365,-2.9894,-2.8099,-1.5444,-0.1833,-2.4062,-2.9206,-2.4887,-1.7114,-0.5908,0.2915,-1.5306,0.8901,1.1221,0.0941,-1.5849,-0.2043
-2.3269,-2.283,-2.4372,-1.4656,-0.7482,-0.3963,-0.3463,-1.1625,-0.5451,-0.5856,-0.8579,-0.8164,-0.2815,-1.0949,-2.818,-2.5518,-1.2058,-0.0112,-2.1101,-2.6748,-2.251,-1.3504,-0.2118,0.7346,-1.3208,1.1187,1.5726,0.2931,-1.5499,-0.0294
-1.8876,-1.9688,-2.362,-1.1143,-0.4609,-0.2093,-0.0125,-1.0933,-0.6482,-0.3844,-1.0252,-0.7719,0.1824,-0.7397,-2.5389,-2.2244,-0.8488,0.142,-1.8477,-2.3894,-1.9952,-1.0978,0.049,1.0748,-1.149,1.2908,1.9466,0.4748,-1.4316,0.2039
-1.3649,-1.5917,-2.2594,-0.7416,-0.1608,-0.0318,0.3354,-1.0291,-0.8044,-0.1836,-1.2106,-0.6607,0.6757,-0.3374,-2.1207,-1.8065,-0.4554,0.3319,-1.5808,-2.0303,-1.6821,-0.9113,0.2352,1.3474,-0.9868,1.444,2.2726,0.6739,-1.2013,0.5234
-0.785,-1.1499,-2.1115,-0.3474,0.1552,0.1502,0.687,-0.9883,-1.0104,0.0081,-1.3982,-0.4645,1.2048,0.1311,-1.5612,-1.2973,-0.0151,0.6049,-1.273,-1.5812,-1.2881,-0.7416,0.3989,1.5929,-0.8058,1.618,2.5815,0.9239,-0.8491,0.944
-0.1763,-0.6644,-1.9127,0.0546,0.4809,0.3432,1.0248,-0.9894,-1.2548,0.1802,-1.5706,-0.1746,1.7602,0.662,-0.8912,-0.7222,0.4673,0.9828,-0.9014,-1.0513,-0.8137,-0.5462,0.5863,1.8454,-0.5854,1.845,2.8972,1.2499,-0.3912,1.4601
0.4303,-0.1772,-1.6741,0.4359,0.8003,0.5435,1.3251,-1.0484,-1.5215,0.3206,-1.7122,0.2058,2.3156,1.2261,-0.1694,-0.1311,0.9685,1.4548,-0.4649,-0.4764,-0.2857,-0.2992,0.826,2.1243,-0.3179,2.143,3.2311,1.6635,0.1311,2.0431
1.0037,0.2566,-1.4212,0.759,1.0908,0.7359,1.561,-1.1762,-1.7934,0.4164,-1.8116,0.6626,2.8303,1.7742,0.5327,0.4121,1.451,1.9805,0.0157,0.0879,0.2481,0.0042,1.1246,2.4304,-0.0091,2.513,3.5799,2.161,0.6581,2.6467
1.5159,0.5832,-1.1867,0.9876,1.3286,0.8988,1.7076,-1.3761,-2.0563,0.4564,-1.8629,1.173,3.2579,2.2481,1.1489,0.8455,1.872,2.5012,0.5042,0.5803,0.7308,0.3505,1.4696,2.7488,0.3248,2.9411,3.9295,2.7253,1.1268,3.2175
1.9474,0.7655,-0.9991,1.0976,1.495,1.0113,1.7472,-1.6427,-2.3015,0.4338,-1.8666,1.7098,3.5574,2.5952,1.6351,1.1256,2.196,2.9563,0.9608,0.9495,1.1113,0.715,1.8357,3.0554,0.663,3.4035,4.2604,3.3303,1.4854,3.7079
2.2899,0.7942,-0.8736,1.086,1.5808,1.06,1.6741,-1.9622,-2.5264,0.3482,-1.8285,2.2449,3.7033,2.7815,1.9787,1.2395,2.405,3.2992,1.352,1.1682,1.3567,1.0696,2.1935,3.3246,0.9863,3.8733,4.5539,3.9449,1.7062,4.0863
2.548,0.6921,-0.8066,0.9738,1.5879,1.0443,1.4963,-2.3156,-2.7343,0.2055,-1.7593,2.7516,3.6918,2.7998,2.1978,1.2091,2.5034,3.5085,1.6589,1.2405,1.4606,1.3892,2.5148,3.5355,1.2799,4.3247,4.7959,4.5375,1.7904,4.3423
2.7372,0.5091,-0.7767,0.8029,1.5283,0.9775,1.2339,-2.6814,-2.9324,0.0173,-1.6725,3.2064,3.5423,2.6712,2.3321,1.0861,2.5171,3.5913,1.8791,1.2012,1.4438,1.6556,2.7764,3.6757,1.5342,4.7346,4.978,5.0782,1.7669,4.4867
2.8819,0.3112,-0.7512,0.6275,1.4217,0.8855,0.9162,-3.0394,-3.1291,-0.2018,-1.5838,3.5884,3.2931,2.4399,2.4297,0.9411,2.4866,3.5796,2.0251,1.108,1.3492,1.8586,2.9608,3.7407,1.7424,5.0832,5.0959,5.5395,1.6842,4.546
3.0092,0.166,-0.696,0.5039,1.2926,0.8026,0.5768,-3.3726,-3.3303,-0.4355,-1.5086,3.8791,2.993,2.1638,2.5328,0.8478,2.458,3.5202,2.1188,1.0289,1.2322,1.9949,3.0561,3.7325,1.8981,5.3521,5.1469,5.8966,1.599,4.5553
3.1434,0.1286,-0.5848,0.4792,1.1663,0.7641,0.2487,-3.6678,-3.5369,-0.6679,-1.4608,4.0623,2.6914,1.902,2.6672,0.868,2.4718,3.4626,2.1848,1.0271,1.1478,2.0667,3.0558,3.6561,1.9923,5.5251,5.1274,6.1281,1.5631,4.55
3.2992,0.2293,-0.4065,0.581,1.0645,0.7984,-0.0403,-3.9154,-3.7425,-0.8843,-1.4498,4.1254,2.4282,1.7032,2.838,1.0375,2.5539,3.4453,2.2432,1.1464,1.1395,2.0786,2.9588,3.5168,2.0138,5.5889,5.0318,6.2169,1.6118,4.5578
3.4767,0.4664,-0.1698,0.8099,1.0007,0.9182,-0.2709,-4.1082,-3.9337,-1.0723,-1.4785,4.0611,2.2271,1.5961,3.0291,1.3575,2.7089,3.4857,2.3033,1.3999,1.2286,2.0356,2.7697,3.3189,1.9512,5.5361,4.8542,6.1525,1.7561,4.5927
3.6601,0.8045,0.0968,1.137,0.9755,1.1144,-0.4345,-4.2413,-4.0918,-1.2224,-1.5425,3.8698,2.092,1.5843,3.2073,1.7915,2.917,3.5752,2.36,1.7649,1.4091,1.9407,2.4984,3.065,1.7967,5.3675,4.5898,5.9334,1.9796,4.652
3.8199,1.1791,0.3483,1.5071,0.9748,1.3548,-0.5341,-4.3128,-4.1974,-1.3288,-1.6305,3.5609,2.0084,1.6462,3.3288,2.2702,3.1362,3.6799,2.3936,2.1838,1.6477,1.7943,2.1598,2.7573,1.5506,5.0936,4.2386,5.569,2.2423,4.7165
3.9183,1.5079,0.5298,1.8479,0.9712,1.5887,-0.5828,-4.3253,-4.2345,-1.3905,-1.727,3.153,1.9473,1.7397,3.3473,2.7025,3.3093,3.7499,2.3732,2.5738,1.8885,1.5938,1.7725,2.399,1.2241,4.7348,3.8075,5.0804,2.4887,4.7556
3.9171,1.7051,0.5867,2.0827,0.928,1.7562,-0.6007,-4.2858,-4.1946,-1.4101,-1.8152,2.6736,1.8736,1.8108,3.2227,2.9919,3.3743,3.7326,2.264,2.8415,2.0638,1.3357,1.3568,1.997,0.8411,4.3197,3.3121,4.4997,2.6604,4.7345
3.7854,1.6985,0.476,2.145,0.8067,1.8014,-0.6094,-4.2047,-4.0774,-1.3929,-1.8791,2.1575,1.7539,1.8053,2.93,3.0555,3.2774,3.5875,2.0362,2.9016,2.1066,1.0182,0.9342,1.5634,0.4377,3.8831,2.7774,3.8687,2.7084,4.6236
3.5056,1.443,0.1757,1.9907,0.5755,1.6844,-0.6272,-4.0942,-3.891,-1.3451,-1.9052,1.6451,1.5648,1.6806,2.4659,2.84,2.9852,3.2982,1.6734,2.6947,1.9653,0.6448,0.5256,1.1169,0.0589,3.4625,2.2369,3.2367,2.6036,4.407
3.0769,0.9308,-0.3099,1.6067,0.2175,1.3911,-0.6648,-3.9662,-3.649,-1.2711,-1.8829,1.1786,1.2984,1.4148,1.852,2.333,2.4928,2.8766,1.1787,2.2008,1.6144,0.226,0.1511,0.6827,-0.2478,3.0945,1.7297,2.6555,2.3422,4.0869
2.5159,0.1939,-0.9511,1.0135,-0.2637,0.9374,-0.7225,-3.8307,-3.3682,-1.1735,-1.805,0.7983,0.9649,1.0123,1.1323,1.5658,1.8261,2.3598,0.5765,1.444,1.0617,-0.2196,-0.1713,0.2897,-0.4395,2.8113,1.2964,2.1751,1.9455,3.685
1.8553,-0.7005,-1.6974,0.2622,-0.842,0.3671,-0.7907,-3.6952,-3.0659,-1.0524,-1.6676,0.5379,0.5909,0.5035,0.3666,0.6083,1.0377,1.7999,-0.0907,0.4897,0.3479,-0.6666,-0.4279,-0.0328,-0.4868,2.6365,0.9743,1.8365,1.454,3.2376
1.1401,-1.6602,-2.485,-0.573,-1.4708,-0.2566,-0.852,-3.5643,-2.7583,-0.9069,-1.4711,0.4198,0.2158,-0.0591,-0.3793,-0.4428,0.1989,1.2525,-0.7684,-0.5662,-0.4593,-1.0855,-0.6096,-0.2592,-0.3793,2.5828,0.7925,1.6671,0.9201,2.7896
0.424,-2.5835,-3.2459,-1.4066,-2.0901,-0.8625,-0.8847,-3.4397,-2.4582,-0.7363,-1.2211,0.4529,-0.115,-0.6101,-1.0444,-1.4793,-0.6127,0.7653,-1.3986,-1.6138,-1.2757,-1.4452,-0.7133,-0.3717,-0.1277,2.6507,0.7681,1.6758,0.3981,2.3856
-0.2356,-3.3763,-3.916,-2.1545,-2.635,-1.3851,-0.8677,-3.321,-2.1745,-0.5409,-0.928,0.6303,-0.3574,-1.0814,-1.5812,-2.399,-1.3245,0.3711,-1.9289,-2.547,-2.0143,-1.7172,-0.7413,-0.3623,0.2389,2.8283,0.9035,1.8522,-0.0631,2.0622
-0.7839,-3.9674,-4.4431,-2.746,-3.0469,-1.7745,-0.7843,-3.2056,-1.9119,-0.3233,-0.607,0.9311,-0.4756,-1.413,-1.9611,-3.1208,-1.8804,0.0849,-2.3202,-3.2802,-2.5988,-1.8791,-0.6993,-0.2344,0.679,3.0926,1.1853,2.1678,-0.4263,1.8413
-1.1763,-4.3189,-4.7925,-3.1338,-3.2814,-2.0033,-0.6255,-3.0891,-1.6701,-0.0878,-0.276,1.3224,-0.4475,-1.562,-2.1768,-3.5957,-2.2486,-0.0959,-2.5525,-3.7607,-2.9747,-1.918,-0.5955,-0.0022,1.1452,3.4124,1.5849,2.5794,-0.6688,1.7273
-1.385,-4.4291,-4.9507,-3.2992,-3.3146,-2.0667,-0.3912,-2.9659,-1.4455,0.1598,0.0465,1.7632,-0.2675,-1.5083,-2.2406,-3.8124,-2.4251,-0.1877,-2.6271,-3.9739,-3.1152,-1.8328,-0.439,0.3112,1.5911,3.7508,2.061,3.0358,-0.7841,1.7068
-1.4048,-4.3281,-4.926,-3.2527,-3.145,-1.9793,-0.0891,-2.8294,-1.2319,0.4136,0.3442,2.2095,0.0534,-1.2557,-2.1804,-3.7947,-2.4317,-0.2152,-2.5642,-3.9413,-3.0229,-1.634,-0.2389,0.6764,1.9754,4.0694,2.564,3.4833,-0.7803,1.7522
-1.2529,-4.0678,-4.7451,-3.0297,-2.7914,-1.7679,0.2677,-2.6719,-1.0225,0.6682,0.6056,2.6198,0.4908,-0.8289,-2.0332,-3.5928,-2.3093,-0.2056,-2.3968,-3.7122,-2.725,-1.3414,-0.0043,1.0619,2.2656,4.3315,3.042,3.8731,-0.678,1.8285
-0.9648,-3.708,-4.4464,-2.6813,-2.2886,-1.4644,0.6644,-2.4856,-0.8108,0.9206,0.8253,2.9605,1.012,-0.2664,-1.8378,-3.2706,-2.1069,-0.1825,-2.1615,-3.3498,-2.2649,-0.9788,0.2564,1.4383,2.4403,4.507,3.4472,4.1671,-0.5054,1.9003
-0.5862,-3.3028,-4.0699,-2.2624,-1.6799,-1.0975,1.0886,-2.2618,-0.5913,1.1716,1.006,3.2105,1.5825,0.3877,-1.6271,-2.8903,-1.8697,-0.1612,-1.8888,-2.9165,-1.6921,-0.5687,0.5359,1.7826,2.4914,4.5756,3.7437,4.3424,-0.2921,1.9403
-0.1629,-2.889,-3.6491,-1.8193,-1.0095,-0.6877,1.5331,-1.9914,-0.3583,1.4264,1.1579,3.3645,2.1715,1.0917,-1.4218,-2.4995,-1.6283,-0.1469,-1.5955,-2.4606,-1.0521,-0.128,0.8287,2.0815,2.4252,4.5299,3.9119,4.3934,-0.0629,1.9339
0.267,-2.4819,-3.2057,-1.3815,-0.316,-0.2456,1.9962,-1.6653,-0.1055,1.6948,1.2979,3.4322,2.756,1.8122,-1.228,-2.1248,-1.3935,-0.136,-1.2832,-2.0092,-0.3803,0.3337,1.1303,2.3318,2.2606,4.3765,3.9512,4.3312,0.1655,1.8804
0.6771,-2.0786,-2.7516,-0.9596,0.3698,0.2254,2.4796,-1.2766,0.1745,1.9884,1.4464,3.4359,3.3205,2.5255,-1.0399,-1.7722,-1.1578,-0.1204,-0.9422,-1.5688,0.2997,0.8109,1.4358,2.5384,2.025,4.1335,3.8777,4.1791,0.3841,1.7887
1.0525,-1.6686,-2.2954,-0.551,1.0234,0.7215,2.9842,-0.8233,0.4894,2.3174,1.6233,3.4052,3.8552,3.2155,-0.8472,-1.4351,-0.9049,-0.0948,-0.5612,-1.1328,0.9726,1.2976,1.7363,2.7107,1.7487,3.8275,3.7198,3.9676,0.5862,1.67
1.3849,-1.2469,-1.8498,-0.1502,1.6228,1.2336,3.5062,-0.3111,0.8451,2.6866,1.8446,3.3701,4.3526,3.87,-0.6442,-1.1055,-0.6221,-0.0632,-0.1381,-0.6925,1.6264,1.7816,2.0171,2.8587,1.4593,3.4884,3.5128,3.7285,0.7605,1.5307
1.6673,-0.8238,-1.436,0.2417,2.1471,1.7437,4.0354,0.2459,1.2439,3.0935,2.1192,3.3567,4.8061,4.478,-0.4373,-0.7843,-0.3112,-0.0413,0.3123,-0.2469,2.2474,2.2419,2.2572,2.9908,1.1793,3.1462,3.2931,3.491,0.8872,1.3673
1.8897,-0.4274,-1.0833,0.6114,2.5763,2.2275,4.5557,0.8259,1.6827,3.5284,2.4484,3.3835,5.2101,5.0291,-0.2467,-0.4856,0.0059,-0.0542,0.7561,0.1927,2.8191,2.6503,2.4324,3.114,0.9258,2.8285,3.0954,3.2801,0.9386,1.1677
2.0376,-0.0971,-0.8238,0.9348,2.8964,2.6591,5.0496,1.4029,2.1525,3.9767,2.8261,3.4608,5.5621,5.5143,-0.1024,-0.2346,0.2916,-0.1277,1.1474,0.604,3.3235,2.9767,2.5208,3.2355,0.7137,2.5599,2.951,3.1161,0.8855,0.9167
2.0932,0.1274,-0.6852,1.1833,3.1033,3.0165,5.502,1.9508,2.6387,4.4223,3.2406,3.5928,5.8653,5.9286,-0.035,-0.0611,0.502,-0.2796,1.4395,0.9603,3.7455,3.1976,2.5098,3.3647,0.5587,2.3623,2.8866,3.0161,0.7064,0.6038
2.0397,0.2181,-0.6851,1.3322,3.2061,3.2842,5.9042,2.4465,3.1236,4.8512,3.6771,3.781,6.1289,6.2723,-0.0666,0.0095,0.6003,-0.5118,1.5971,1.2374,4.0756,3.3031,2.4006,3.5143,0.4793,2.2551,2.9239,2.995,0.3942,0.2287
1.8665,0.1666,-0.8271,1.3674,3.2251,3.4543,6.2553,2.8726,3.5885,5.2534,4.1203,4.0263,6.3671,6.5496,-0.2037,-0.0372,0.5669,-0.8088,1.6063,1.4198,4.3122,3.3,2.2097,3.6983,0.4944,2.2539,3.0782,3.067,-0.0398,-0.1974
1.5737,-0.0136,-1.1001,1.2894,3.1882,3.5255,6.5607,3.2178,4.0168,5.6234,4.5556,4.3308,6.5946,6.767,-0.4356,-0.2017,0.4045,-1.1417,1.478,1.5026,4.4601,3.2115,1.9663,3.9284,0.6189,2.3686,3.3557,3.2437,-0.5681,-0.6537
1.1761,-0.2916,-1.4791,1.1118,3.1231,3.502,6.8293,3.4766,4.3957,5.9587,4.9702,4.6955,6.8225,6.9301,-0.7369,-0.4707,0.1369,-1.4759,1.245,1.4909,4.5288,3.071,1.706,4.2097,0.8575,2.5998,3.7505,3.532,-1.1522,-1.1152
0.7041,-0.6271,-1.929,0.8587,3.0518,3.3923,7.0695,3.6489,4.7171,6.2578,5.3509,5.1168,7.0536,7.0411,-1.0747,-0.8207,-0.1985,-1.7795,0.9534,1.3967,4.5291,2.9146,1.4641,4.5363,1.1994,2.9362,4.2427,3.9296,-1.7494,-1.5561
0.2022,-0.9797,-2.4076,0.5592,2.9856,3.2091,7.2861,3.7401,4.9772,6.5177,5.6839,5.5822,7.2806,7.0987,-1.4151,-1.2223,-0.5598,-2.0293,0.6521,1.2347,4.4712,2.7725,1.2686,4.8901,1.6172,3.3534,4.7979,4.4214,-2.3195,-1.9534
-0.2767,-1.3161,-2.8699,0.2437,2.9255,2.9694,7.4788,3.7612,5.1757,6.733,5.953,6.0673,7.4874,7.0996,-1.7295,-1.6444,-0.9102,-2.2136,0.3831,1.021,4.3641,2.6638,1.1366,5.243,2.069,3.8145,5.3704,4.9771,-2.8295,-2.2882
-0.6791,-1.6136,-3.2715,-0.0589,2.8653,2.6951,7.6435,3.7285,5.3145,6.896,6.1408,6.5359,7.6532,7.0421,-1.9985,-2.0581,-1.2234,-2.331,0.1749,0.7717,4.217,2.5948,1.0737,5.5619,2.5048,4.2737,5.9087,5.5519,-3.2558,-2.5476
-0.9611,-1.8602,-3.5731,-0.3227,2.7976,2.4126,7.774,3.6624,5.3972,6.9987,6.2312,6.9434,7.7587,6.9294,-2.2127,-2.4383,-1.4861,-2.3888,0.0409,0.5041,4.042,2.5617,1.0757,5.8157,2.8745,4.682,6.3636,6.0904,-3.5852,-2.7264
-1.0972,-2.052,-3.7456,-0.5265,2.7188,2.1508,7.8653,3.5849,5.4291,7.0351,6.2122,7.2425,7.7916,6.7735,-2.3735,-2.7656,-1.6962,-2.3998,-0.0183,0.2376,3.8552,2.5562,1.1322,5.9819,3.1368,4.994,6.6949,6.5334,-3.8145,-2.8295
-1.0858,-2.1902,-3.7753,-0.6552,2.6325,1.9388,7.9165,3.5171,5.4167,7.0041,6.0806,7.3916,7.7503,6.5945,-2.4916,-3.0277,-1.8604,-2.3813,-0.0119,-0.0063,3.6776,2.57,1.2291,6.0513,3.2647,5.1742,6.8777,6.8269,-3.9492,-2.8731
-0.9491,-2.2788,-3.6675,-0.7018,2.5493,1.8031,7.9323,3.4763,5.3692,6.9107,5.8442,7.3616,7.645,6.4192,-2.5856,-3.2199,-1.9903,-2.3546,0.045,-0.206,3.5323,2.5982,1.3508,6.0292,3.248,5.2017,6.9042,6.9295,-4.0023,-2.8845
-0.7286,-2.3219,-3.4475,-0.6682,2.485,1.765,7.9228,3.4752,5.2982,6.7674,5.5237,7.1433,7.495,6.2754,-2.679,-3.3454,-2.1,-2.3435,0.1341,-0.3433,3.4411,2.639,1.4811,5.9329,3.0928,5.073,6.7837,6.8192,-3.9922,-2.8984
-0.4772,-2.3226,-3.1575,-0.5637,2.4569,1.8387,7.9029,3.5213,5.2189,6.5932,5.1515,6.7492,7.3245,6.1867,-2.7953,-3.4139,-2.2028,-2.3714,0.2367,-0.406,3.4196,2.693,1.6042,5.7872,2.8184,4.8009,6.5379,6.4965,-3.9397,-2.9506
-0.2497,-2.2818,-2.85,-0.4027,2.4811,2.0285,7.8887,3.6172,5.1486,6.4115,4.7682,6.2132,7.157,6.1669,-2.9522,-3.4388,-2.3082,-2.4571,0.3371,-0.3899,3.4745,2.7603,1.7065,5.6183,2.4532,4.4115,6.1963,5.9842,-3.8655,-3.0704
-0.093,-2.1986,-2.5774,-0.2005,2.5692,2.3262,7.8949,3.7607,5.106,6.2472,4.4169,5.5855,7.0104,6.2171,-3.1565,-3.4334,-2.4199,-2.6107,0.4251,-0.2987,3.6021,2.8403,1.7784,5.4488,2.0312,3.9392,5.7904,5.3234,-3.7873,-3.2736
-0.0373,-2.0719,-2.3812,0.0282,2.727,2.71,7.9309,3.9452,5.1073,6.1226,4.1354,4.9244,6.8939,6.3259,-3.4002,-3.4074,-2.533,-2.8288,0.4986,-0.142,3.7893,2.9305,1.817,5.2942,1.5883,3.4208,5.3493,4.568,-3.7171,-3.5579
-0.0893,-1.9018,-2.2811,0.2724,2.9538,3.1464,7.9994,4.1599,5.1638,6.0539,3.9507,4.2876,6.808,6.4727,-3.661,-3.363,-2.6342,-3.0936,0.5651,0.0685,4.0176,3.0285,1.8277,5.1617,1.1599,2.8914,4.8975,3.7775,-3.6595,-3.9015
-0.2295,-1.6909,-2.2687,0.5251,3.2436,3.595,8.0968,4.3915,5.2787,6.0495,3.8744,3.7246,6.7465,6.6338,-3.9053,-3.2939,-2.7024,-3.3719,0.6405,0.3221,4.2674,3.1343,1.8248,5.0522,0.7791,2.3818,4.4556,3.0101,-3.6121,-4.2661
-0.4159,-1.4447,-2.3078,0.7834,3.5853,4.0163,8.2156,4.6252,5.4464,6.1091,3.9027,3.2715,6.7014,6.7888,-4.0954,-3.1866,-2.7122,-3.6191,0.7463,0.6114,4.5229,3.2524,1.8298,4.964,0.4751,1.9184,4.0425,2.3173,-3.5661,-4.6025
-0.5933,-1.1714,-2.3429,1.047,3.9643,4.3783,8.3471,4.8471,5.6538,6.2246,4.0194,2.9491,6.6669,6.9254,-4.1976,-3.0249,-2.64,-3.7857,0.9046,0.9313,4.7749,3.3919,1.8678,4.8964,0.2718,1.5241,3.6771,1.7403,-3.5111,-4.8615
-0.7067,-0.8818,-2.3132,1.3158,4.3616,4.6606,8.4839,5.0453,5.8825,6.3832,4.2003,2.7636,6.6414,7.041,-4.1913,-2.7964,-2.47,-3.8271,1.1313,1.2769,5.0201,3.5649,1.9614,4.8523,0.1867,1.2192,3.3799,1.3077,-3.4387,-5.004
-0.7143,-0.589,-2.1699,1.5865,4.7545,4.8553,8.6212,5.2115,6.1125,6.5691,4.419,2.7095,6.6283,7.1412,-4.0738,-2.4997,-2.2011,-3.7149,1.4312,1.6393,5.2593,3.7825,2.125,4.8381,0.2286,1.021,3.1712,1.0349,-3.347,-5.0107
-0.5967,-0.3075,-1.8901,1.8515,5.1171,4.9642,8.7567,5.3419,6.3256,6.7668,4.6508,2.7724,6.6343,7.2357,-3.8616,-2.1481,-1.8492,-3.4455,1.794,2.0038,5.493,4.0499,2.3607,4.8625,0.3966,0.9418,3.068,0.9246,-3.2422,-4.8874
-0.3609,-0.0532,-1.4836,2.0981,5.4237,4.9954,8.89,5.4368,6.5075,6.9627,4.876,2.9323,6.6664,7.3342,-3.586,-1.7692,-1.4459,-3.0433,2.1962,2.3495,5.7194,4.3635,2.6572,4.9339,0.6789,0.9854,3.0809,0.9678,-3.1381,-4.6638
-0.0376,0.1587,-0.9922,2.3115,5.6526,4.9603,9.0207,5.4994,6.6489,7.146,5.0806,3.1654,6.7293,7.4423,-3.2857,-1.4009,-1.0332,-2.5567,2.605,2.6522,5.9322,4.71,2.9929,5.0574,1.0535,1.1455,3.2099,1.145,-3.0525,-4.386
0.3242,0.3146,-0.48,2.477,5.7905,4.8711,9.1475,5.534,6.7449,7.3088,5.2557,3.4465,6.8231,7.5594,-2.9982,-1.0838,-0.6556,-2.0486,2.9847,2.8878,6.1213,5.0682,3.3401,5.233,1.4903,1.4044,3.4441,1.428,-3.0038,-4.1064
0.6657,0.4038,-0.0189,2.5833,5.8355,4.7389,9.2671,5.5435,6.7943,7.4456,5.3964,3.7499,6.9431,7.6785,-2.7533,-0.8544,-0.3523,-1.5826,3.3034,3.0364,6.2739,5.4127,3.6712,5.4548,1.9542,1.7351,3.7616,1.7827,-3.006,-3.8704
0.9272,0.4188,0.3271,2.6231,5.7969,4.5728,9.3737,5.5284,6.7983,7.5531,5.5001,4.0512,7.0798,7.7877,-2.5685,-0.7398,-0.1519,-1.2108,3.5375,3.0847,6.377,5.7183,3.9631,5.7111,2.4096,2.105,4.133,2.1722,-3.0654,-3.7075
1.0579,0.3557,0.5148,2.5936,5.693,4.3798,9.4595,5.4874,6.7598,7.6289,5.5653,4.3293,7.221,7.8725,-2.4488,-0.754,-0.0688,-0.9639,3.6744,3.0274,6.4194,5.9641,4.2006,5.9858,2.8244,2.4809,4.5256,2.5612,-3.1787,-3.6252
1.0248,0.2139,0.5283,2.4952,5.5464,4.1649,9.5154,5.418,6.6833,7.6712,5.5915,4.5683,7.3535,7.9191,-2.3886,-0.8975,-0.1037,-0.8481,3.7125,2.8671,6.3936,6.1368,4.3779,6.2601,3.1745,2.8331,4.9077,2.9194,-3.3331,-3.6106
0.8197,-0.0038,0.3787,2.3301,5.3784,3.9332,9.5317,5.3191,6.5748,7.6784,5.5785,4.7582,7.4647,7.9163,-2.3769,-1.159,-0.2462,-0.8473,3.6597,2.6136,6.2969,6.2316,4.4978,6.514,3.4458,3.1378,5.2521,3.2247,-3.5094,-3.6355
0.4609,-0.2929,0.0981,2.1005,5.2042,3.6907,9.4988,5.1919,6.441,7.6474,5.5262,4.8948,7.5435,7.8573,-2.4029,-1.5194,-0.4792,-0.9299,3.5295,2.2813,6.1311,6.2515,4.568,6.728,3.6346,3.3779,5.5375,3.4633,-3.6868,-3.6656
-0.0098,-0.649,-0.2703,1.8077,5.0296,3.4443,9.4076,5.0401,6.2884,7.5744,5.4351,4.9785,7.5795,7.7389,-2.4605,-1.9562,-0.7839,-1.058,3.3372,1.8862,5.9007,6.2044,4.5975,6.8832,3.7459,3.5418,5.7487,3.6288,-3.8482,-3.6688
-0.5351,-1.0679,-0.6817,1.4529,4.8508,3.2015,9.2515,4.8694,6.122,7.4543,5.3058,5.0119,7.5638,7.5613,-2.5508,-2.4479,-1.1439,-1.1963,3.0966,1.4439,5.612,6.1,4.5925,6.9625,3.7903,3.6219,5.8755,3.7206,-3.9839,-3.622
-1.0533,-1.5449,-1.0976,1.0394,4.6569,2.9703,9.0275,4.6866,5.9455,7.2829,5.1407,4.9993,7.4897,7.328,-2.6805,-2.9759,-1.546,-1.3187,2.8181,0.9678,5.2721,5.9478,4.5553,6.9527,3.7804,3.6142,5.9126,3.7415,-4.0928,-3.5137
-1.5103,-2.0714,-1.489,0.5766,4.4353,2.7592,8.7385,4.4984,5.7612,7.0589,4.9443,4.945,7.3548,7.0456,-2.8576,-3.5243,-1.9798,-1.4117,2.51,0.4708,4.8899,5.7564,4.4846,6.8464,3.7278,3.5182,5.8595,3.6965,-4.1802,-3.3436
-1.8678,-2.6309,-1.8368,0.0829,4.1769,2.5767,8.3954,4.311,5.5711,6.786,4.7239,4.8537,7.1632,6.7253,-3.0856,-4.0771,-2.4333,-1.4738,2.1809,-0.0326,4.4783,5.5354,4.3792,6.6456,3.6415,3.3381,5.7217,3.5924,-4.2549,-3.1195
-2.1078,-3.1966,-2.1297,-0.4129,3.8811,2.4299,8.0171,4.1298,5.3786,6.4752,4.4901,4.7309,6.9279,6.3839,-3.3578,-4.6147,-2.8891,-1.5116,1.8442,-0.5231,4.0565,5.2979,4.2418,6.3634,3.5277,3.0846,5.5112,3.4376,-4.3251,-2.8522
-2.2314,-3.7318,-2.3601,-0.8734,3.5587,2.3236,7.6299,3.9605,5.1894,6.1449,4.2568,4.5838,6.671,6.0452,-3.6543,-5.1108,-3.3207,-1.5338,1.521,-0.9743,3.6515,5.0635,4.0821,6.0252,3.3914,2.7756,5.2471,3.2428,-4.3955,-2.5517
-2.2536,-4.1933,-2.5219,-1.2564,3.2318,2.2591,7.2659,3.8105,5.0133,5.8206,4.0402,4.4225,6.4222,5.7386,-3.9429,-5.5324,-3.692,-1.5461,1.2416,-1.3536,3.2975,4.8585,3.9188,5.6671,3.2383,2.4373,4.9549,3.0219,-4.465,-2.2251
-2.197,-4.5382,-2.6084,-1.5219,2.9321,2.2356,6.9586,3.689,4.8636,5.5319,3.8583,4.2601,6.2146,5.4965,-4.1831,-5.8429,-3.9613,-1.5469,1.0419,-1.6251,3.0323,4.714,3.7775,5.331,3.0773,2.1021,4.6646,2.7914,-4.5266,-1.8763
-2.0867,-4.7312,-2.6122,-1.6377,2.6964,2.2529,6.7389,3.6069,4.755,5.3079,3.7276,4.1116,6.079,5.3485,-4.3327,-6.0084,-4.0886,-1.5278,0.9573,-1.7564,2.891,4.6601,3.6858,5.0581,2.921,1.8048,4.4067,2.5699,-4.5693,-1.508
-1.946,-4.751,-2.5262,-1.5859,2.5608,2.3138,6.6301,3.5746,4.701,5.1716,3.6605,3.9918,6.0373,5.3162,-4.355,-6.005,-4.0442,-1.476,1.015,-1.7248,2.8992,4.7192,3.6679,4.8812,2.7849,1.5773,4.2077,2.376,-4.5806,-1.1239
-1.7943,-4.5941,-2.3448,-1.3659,2.5538,2.4254,6.6436,3.5994,4.7089,5.1352,3.6615,3.9122,6.0976,5.4071,-4.2253,-5.8243,-3.8158,-1.3778,1.2267,-1.5229,3.0671,4.9008,3.7389,4.8184,2.6861,1.4424,4.0852,2.225,-4.5505,-0.73
-1.6463,-4.2749,-2.0658,-0.9953,2.6897,2.5972,6.7754,3.6816,4.7769,5.1961,3.7249,3.8774,6.2514,5.6126,-3.9356,-5.4772,-3.4124,-1.2234,1.5844,-1.1615,3.3859,5.198,3.9015,4.8699,2.6401,1.4096,4.0443,2.1267,-4.4741,-0.3339
-1.5109,-3.8228,-1.6931,-0.5076,2.9641,2.8369,7.0059,3.8129,4.8923,5.3371,3.8339,3.8834,6.4742,5.9071,-3.4972,-4.9932,-2.8644,-1.0094,2.0605,-0.6699,3.8274,5.5874,4.1454,5.0177,2.6577,1.4731,4.0764,2.0832,-4.3531,0.0566
-1.3922,-3.278,-1.2399,0.0521,3.3524,3.1453,7.3008,3.9757,5.0321,5.5273,3.9626,3.9175,6.729,6.2519,-2.9407,-4.4168,-2.2199,-0.7408,2.6107,-0.0926,4.3468,6.0333,4.449,5.2296,2.7423,1.613,4.1604,2.0882,-4.1958,0.4357
-1.2897,-2.6857,-0.7305,0.6333,3.8116,3.5125,7.6152,4.144,5.1657,5.727,4.0786,3.9598,6.9733,6.6002,-2.3121,-3.8022,-1.5394,-0.431,3.1812,0.5152,4.8881,6.4925,4.784,5.465,2.8883,1.7995,4.2665,2.1278,-4.0155,0.8019
-1.1991,-2.0918,-0.1998,1.1868,4.2868,3.9155,7.9,4.2871,5.2599,5.8928,4.1482,3.987,7.1659,6.9046,-1.6671,-3.2057,-0.8867,-0.1011,3.7166,1.0953,5.3924,6.9216,5.1201,5.6825,3.0816,1.9991,4.3624,2.1828,-3.8284,1.157
-1.1135,-1.5374,0.3096,1.6713,4.7189,4.3194,8.1092,4.374,5.2845,5.9845,4.1414,3.9766,7.2747,7.1255,-1.0622,-2.6777,-0.3209,0.2232,4.1694,1.5943,5.807,7.2841,5.4305,5.8477,3.3019,2.1814,4.4193,2.2331,-3.6505,1.506
-1.0252,-1.0556,0.754,2.0578,5.0557,4.6827,8.2074,4.379,5.218,5.9721,4.0376,3.912,7.2825,7.2374,-0.5457,-2.2558,0.1137,0.5156,4.5067,1.9716,6.0936,7.5557,5.6968,5.9389,3.5271,2.3247,4.4186,2.2618,-3.4946,1.8548
-0.9267,-0.6681,1.0974,2.3332,5.2614,4.9657,8.1762,4.2867,5.0524,5.8413,3.83,3.7859,7.1896,7.234,-0.1505,-1.9595,0.3938,0.7547,4.7164,2.2059,6.235,7.7284,5.9116,5.9506,3.738,2.4196,4.3549,2.2584,-3.3681,2.2084
-0.8126,-0.383,1.3183,2.501,5.3233,5.1406,8.0167,4.0952,4.7948,5.596,3.5274,3.6023,7.0124,7.1284,0.1107,-1.7886,0.5219,0.9282,4.8076,2.2985,6.2368,7.811,6.0787,5.8933,3.9216,2.4689,4.2371,2.2213,-3.2716,2.5704
-0.6817,-0.1958,1.4144,2.5783,5.2534,5.1975,7.748,3.8159,4.4666,5.2571,3.153,3.3756,6.7794,6.9491,0.2457,-1.7243,0.5243,1.0365,4.8079,2.2718,6.1253,7.8251,6.2104,5.7898,4.0719,2.4846,4.085,2.1567,-3.199,2.9421
-0.5376,-0.0923,1.4021,2.5912,5.0839,5.1464,7.4016,3.4703,4.0984,4.8569,2.7396,3.1279,6.5231,6.732,0.2789,-1.7355,0.4455,1.0923,4.7565,2.1633,5.9398,7.8003,6.3234,5.6677,4.1891,2.483,3.9235,2.0767,-3.1398,3.3229
-0.3897,-0.0532,1.3113,2.5668,4.8575,5.0117,7.0136,3.0844,3.7227,4.4311,2.3231,2.8844,6.2726,6.5111,0.246,-1.7867,0.3375,1.1176,4.6947,2.0165,5.7234,7.7658,6.4329,5.5526,4.2765,2.4796,3.7753,1.995,-3.0826,3.7106
-0.2519,-0.0603,1.1775,2.5264,4.6157,4.8236,6.6161,2.6826,3.3672,4.0104,1.9345,2.6683,6.0471,6.3105,0.1857,-1.8465,0.2493,1.1384,4.6569,1.8714,5.5132,7.744,6.5485,5.4609,4.3379,2.4847,3.6551,1.9232,-3.0185,4.1005
-0.1409,-0.1012,1.0332,2.481,4.3892,4.6079,6.2304,2.2836,3.0484,3.6146,1.5944,2.4958,5.8517,6.1383,0.133,-1.8937,0.2166,1.1775,4.6635,1.7556,5.3333,7.7454,6.6703,5.396,4.3737,2.5004,3.5659,1.867,-2.9428,4.4845
-0.073,-0.1696,0.9009,2.4307,4.1922,4.3799,5.8648,1.898,2.7701,3.2499,1.3096,2.3736,5.6784,5.9877,0.1138,-1.9201,0.2555,1.2493,4.718,1.6811,5.1919,7.7671,6.7885,5.3484,4.3799,2.5207,3.4987,1.8253,-2.856,4.8501
-0.0616,-0.2638,0.7903,2.3682,4.0232,4.1431,5.5159,1.5293,2.5241,2.9109,1.0745,2.2982,5.5104,5.8406,0.1427,-1.9274,0.3626,1.3572,4.8088,1.6451,5.0831,7.7948,6.8857,5.2991,4.3476,2.5331,3.4369,1.7901,-2.7629,5.1804
-0.1133,-0.3816,0.6991,2.2851,3.8713,3.8943,5.1735,1.1763,2.2953,2.5854,0.874,2.2577,5.3287,5.6765,0.2231,-1.9224,0.5187,1.4943,4.9149,1.6359,4.9936,7.8089,6.9421,5.2273,4.2662,2.5222,3.3615,1.7499,-2.6711,5.4556
-0.2232,-0.516,0.6186,2.1783,3.7243,3.632,4.8276,0.8372,2.0676,2.2615,0.69,2.2354,5.1193,5.4814,0.3493,-1.9093,0.6972,1.647,5.0137,1.6408,4.9108,7.7912,6.9417,5.1169,4.1272,2.4743,3.2579,1.6926,-2.5897,5.6565
-0.3706,-0.6525,0.5398,2.0554,3.5775,3.3642,4.4752,0.5131,1.8308,1.9333,0.5068,2.2139,4.8792,5.2545,0.5094,-1.8847,0.8737,1.8002,5.0886,1.6537,4.83,7.732,6.8784,4.9632,3.9291,2.381,3.12,1.6091,-2.5261,5.769
-0.5184,-0.7678,0.4614,1.9371,3.4395,3.1141,4.1238,0.2106,1.5843,1.6048,0.3157,2.1791,4.6188,5.0114,0.6888,-1.8353,1.0333,1.9409,5.1352,1.68,4.7582,7.6342,6.7601,4.7747,3.6809,2.2419,2.9523,1.4952,-2.483,5.7883
-0.6152,-0.8324,0.3943,1.8551,3.3321,2.9184,3.792,-0.0568,1.3394,1.2906,0.1174,2.1234,4.3608,4.7822,0.8737,-1.739,1.1751,2.0622,5.1629,1.7367,4.714,7.5142,6.6091,4.5721,3.4029,2.0643,2.7684,1.3528,-2.4548,5.7222
-0.6059,-0.8141,0.3619,1.847,3.2866,2.8211,3.5067,-0.2701,1.1168,1.0132,-0.0787,2.0461,4.1356,4.6042,1.0549,-1.5703,1.3116,2.1645,5.1935,1.8486,4.7221,7.3984,6.4585,4.3825,3.1231,1.8623,2.587,1.1895,-2.4257,5.5923
-0.4439,-0.6841,0.3955,1.9472,3.3344,2.8608,3.2965,-0.4087,0.942,0.7973,-0.2567,1.9533,3.9737,4.5125,1.2288,-1.3073,1.4637,2.2555,5.2546,2.04,4.8056,7.3171,6.3447,4.2325,2.8712,1.6523,2.4268,1.0157,-2.3703,5.4313
-0.1049,-0.4246,0.5243,2.1769,3.4972,3.0583,3.185,-0.4547,0.8386,0.6636,-0.3983,1.8554,3.8975,4.5301,1.3957,-0.9394,1.6525,2.347,5.3712,2.3266,4.9775,7.2957,6.2985,4.1396,2.6702,1.4492,2.3009,0.8422,-2.2595,5.2774
0.4053,-0.0358,0.7659,2.5361,3.7784,3.4073,3.1842,-0.3984,0.8226,0.6234,-0.4871,1.7643,3.9156,4.6604,1.5569,-0.4727,1.8912,2.4513,5.5567,2.7072,5.2349,7.3474,6.3357,4.1071,2.5289,1.2624,2.2133,0.6772,-2.0684,5.1663
1.0502,0.4605,1.1175,2.9995,4.1597,3.8722,3.2916,-0.2416,0.8979,0.6755,-0.5119,1.69,4.0197,4.8853,1.7102,0.0679,2.1789,2.5769,5.8076,3.1618,5.5574,7.4686,6.4532,4.1222,2.4388,1.0944,2.1575,0.5244,-1.7857,5.1229
1.769,1.0214,1.5547,3.5189,4.6027,4.3937,3.4898,0.0014,1.0547,0.8059,-0.4699,1.638,4.1862,5.1681,1.8486,0.6413,2.4991,2.7242,6.1016,3.6525,5.9103,7.6392,6.6277,4.1592,2.376,0.9405,2.1184,0.383,-1.4191,5.1554
2.4872,1.5879,2.034,4.0304,5.0551,4.8997,3.7492,0.3045,1.2709,0.9907,-0.3674,1.6088,4.3816,5.4612,1.9609,1.1961,2.822,2.885,6.4015,4.1304,6.2509,7.8265,6.8218,4.1854,2.3077,0.7919,2.0762,0.2489,-0.9956,5.2541
3.1289,2.0941,2.5011,4.4658,5.4612,5.3197,4.033,0.6338,1.5165,1.2001,-0.2196,1.5978,4.5694,5.7155,2.0352,1.6789,3.11,3.0429,6.663,4.5438,6.5363,7.9931,6.9929,4.1698,2.2024,0.6386,2.0119,0.1174,-0.5566,5.3947
3.6291,2.4788,2.9005,4.7653,5.7718,5.598,4.3038,0.9533,1.7592,1.4041,-0.0483,1.5978,4.7173,5.8897,2.0626,2.0429,3.3265,3.1776,6.8441,4.8474,6.7307,8.1049,7.1036,4.0913,2.0403,0.4739,1.9129,-0.0138,-0.1484,5.5452
3.9429,2.6967,3.1852,4.8879,5.9536,5.7037,4.5288,1.2299,1.9705,1.5768,0.1219,1.6009,4.8025,5.9578,2.0408,2.2552,3.4425,3.2696,6.9132,5.0097,6.8106,8.1384,7.1306,3.9437,1.8199,0.2976,1.7768,-0.1431,0.188,5.6749
4.0514,2.7254,3.3238,4.8189,5.9938,5.6349,4.6842,1.4382,2.1288,1.6997,0.2672,1.6016,4.8147,5.9116,1.9744,2.301,3.4431,3.3048,6.855,5.0165,6.7667,8.0841,7.0688,3.7369,1.5596,0.1167,1.612,-0.2644,0.4253,5.7612
3.9629,2.5688,3.3054,4.5708,5.8998,5.4148,4.7558,1.5628,2.2213,1.762,0.3671,1.5962,4.7548,5.7597,1.873,2.1842,3.3284,3.2779,6.6715,4.8709,6.6032,7.9472,6.9305,3.4945,1.2929,-0.0557,1.4357,-0.3691,0.5552,5.7946
3.7095,2.254,3.1395,4.1778,5.6934,5.0842,4.7386,1.5976,2.2424,1.7598,0.4064,1.5829,4.6327,5.5231,1.7474,1.9249,3.1131,3.1942,6.3797,4.5905,6.3358,7.7451,6.7407,3.2473,1.0596,-0.204,1.2688,-0.4488,0.588,5.7799
3.3403,1.8243,2.8536,3.6879,5.4042,4.6905,4.6348,1.5451,2.1918,1.6938,0.3757,1.5597,4.4632,5.2301,1.6064,1.5555,2.8226,3.069,6.0085,4.2037,5.9884,7.5033,6.53,3.0267,0.8954,-0.314,1.1305,-0.4982,0.5487,5.7343
2.913,1.3308,2.4876,3.1538,5.0633,4.2784,4.4523,1.4145,2.0726,1.5679,0.2722,1.5234,4.2634,4.9118,1.4554,1.1163,2.4889,2.9269,5.5944,3.746,5.5911,7.2518,6.3295,2.8595,0.8235,-0.3764,1.034,-0.5164,0.4713,5.6838
2.4857,0.8249,2.0882,2.6253,4.7004,3.8836,4.2042,1.2198,1.8907,1.3886,0.0995,1.47,4.0515,4.5991,1.2974,0.6515,2.1473,2.7967,5.1781,3.258,5.1789,7.0221,6.1662,2.7645,0.8501,-0.3878,0.9853,-0.5061,0.3913,5.6573
2.1103,0.3526,1.7038,2.1457,4.3422,3.5311,3.9083,0.9789,1.6554,1.1646,-0.1326,1.3958,3.8462,4.3217,1.1362,0.2063,1.8336,2.7074,4.8012,2.7842,4.7903,6.8439,6.061,2.752,0.9654,-0.35,0.984,-0.4725,0.3409,5.6803
1.8276,-0.0481,1.3788,1.7499,4.0128,3.2363,3.5869,0.7107,1.3803,0.9077,-0.4093,1.2991,3.6672,4.1067,0.9789,-0.1761,1.5805,2.6813,4.5025,2.3702,4.4652,6.7428,6.0275,2.8244,1.1475,-0.2675,1.0252,-0.421,0.3449,5.7688
1.6643,-0.3482,1.15,1.4637,3.7337,3.008,3.2648,0.4348,1.0827,0.6325,-0.7119,1.1817,3.5342,3.9774,0.8371,-0.4576,1.4148,2.7301,4.3127,2.0599,4.2414,6.7372,6.0709,2.9773,1.3689,-0.1457,1.1024,-0.3556,0.4188,5.9256
1.6313,-0.5279,1.0431,1.3044,3.5229,2.8513,2.9674,0.1698,0.7833,0.3568,-1.0197,1.0497,3.4652,3.9517,0.7261,-0.6089,1.3532,2.8518,4.2505,1.8906,4.1499,6.8345,6.1865,3.2001,1.6021,0.0101,1.2096,-0.2793,0.569,6.1395
1.7235,-0.5768,1.0708,1.2788,3.3938,2.769,2.718,-0.0665,0.5036,0.1002,-1.311,0.9131,3.4733,4.0387,0.6617,-0.6129,1.3991,3.0307,4.3179,1.8866,4.2094,7.0282,6.3588,3.4763,1.8235,0.1943,1.3411,-0.1937,0.7933,6.3868
1.9206,-0.4937,1.2324,1.3833,3.3545,2.7615,2.5348,-0.2574,0.2641,-0.1172,-1.5654,0.785,3.5642,4.2358,0.6567,-0.4676,1.5406,3.2395,4.4987,2.0545,4.4215,7.2967,6.5617,3.7832,2.0146,0.3986,1.4913,-0.1012,1.0826,6.6359
2.1904,-0.2868,1.5132,1.6027,3.4062,2.8261,2.4291,-0.3882,0.0818,-0.2777,-1.7647,0.6791,3.7329,4.5272,0.7164,-0.188,1.7511,3.4424,4.7595,2.3796,4.7684,7.6038,6.7597,4.0926,2.1624,0.6107,1.6531,-0.0055,1.4217,6.8513
2.4924,0.0267,1.8858,1.9116,3.544,2.9566,2.4034,-0.4475,-0.0318,-0.3689,-1.8954,0.6068,3.963,4.8832,0.8363,0.1949,1.9928,3.6005,5.0534,2.8261,5.2125,7.9029,6.9123,4.3717,2.2572,0.814,1.816,0.0874,1.7903,6.9987
2.7846,0.4216,2.3132,2.2769,3.7565,3.1426,2.4511,-0.4291,-0.0719,-0.3866,-1.9502,0.5751,4.2267,5.2621,1.0009,0.6365,2.2228,3.6776,5.328,3.3408,5.7007,8.1432,6.9806,4.5862,2.2932,0.9884,1.9655,0.1694,2.165,7.0503
3.0303,0.8667,2.7535,2.6611,4.0259,3.3706,2.5568,-0.3334,-0.041,-0.336,-1.9296,0.584,4.4877,5.6149,1.1851,1.0841,2.3996,3.648,5.5336,3.8597,6.1706,8.278,6.9351,4.704,2.2678,1.1133,2.084,0.2308,2.523,6.9903
3.2052,1.326,3.1662,3.0264,4.3284,3.6232,2.6974,-0.1684,0.0507,-0.2323,-1.8426,0.6261,4.7049,5.89,1.3575,1.4829,2.4895,3.5013,5.6311,4.3168,6.5591,8.2728,6.7625,4.7004,2.1826,1.1713,2.1525,0.2623,2.8458,6.8189
3.3012,1.7603,3.5182,3.3375,4.6332,3.8792,2.8441,0.0503,0.1859,-0.0995,-1.7063,0.6872,4.8378,6.0407,1.4858,1.7834,2.4713,3.2456,5.5977,4.6536,6.8115,8.1112,6.4696,4.5622,2.0441,1.1521,2.1529,0.2565,3.1219,6.5537
3.3279,2.1299,3.7879,3.5649,4.9044,4.1127,2.965,0.3002,0.3414,0.033,-1.5442,0.7483,4.8519,6.031,1.5422,1.9481,2.3382,2.9065,5.4293,4.8274,6.889,7.7982,6.0828,4.2912,1.8638,1.0549,2.0721,0.2092,3.3468,6.2274
3.3093,2.3964,3.9658,3.6864,5.1032,4.2943,3.0296,0.5536,0.4906,0.1342,-1.3834,0.7896,4.7245,5.8418,1.5084,1.9566,2.0976,2.5231,5.1393,4.8176,6.7746,7.3594,5.6434,3.9055,1.6573,0.8901,1.9043,0.1209,3.5217,5.8822
3.2788,2.5281,4.0541,3.6894,5.1935,4.3943,3.0126,0.7818,0.6074,0.1778,-1.25,0.7946,4.4491,5.4749,1.3785,1.8087,1.7695,2.1408,4.7558,4.6289,6.4756,6.8371,5.1998,3.438,1.4425,0.6786,1.6538,-0.0021,3.6509,5.5618
3.2706,2.5062,4.0654,3.5733,5.1498,4.3894,2.9,0.96,0.6707,0.1468,-1.1647,0.7548,4.0386,4.9554,1.1608,1.525,1.3835,1.8051,4.3161,4.2907,6.0228,6.2842,4.7997,2.9336,1.2379,0.4499,1.3368,-0.1477,3.7416,5.3042
3.3116,2.3315,4.0206,3.351,4.9644,4.2699,2.6923,1.0717,0.6695,0.0382,-1.1384,0.6716,3.5257,4.3295,0.877,1.1439,0.9758,1.5544,3.8614,3.8524,5.467,5.7566,4.4829,2.4438,1.0613,0.2376,0.9807,-0.2988,3.8033,5.1361
3.4134,2.0288,3.9457,3.0499,4.6519,4.0451,2.4063,1.1121,0.6053,-0.1365,-1.1703,0.5574,2.9594,3.66,0.5601,0.7161,0.5851,1.4152,3.4313,3.3752,4.8717,5.3051,4.2763,2.0202,0.9286,0.0749,0.622,-0.4345,3.8478,5.0699
3.5697,1.6458,3.8678,2.7095,4.2488,3.7441,2.0734,1.0886,0.4921,-0.3527,-1.2485,0.4322,2.3985,3.0176,0.2499,0.2972,0.2499,1.3983,3.0593,2.9231,4.3047,4.9687,4.192,1.7077,0.8537,-0.0104,0.3019,-0.5336,3.8888,5.1045
3.7573,1.2464,3.8107,2.376,3.808,3.4114,1.7335,1.0175,0.3532,-0.5788,-1.3536,0.319,1.9022,2.47,-0.0126,-0.0607,0.0033,1.4988,2.7699,2.5517,3.8282,4.7694,4.228,1.5379,0.8474,-0.0014,0.0589,-0.5779,3.9399,5.2279
3.9424,0.899,3.79,2.0951,3.3874,3.0972,1.4271,0.9191,0.2145,-0.784,-1.4647,0.2382,1.5196,2.0702,-0.1912,-0.3162,-0.1296,1.6984,2.5767,2.3007,3.4892,4.7106,4.3695,1.5238,0.9157,0.1058,-0.0775,-0.5564,4.0118,5.4213
4.0897,0.6637,3.8107,1.9034,3.0377,2.8465,1.1856,0.8109,0.0973,-0.9453,-1.566,0.2016,1.281,1.8478,-0.2601,-0.4435,-0.1348,1.9702,2.4833,2.1888,3.3131,4.7771,4.5927,1.6584,1.0589,0.3013,-0.0926,-0.4673,4.1089,5.6623
4.1713,0.581,3.8665,1.8217,2.7926,2.6893,1.0246,0.7031,0.0122,-1.0529,-1.6508,0.2104,1.1924,1.8042,-0.207,-0.434,-0.0093,2.2851,2.4841,2.2135,3.3006,4.9403,4.8681,1.9152,1.2704,0.5637,0.0104,-0.319,4.2287,5.9282
4.1742,0.6662,3.9428,1.8525,2.6626,2.6345,0.9413,0.5955,-0.0436,-1.1117,-1.7237,0.2548,1.2364,1.9141,-0.0346,-0.2944,0.2397,2.6183,2.5682,2.3553,3.4299,5.1637,5.1646,2.2536,1.5374,0.8649,0.2125,-0.1284,4.3622,6.1978
4.1043,0.9077,4.0207,1.9805,2.6357,2.6697,0.9168,0.4798,-0.085,-1.1383,-1.7977,0.3171,1.3769,2.1324,0.2401,-0.0433,0.5976,2.9525,2.7217,2.5836,3.6623,5.4106,5.454,2.6258,1.8415,1.1748,0.4822,0.0823,4.4974,6.4539
3.9855,1.2708,4.0816,2.1765,2.6821,2.7651,0.9219,0.3428,-0.1345,-1.156,-1.8902,0.3762,1.568,2.4038,0.5883,0.2923,1.0433,3.2788,2.9293,2.8634,3.9505,5.6497,5.7129,2.9841,2.1605,1.4664,0.7823,0.2891,4.6224,6.6836
3.8553,1.7035,4.1127,2.4031,2.7614,2.8813,0.9246,0.1716,-0.2158,-1.1891,-2.0168,0.4126,1.7638,2.6743,0.9733,0.6805,1.5502,3.5941,3.1747,3.1603,4.2467,5.8588,5.9258,3.2881,2.4704,1.7187,1.0763,0.4707,4.7271,6.8789
3.7564,2.1462,4.1106,2.6214,2.8319,2.977,0.8981,-0.0419,-0.3473,-1.2569,-2.187,0.4137,1.9266,2.9003,1.3561,1.0875,2.0855,3.8964,3.4398,3.4441,4.5102,6.0257,6.0843,3.509,2.7469,1.9187,1.334,0.6115,4.8048,7.0355
3.7266,2.5411,4.0821,2.7975,2.858,3.0165,0.8251,-0.2979,-0.5372,-1.3703,-2.4006,0.3766,2.0333,3.0553,1.7015,1.4806,2.6113,4.1808,3.7045,3.6912,4.7133,6.1464,6.1868,3.6323,2.9675,2.0611,1.5361,0.7045,4.8513,7.1508
3.7885,2.8426,4.0422,2.9084,2.8173,2.9753,0.7009,-0.5888,-0.7815,-1.5296,-2.6472,0.3093,2.0768,3.132,1.9833,1.8314,3.0869,4.4373,3.9461,3.8858,4.8432,6.2225,6.2358,3.6577,3.1138,2.147,1.6752,0.7517,4.8644,7.223
3.9447,3.0262,4.0081,2.9464,2.704,2.8435,0.5323,-0.8995,-1.0641,-1.725,-2.9086,0.2282,2.0651,3.141,2.1885,2.1194,3.4739,4.6513,4.1419,4.0208,4.9026,6.2581,6.2352,3.5971,3.1733,2.1821,1.7548,0.7632,4.8443,7.2507
4.1765,3.092,3.9935,2.9201,2.5304,2.6278,0.336,-1.2095,-1.3602,-1.9386,-3.1621,0.1546,2.0169,3.1049,2.318,2.3344,3.7419,4.8059,4.2716,4.0979,4.9071,6.2572,6.1892,3.4709,3.1413,2.1741,1.7865,0.7541,4.7935,7.2336
4.45,3.0641,4.0047,2.8523,2.3228,2.35,0.1343,-1.4951,-1.6405,-2.1473,-3.3841,0.1092,1.9563,3.0522,2.3848,2.4767,3.8748,4.886,4.3215,4.1265,4.8804,6.2232,6.1015,3.3043,3.0211,2.1312,1.7849,0.7412,4.7174,7.173
4.7246,2.9834,4.0391,2.7732,2.1151,2.0434,-0.0482,-1.7315,-1.8747,-2.3264,-3.5535,0.1082,1.9068,3.0098,2.4094,2.556,3.8732,4.8818,4.2871,4.1211,4.8479,6.1585,5.9758,3.1221,2.8242,2.0611,1.7646,0.7394,4.6239,7.0717
4.9609,2.8959,4.0876,2.7123,1.9407,1.7459,-0.1886,-1.8947,-2.0358,-2.4533,-3.653,0.1601,1.8871,2.9971,2.4129,2.587,3.7542,4.7906,4.1745,4.0976,4.8312,6.0648,5.8155,2.9458,2.5684,1.9704,1.7366,0.7591,4.5211,6.9323
5.128,2.8404,4.1376,2.6899,1.8243,1.4928,-0.2698,-1.9647,-2.1023,-2.5106,-3.6702,0.2654,1.9069,3.0221,2.4113,2.5854,3.5474,4.6181,3.999,4.0689,4.8416,5.9434,5.624,2.7904,2.2752,1.8647,1.7077,0.8048,4.4138,6.7565
5.2067,2.8386,4.1757,2.7104,1.7763,1.3093,-0.2834,-1.928,-2.061,-2.4888,-3.5981,0.4168,1.9655,3.0791,2.4102,2.5629,3.2881,4.3763,3.7812,4.0412,4.8773,5.7942,5.4031,2.6634,1.9667,1.7481,1.6796,0.8747,4.3017,6.5433
5.1904,2.8898,4.1882,2.7607,1.7895,1.2056,-0.2319,-1.7813,-1.9084,-2.3885,-3.4356,0.6011,2.0512,3.1501,2.4022,2.5247,3.0102,4.0811,3.5425,4.0121,4.9228,5.6151,5.1524,2.5633,1.6621,1.6237,1.65,0.9609,4.1786,6.2896
5.084,2.9721,4.1614,2.8116,1.8404,1.1742,-0.1297,-1.5333,-1.6526,-2.2207,-3.1884,0.8012,2.1427,3.2069,2.3682,2.4686,2.7396,3.7492,3.2997,3.9705,4.9516,5.4017,4.8687,2.4805,1.3745,1.4935,1.6132,1.0508,4.0333,5.992
4.9008,3.0485,4.0797,2.8252,1.8925,1.1904,-0.0014,-1.2056,-1.3135,-2.0069,-2.8695,0.9984,2.2124,3.2154,2.2817,2.3857,2.4906,3.3956,3.0623,3.8989,4.9314,5.1474,4.5473,2.3985,1.1091,1.3589,1.5615,1.1294,3.8528,5.649
4.6592,3.0768,3.9271,2.7625,1.9031,1.2173,0.1214,-0.8311,-0.9221,-1.7762,-2.5,1.1742,2.2304,3.142,2.1166,2.2633,2.2654,3.0326,2.8315,3.7775,4.8304,4.8449,4.1837,2.2969,0.8629,1.2217,1.4858,1.1822,3.6253,5.2636
4.3792,3.0195,3.6892,2.5937,1.8317,1.2126,0.2049,-0.4501,-0.517,-1.5614,-2.1072,1.3126,2.1702,2.9586,1.8552,2.0881,2.0564,2.6698,2.6022,3.5892,4.6239,4.4888,3.7769,2.155,0.6267,1.0845,1.3778,1.197,3.3427,4.8451
4.079,2.8528,3.3587,2.305,1.6481,1.1379,0.2193,-0.105,-0.1399,-1.3943,-1.7232,1.4015,2.0136,2.649,1.4955,1.8512,1.8513,2.3145,2.3664,3.3237,4.2999,4.0782,3.3322,1.9564,0.3886,0.9512,1.2316,1.1669,3.0028,4.4086
3.7734,2.571,2.9404,1.9026,1.3396,0.9674,0.1448,0.1662,0.1703,-1.2996,-1.3802,1.4336,1.7551,2.2137,1.0542,1.5506,1.638,1.9736,2.1175,2.9809,3.8624,3.62,2.8634,1.6942,0.1393,0.8269,1.046,1.0907,2.6093,3.9731
3.4734,2.1871,2.4541,1.4111,0.9146,0.6939,-0.0242,0.3352,0.3834,-1.2908,-1.107,1.4076,1.4053,1.6725,0.5652,1.1938,1.4084,1.6538,1.8535,2.5722,3.3322,3.1299,2.3935,1.3739,-0.1233,0.7176,0.8268,0.9731,2.1706,3.559
3.1866,1.7282,1.9334,0.8692,0.4026,0.3317,-0.2762,0.3878,0.4826,-1.3672,-0.9251,1.3277,0.9907,1.0638,0.0729,0.7969,1.1595,1.3632,1.5785,2.1187,2.745,2.6327,1.9536,1.015,-0.3903,0.6292,0.588,0.824,1.6967,3.1845
2.9195,1.2291,1.4213,0.3221,-0.1501,-0.0859,-0.5834,0.3256,0.4664,-1.5145,-0.8453,1.2026,0.5508,0.4409,-0.3755,0.3822,0.8929,1.1109,1.3028,1.6485,2.1461,2.1602,1.5794,0.6491,-0.6399,0.5676,0.3515,0.6569,1.1966,2.8637
2.6783,0.7257,0.9629,-0.1852,-0.6873,-0.5124,-0.9061,0.1644,0.3486,-1.7069,-0.8675,1.0448,0.1326,-0.1355,-0.7398,-0.0248,0.6131,0.9064,1.04,1.1923,1.5838,1.7463,1.3073,0.3148,-0.8404,0.5384,0.1443,0.4863,0.6768,2.6052
2.4709,0.2489,0.5975,-0.6147,-1.1538,-0.8981,-1.1996,-0.0692,0.1547,-1.913,-0.9806,0.8685,-0.2183,-0.6076,-0.9922,-0.3998,0.326,0.7586,0.8046,0.7784,1.1012,1.422,1.1681,0.0509,-0.9556,0.546,-0.0064,0.3258,0.141,2.4112
2.3054,-0.1789,0.3519,-0.9408,-1.5055,-1.2,-1.4237,-0.344,-0.0836,-2.1016,-1.1659,0.6875,-0.4665,-0.9316,-1.1221,-0.7237,0.0374,0.6732,0.6085,0.4282,0.7287,1.2085,1.1812,-0.1124,-0.9548,0.593,-0.0791,0.1852,-0.4088,2.2784
2.1874,-0.547,0.2354,-1.1546,-1.7194,-1.3916,-1.5522,-0.6308,-0.3356,-2.2491,-1.4003,0.5126,-0.5948,-1.0875,-1.1366,-0.9867,-0.248,0.6502,0.4575,0.1514,0.4779,1.1121,1.3491,-0.1605,-0.8213,0.6786,-0.0633,0.0694,-0.9711,2.1975
2.1157,-0.8575,0.2366,-1.2662,-1.7989,-1.4697,-1.5797,-0.908,-0.5778,-2.3445,-1.6612,0.3499,-0.6082,-1.0849,-1.0579,-1.1908,-0.5276,0.6822,0.3497,-0.0557,0.3387,1.1211,1.6535,-0.0992,-0.56,0.7975,0.036,-0.0228,-1.5453,2.155
2.0799,-1.1244,0.3248,-1.3035,-1.7738,-1.4552,-1.5231,-1.1646,-0.798,-2.3917,-1.9298,0.2,-0.5333,-0.9621,-0.9191,-1.3504,-0.802,0.7533,0.2745,-0.2109,0.2814,1.2067,2.0568,0.046,-0.1986,0.9401,0.1993,-0.0974,-2.1312,2.1341
2.0605,-1.3703,0.4554,-1.3062,-1.693,-1.3878,-1.4177,-1.3999,-0.9954,-2.4069,-2.1924,0.0592,-0.4122,-0.7782,-0.7573,-1.488,-1.074,0.8414,0.2154,-0.3412,0.2632,1.328,2.5064,0.235,0.2165,1.0933,0.396,-0.1633,-2.7278,2.1166
