FP1,F3,F7,FC3,C3,C5,P3,P7,PO7,PO3,O1,Oz,Pz,CPz,FP2,Fz,F4,F8,FC4,FCz,Cz,C4,C6,P4,P8,PO8,PO4,O2,(corr) HEOG,(corr) VEOG
-0.9626,-2.3216,-0.2316,-1.4902,-0.885,-2.204,-0.9497,-0.4716,0.6706,0.2553,0.5326,0.976,-1.073,-1.2899,-1.1294,-1.4225,-1.5321,-0.9493,-1.4678,-1.2762,-1.6686,-0.3344,-0.2273,-0.1198,0.0972,0.6797,0.0398,0.6314,-0.4143,0.4947
-0.7951,-2.1554,-0.097,-1.3174,-0.7291,-2.0014,-0.9068,-0.4308,0.6237,0.3624,0.4777,1.0044,-0.9109,-1.1415,-0.9914,-1.277,-1.3578,-0.655,-1.2498,-1.1117,-1.4014,-0.1448,0.0465,-0.0126,0.2242,0.7859,0.0891,0.6832,-0.4224,0.4258
-0.5452,-1.864,0.1396,-1.0206,-0.4949,-1.6867,-0.799,-0.3656,0.6139,0.4975,0.4315,1.0032,-0.682,-0.885,-0.7692,-1.0679,-1.0905,-0.2812,-0.9476,-0.8104,-0.9903,0.1633,0.3816,0.1721,0.3754,0.9062,0.1745,0.7601,-0.4066,0.3538
-0.225,-1.4575,0.4808,-0.6116,-0.1812,-1.2786,-0.6286,-0.2801,0.6319,0.6516,0.3989,0.9721,-0.4015,-0.5324,-0.479,-0.7988,-0.7457,0.1468,-0.5753,-0.3848,-0.4519,0.5787,0.7676,0.4284,0.5419,1.0471,0.2917,0.8641,-0.3718,0.2798
0.1395,-0.9715,0.9088,-0.1296,0.1926,-0.8164,-0.4112,-0.1851,0.6616,0.8089,0.3797,0.9111,-0.0976,-0.1163,-0.151,-0.4859,-0.3528,0.5953,-0.1591,0.1272,0.1686,1.0671,1.1829,0.732,0.7083,1.2074,0.427,0.9887,-0.3271,0.2074
0.5136,-0.4606,1.3871,0.3665,0.5898,-0.3533,-0.1735,-0.0952,0.6837,0.9507,0.3697,0.8218,0.1921,0.3152,0.176,-0.1548,0.0512,1.0266,0.2662,0.6695,0.8049,1.5771,1.596,1.0447,0.8556,1.3768,0.5599,1.1207,-0.2823,0.1421
0.8603,0.0131,1.8682,0.8106,0.9629,0.0539,0.0521,-0.0255,0.6812,1.0598,0.3633,0.711,0.4293,0.708,0.4626,0.1648,0.4291,1.4044,0.6628,1.1791,1.3827,2.0507,1.9705,1.3227,0.9644,1.5385,0.668,1.2441,-0.2451,0.0914
1.148,0.3927,2.3017,1.1443,1.2644,0.3556,0.235,0.0127,0.6439,1.1252,0.3562,0.5909,0.5829,1.0142,0.6756,0.4452,0.751,1.6986,0.9962,1.5999,1.8346,2.4353,2.2708,1.5264,1.0198,1.6742,0.7324,1.3448,-0.2184,0.0624
1.356,0.6389,2.6441,1.3292,1.4577,0.5186,0.3537,0.0148,0.5725,1.1457,0.3469,0.4799,0.6373,1.2021,0.7951,0.6664,0.9987,1.8896,1.241,1.893,2.115,2.6936,2.4694,1.6305,1.0144,1.7696,0.743,1.4151,-0.2007,0.0593
1.478,0.7375,2.8654,1.3541,1.5255,0.5315,0.4004,-0.0149,0.4801,1.1306,0.3381,0.3993,0.5959,1.2633,0.818,0.8203,1.1677,1.9704,1.3846,2.0442,2.2085,2.8105,2.5518,1.6297,0.9504,1.8194,0.7008,1.4555,-0.187,0.0803
1.5211,0.7007,2.9532,1.2362,1.4739,0.4062,0.3834,-0.0638,0.3906,1.0989,0.3356,0.3691,0.4817,1.2134,0.7576,0.9112,1.2656,1.947,1.4287,2.064,2.1316,2.7941,2.5193,1.5397,0.839,1.8289,0.6177,1.4739,-0.1709,0.1165
1.502,0.5629,2.9135,1.015,1.3303,0.1741,0.3251,-0.113,0.3347,1.0746,0.3474,0.404,0.3314,1.0868,0.6395,0.9532,1.307,1.8362,1.3878,1.983,1.9261,2.6714,2.3885,1.3925,0.6988,1.8121,0.5131,1.483,-0.1463,0.1537
1.4411,0.3702,2.7674,0.7415,1.1364,-0.1198,0.2557,-0.1416,0.3427,1.0817,0.3818,0.5085,0.1871,0.9267,0.4943,0.9659,1.3088,1.6617,1.2843,1.8417,1.6471,2.4807,2.1872,1.2273,0.5514,1.7869,0.4089,1.4956,-0.1086,0.1762
1.3557,0.169,2.5464,0.4662,0.9371,-0.4261,0.2061,-0.1306,0.4371,1.1383,0.4449,0.6761,0.0855,0.7731,0.3489,0.9674,1.2848,1.4488,1.1426,1.6788,1.3487,2.2605,1.9482,1.0796,0.4177,1.769,0.3241,1.5198,-0.0558,0.1729
1.255,-0.0059,2.2848,0.2274,0.7697,-0.6998,0.1998,-0.0675,0.6254,1.2513,0.5396,0.8886,0.0479,0.6519,0.2193,0.9695,1.2414,1.2195,0.983,1.5206,1.0709,2.0396,1.7014,0.9712,0.3127,1.7664,0.269,1.5549,0.0118,0.1422
1.1379,-0.1389,2.0134,0.0445,0.6554,-0.9079,0.2465,0.0506,0.8963,1.4134,0.6633,1.119,0.074,0.5678,0.1068,0.9736,1.1766,0.9882,0.816,1.3749,0.831,1.8298,1.467,0.9037,0.2414,1.7759,0.2418,1.5897,0.0907,0.094
0.9938,-0.2357,1.7541,-0.0849,0.5954,-1.0341,0.3391,0.2164,1.2201,1.603,0.8072,1.3349,0.1406,0.5041,-0.0024,0.9702,1.0802,0.7595,0.6403,1.2299,0.6222,1.6235,1.2513,0.8581,0.1974,1.7837,0.2278,1.6039,0.1743,0.048
0.8067,-0.3199,1.5176,-0.1813,0.5728,-1.0801,0.4554,0.4131,1.5545,1.7879,0.9572,1.5051,0.2076,0.4275,-0.1321,0.9411,0.9382,0.5294,0.4441,1.0594,0.4176,1.3974,1.0467,0.8005,0.1638,1.7693,0.2028,1.5733,0.2535,0.0291
0.5619,-0.4242,1.3048,-0.2756,0.5584,-1.0623,0.5637,0.6183,1.854,1.9322,1.0965,1.6066,0.2284,0.2991,-0.3091,0.8646,0.7379,0.2882,0.2103,0.8332,0.1813,1.1219,0.8367,0.6923,0.1192,1.7128,0.1399,1.4782,0.3179,0.0609
0.2517,-0.5804,1.11,-0.4002,0.5198,-1.0065,0.6307,0.8082,2.0795,2.0061,1.2102,1.6319,0.1635,0.086,-0.5547,0.7217,0.4728,0.0258,-0.0764,0.5272,-0.1196,0.7728,0.6029,0.5037,0.0442,1.6037,0.0194,1.3123,0.3582,0.1599
-0.12,-0.8095,0.925,-0.58,0.4293,-0.9415,0.6298,0.9622,2.2061,1.9927,1.2888,1.5926,-0.0079,-0.2287,-0.8772,0.5018,0.146,-0.2638,-0.4224,0.1326,-0.5034,0.3417,0.3333,0.2244,-0.0706,1.4474,-0.1631,1.089,0.3686,0.3307
-0.5366,-1.1162,0.7428,-0.8265,0.27,-0.8929,0.5473,1.0654,2.2268,1.8932,1.3317,1.5178,-0.2802,-0.6396,-1.2687,0.2062,-0.2288,-0.5792,-0.8208,-0.3398,-0.9669,-0.1569,0.0274,-0.1306,-0.2197,1.2678,-0.3921,0.8419,0.3482,0.5641
-0.9708,-1.4865,0.5602,-1.1359,0.0402,-0.8795,0.3857,1.1103,2.1514,1.7268,1.3465,1.4488,-0.6212,-1.1182,-1.7047,-0.1508,-0.6285,-0.911,-1.2499,-0.86,-1.4839,-0.686,-0.3005,-0.5206,-0.3811,1.1043,-0.6322,0.6203,0.3014,0.839
-1.388,-1.8902,0.3794,-1.4887,-0.246,-0.9101,0.1637,1.0969,2.0033,1.5264,1.3478,1.4293,-0.9769,-1.6169,-2.1473,-0.5427,-1.0231,-1.2419,-1.6749,-1.3833,-2.0085,-1.1907,-0.6223,-0.8862,-0.5195,1.0056,-0.8334,0.479,0.2366,1.1256
-1.7508,-2.2845,0.2094,-1.853,-0.559,-0.9809,-0.0863,1.0323,1.8138,1.3328,1.3532,1.4968,-1.2809,-2.0747,-2.5507,-0.9336,-1.3773,-1.5487,-2.0521,-1.8576,-2.482,-1.6066,-0.8984,-1.1587,-0.592,1.0201,-0.9399,0.468,0.165,1.3916
-2.0214,-2.6201,0.0665,-2.1874,-0.8561,-1.0743,-0.3214,0.9293,1.6169,1.1877,1.3797,1.6759,-1.4651,-2.4253,-2.8664,-1.2812,-1.6526,-1.8033,-2.3328,-2.2296,-2.8413,-1.8707,-1.0819,-1.272,-0.5554,1.1872,-0.8993,0.6228,0.099,1.6075
-2.1643,-2.8472,-0.0254,-2.446,-1.0857,-1.1589,-0.4947,0.8054,1.4437,1.1274,1.4396,1.9751,-1.4708,-2.6057,-3.0479,-1.5408,-1.8086,-1.9743,-2.4689,-2.4518,-3.0274,-1.9298,-1.1249,-1.1734,-0.3749,1.53,-0.6721,0.9584,0.0508,1.7512
-2.1479,-2.9214,-0.0369,-2.583,-1.1941,-1.1934,-0.5613,0.6798,1.3177,1.1779,1.5375,2.3863,-1.257,-2.5638,-3.0556,-1.6691,-1.8059,-2.0291,-2.4184,-2.4869,-2.9929,-1.7491,-0.9838,-0.8324,-0.0302,2.0504,-0.2387,1.4675,0.0315,1.8104
-1.9475,-2.808,0.0635,-2.558,-1.1327,-1.1328,-0.4856,0.5712,1.2516,1.3512,1.6686,2.8865,-0.8069,-2.2656,-2.8605,-1.6285,-1.6102,-1.9371,-2.1507,-2.3106,-2.7074,-1.316,-0.627,-0.246,0.4794,2.727,0.3961,2.1214,0.0502,1.7837
-1.5481,-2.4867,0.3047,-2.3409,-0.8662,-0.9365,-0.2472,0.4943,1.2467,1.6438,1.8191,3.4415,-0.1303,-1.7005,-2.4487,-1.3909,-1.1974,-1.6739,-1.6521,-1.9128,-2.1611,-0.6418,-0.041,0.56,1.1336,3.5167,1.2016,2.8741,0.1132,1.68
-0.9484,-1.9526,0.7075,-1.9156,-0.379,-0.5768,0.155,0.4579,1.2942,2.0371,1.9679,4.009,0.7373,-0.8843,-1.8244,-0.9406,-0.5601,-1.226,-0.9295,-1.2983,-1.3664,0.2399,0.7645,1.5339,1.8929,4.3589,2.124,3.6675,0.2234,1.5174
-0.1628,-1.2175,1.2796,-1.2824,0.3203,-0.0455,0.7016,0.464,1.3793,2.4994,2.09,4.5441,1.7386,0.1411,-1.0113,-0.2771,0.2889,-0.5955,-0.0112,-0.4859,-0.3566,1.2779,1.7546,2.6045,2.7028,5.1815,3.0935,4.4389,0.3786,1.321
0.7777,-0.309,2.0126,-0.4599,1.1995,0.6434,1.3543,0.508,1.4855,2.99,2.1612,5.0041,2.8022,1.3126,-0.0506,0.584,1.3144,0.1975,1.0555,0.4918,0.8164,2.4093,2.8708,3.6911,3.501,5.9101,4.0334,5.1273,0.5715,1.1193
1.828,0.7313,2.8807,0.5162,2.2057,1.4553,2.0613,0.581,1.5983,3.4655,2.1634,5.3538,3.8515,2.5526,1.0029,1.6108,2.4617,1.1158,2.21,1.59,2.0877,3.5667,4.0382,4.7137,4.2249,6.4775,4.8715,5.6806,0.7891,0.9392
2.9332,1.8509,3.8433,1.5951,3.2725,2.3406,2.7644,0.6721,1.7063,3.886,2.0883,5.5703,4.8151,3.7798,2.0877,2.7565,3.6623,2.1085,3.3862,2.7545,3.3859,4.6857,5.1746,5.6041,4.82,6.8331,5.5504,6.0612,1.0137,0.8003
4.0342,2.9899,4.848,2.7148,4.3289,3.243,3.4071,0.7708,1.8013,4.2209,1.9398,5.6455,5.6354,4.9186,3.1422,3.962,4.8422,3.1174,4.5196,3.9244,4.6396,5.7109,6.2031,6.314,5.2461,6.9507,6.0345,6.2489,1.2251,0.711
5.0731,4.0856,5.8356,3.807,5.3078,4.1071,3.9418,0.869,1.8769,4.4522,1.7335,5.5871,6.2746,5.9073,4.1102,5.1589,5.931,4.083,5.5534,5.0363,5.7844,6.6008,7.0618,6.8195,5.4823,6.8321,6.3135,6.2417,1.4026,0.6666
5.997,5.076,6.7449,4.8029,6.1532,4.8847,4.3354,0.9613,1.9271,4.5756,1.4938,5.416,6.7161,6.7025,4.9443,6.2748,6.8681,4.9502,6.4408,6.0291,6.7665,7.3279,7.7109,7.1198,5.5277,6.5061,6.4,6.0542,1.5285,0.6507
6.761,5.9049,7.5182,5.6397,6.8246,5.5386,4.5723,1.0447,1.9471,4.5988,1.2486,5.1625,6.9623,7.2797,5.6079,7.2384,7.607,5.672,7.1459,6.8478,7.5461,7.8774,8.1335,7.2328,5.3988,6.0226,6.3237,5.7138,1.5901,0.6402
7.3306,6.5263,8.1064,6.2669,7.2992,6.0437,4.6543,1.1172,1.9347,4.5382,1.0242,4.8613,7.0292,7.6322,6.0753,7.9867,8.1173,6.2122,7.6423,7.4495,8.0981,8.2434,8.3334,7.1873,5.1256,5.4438,6.1241,5.2573,1.5825,0.6116
7.6836,6.9097,8.4746,6.6531,7.572,6.3864,4.5983,1.1771,1.8922,4.4156,0.8415,4.5465,6.9404,7.7672,6.3322,8.4728,8.3844,6.547,7.9137,7.8075,8.4129,8.4261,8.3285,7.0143,4.7456,4.834,5.8423,4.7267,1.5097,0.5475
7.8115,7.0437,8.6065,6.7889,7.6538,6.5627,4.4328,1.222,1.8277,4.2546,0.7132,4.2483,6.7226,7.7026,6.3757,8.6715,8.4087,6.6666,7.9535,7.9144,8.4954,8.4286,8.1445,6.7418,4.2977,4.2509,5.5152,4.1667,1.3839,0.4417
7.7202,6.9383,8.5062,6.6877,7.5676,6.5771,4.1926,1.2491,1.7536,4.0779,0.644,3.9902,6.4022,7.4637,6.2148,8.5835,8.2036,6.5753,7.7659,7.7833,8.3631,8.2564,7.8087,6.3909,3.8187,3.7392,5.1719,3.6214,1.2247,0.3004
7.4289,6.6234,8.1979,6.3822,7.3443,6.4416,3.9142,1.2557,1.6835,3.9058,0.6317,3.7886,6.0046,7.0801,5.8697,8.2345,7.7944,6.2907,7.3666,7.4451,8.0432,7.918,7.3467,5.9767,3.3392,3.3283,4.8331,3.1318,1.0557,0.14
6.9686,6.1448,7.7218,5.9183,7.0179,6.1749,3.6313,1.24,1.6284,3.755,0.6695,3.6533,5.5546,6.5853,5.3713,7.6719,7.2157,5.8407,6.7833,6.9438,7.5701,7.4269,6.7818,5.5116,2.8836,3.0328,4.5118,2.733,0.9023,-0.0177
6.3797,5.5579,7.1282,5.3484,6.6226,5.8037,3.3717,1.2023,1.5931,3.6379,0.7475,3.5885,5.0781,6.0158,4.7586,6.958,6.5108,5.2608,6.0553,6.3307,6.9823,6.8044,6.1366,5.01,2.4697,2.8551,4.2166,2.4515,0.7883,-0.1528
5.7087,4.9199,6.471,4.7243,6.1901,5.361,3.1558,1.1454,1.5749,3.5628,0.8557,3.5953,4.6033,5.4112,4.0769,6.1621,5.7292,4.5896,5.2316,5.6583,6.3209,6.0814,5.4358,4.4925,2.1101,2.789,3.9543,2.3027,0.7334,-0.252
5.0054,4.2827,5.8011,4.0923,5.7486,4.8846,2.9959,1.0751,1.5662,3.5343,0.9854,3.6723,4.1612,4.8134,3.3733,5.3522,4.9245,3.8656,4.3674,4.9747,5.628,5.2988,4.7082,3.9874,1.8126,2.8232,3.7327,2.2899,0.7517,-0.3131
4.3191,3.6876,5.1611,3.4907,5.322,4.413,2.8965,1.0003,1.5581,3.5537,1.1316,3.8169,3.7834,4.2646,2.694,4.5888,4.1508,3.125,3.5192,4.3209,4.9445,4.5055,3.987,3.5291,1.5817,2.9434,3.5617,2.4037,0.8498,-0.3442
3.6952,3.1628,4.5821,2.9489,4.9296,3.981,2.8554,0.9318,1.5456,3.6194,1.2925,4.024,3.4993,3.8043,2.0808,3.9203,3.4588,2.4006,2.7392,3.7297,4.3096,3.7545,3.3079,3.1539,1.4183,3.1341,3.4531,2.6236,1.0259,-0.3619
3.1725,2.7247,4.0838,2.4885,4.5866,3.6157,2.8649,0.8805,1.5315,3.7272,1.4694,4.286,3.3315,3.4652,1.569,3.3812,2.8916,1.7229,2.0706,3.226,3.7583,3.0979,2.7061,2.8944,1.3212,3.3792,3.4191,2.9208,1.2692,-0.3849
2.7807,2.3805,3.6762,2.1256,4.3034,3.3337,2.9139,0.8552,1.5267,3.871,1.664,4.591,3.2917,3.2694,1.1861,2.9921,2.4815,1.1217,1.5446,2.8291,3.3204,2.5813,2.213,2.7735,1.2873,3.6626,3.4694,3.2626,1.5603,-0.4278
2.5391,2.133,3.3628,1.8714,4.0862,3.1408,2.9901,0.8612,1.5476,4.0427,1.8768,4.9231,3.378,3.2245,0.9509,2.7604,2.2482,0.6265,1.1797,2.5539,3.0182,2.2385,1.8524,2.7999,1.3133,3.9684,3.6088,3.6169,1.8727,-0.4946
2.4551,1.9837,3.143,1.7331,3.9371,3.0332,3.0819,0.8988,1.6107,4.2333,2.1048,5.2624,3.5747,3.3229,0.8729,2.6827,2.1987,0.2661,0.9816,2.4112,2.8643,2.0874,1.6388,2.9662,1.3955,4.2809,3.8348,3.9564,2.1753,-0.5759
2.5244,1.9343,3.0134,1.7124,3.8541,3.0002,3.1805,0.964,1.7268,4.4325,2.3411,5.5863,3.8551,3.5423,0.9516,2.7461,2.3279,0.0652,0.9449,2.4065,2.8592,2.1273,1.5749,3.2492,1.5293,4.585,4.1366,4.2609,2.4374,-0.6494
2.7314,1.986,2.9677,1.805,3.8319,3.0276,3.2804,1.0484,1.8961,4.6297,2.5748,5.8715,4.185,3.8494,1.1757,2.9308,2.6196,0.0391,1.0535,2.5372,2.99,2.3387,1.6519,3.6135,1.7082,4.8654,4.4962,4.5179,2.6335,-0.6859
3.0499,2.1361,2.9951,1.9982,3.862,3.0996,3.3794,1.1401,2.1059,4.8142,2.7929,6.0966,4.5279,4.2042,1.5221,3.2122,3.0464,0.1889,1.2816,2.7896,3.2301,2.6852,1.8493,4.0164,1.9225,5.1075,4.89,4.7214,2.748,-0.6554
3.4446,2.3741,3.0797,2.2698,3.9328,3.2005,3.4776,1.2256,2.3323,4.9757,2.9818,6.245,4.8502,4.5649,1.9551,3.562,3.5701,0.497,1.595,3.1359,3.5403,3.1176,2.1373,4.4141,2.1587,5.2978,5.2919,4.871,2.7786,-0.5346
3.8731,2.6779,3.2003,2.5879,4.0292,3.3139,3.5754,1.2917,2.5445,5.1054,3.1298,6.3081,5.1246,4.8924,2.4274,3.9483,4.1423,0.9266,1.9529,3.5347,3.8719,3.5799,2.4799,4.7686,2.401,5.4253,5.6762,4.9692,2.7365,-0.3114
4.2885,3.0133,3.3302,2.9119,4.1324,3.4216,3.672,1.3279,2.7126,5.1971,3.229,6.2867,5.3329,5.1538,2.883,4.3357,4.7066,1.4255,2.3114,3.9326,4.1715,4.0166,2.839,5.0523,2.633,5.484,6.0212,5.0213,2.6436,0.012
4.6442,3.3366,3.4408,3.1969,4.2208,3.5038,3.7634,1.3282,2.8147,5.2488,3.2774,6.1915,5.4672,5.3244,3.2632,4.6863,5.2039,1.9328,2.6279,4.2711,4.3875,4.3793,3.179,5.2516,2.8399,5.4741,6.3113,5.0335,2.5267,0.4194
4.8991,3.601,3.504,3.3995,4.2715,3.54,3.8428,1.2927,2.8425,5.2634,3.279,6.0421,5.5294,5.3906,3.5161,4.9619,5.5803,2.3895,2.8666,4.4946,4.4775,4.6334,3.4711,5.3673,3.0113,5.4037,6.5394,5.0131,2.4108,0.8823
5.0251,3.766,3.4978,3.4856,4.2646,3.5122,3.9022,1.2273,2.8035,5.2495,3.244,5.8648,5.5304,5.3514,3.6058,5.1298,5.7957,2.7482,3.0041,4.5605,4.4157,4.7623,3.6972,5.4133,3.1418,5.2886,6.7078,4.9679,2.3129,1.3626
5.0123,3.8054,3.41,3.4373,4.1882,3.4102,3.9351,1.1429,2.719,5.2205,3.1873,5.6883,5.4885,5.2196,3.5208,5.1677,5.832,2.9813,3.0328,4.4472,4.1986,4.7697,3.8513,5.4125,3.232,5.1511,6.8272,4.9065,2.238,1.8176
4.8724,3.7132,3.2409,3.2574,4.0416,3.2351,3.9396,1.0539,2.6186,5.1932,3.1271,5.5396,5.4268,5.021,3.2781,5.0682,5.6968,3.0842,2.9626,4.159,3.8459,4.6787,3.9394,5.3921,3.2872,5.0165,6.9143,4.8371,2.1798,2.2045
4.6367,3.5037,3.0038,2.9688,3.8375,3.0013,3.9204,0.9767,2.5333,5.184,3.0806,5.4396,5.37,4.791,2.9194,4.84,5.4217,3.0732,2.818,3.7261,3.3977,4.5264,3.9766,5.3785,3.315,4.9086,6.9878,4.7671,2.1226,2.4856
4.3501,3.207,2.722,2.6099,3.6006,2.7355,3.8886,0.9271,2.4883,5.2061,3.062,5.399,5.3393,4.5696,2.5034,4.506,5.0549,2.9783,2.6325,3.1984,2.9073,4.3566,3.9822,5.392,3.3234,4.8446,7.0638,4.7025,2.0474,2.6326
4.0613,2.8607,2.4246,2.2272,3.3624,2.4709,3.8593,0.9181,2.4989,5.2668,3.0787,5.4166,5.3492,4.3932,2.0928,4.0979,4.65,2.8335,2.4414,2.6356,2.4315,4.2116,3.9744,5.4439,3.3183,4.8321,7.152,4.6477,1.9374,2.6299
3.8116,2.5005,2.1401,1.8652,3.1553,2.2406,3.8485,0.9574,2.569,5.3653,3.1305,5.4793,5.4039,4.2885,1.7404,3.6491,4.2545,2.6684,2.2744,2.0962,2.0204,4.1231,3.966,5.5345,3.3024,4.8669,7.2538,4.6057,1.7835,2.4748
3.6258,2.1517,1.8897,1.5583,3.0049,2.0695,3.8687,1.0465,2.6934,5.4938,3.2102,5.5658,5.4969,4.2668,1.4796,3.1879,3.9013,2.501,2.1496,1.6262,1.7096,4.1079,3.962,5.6544,3.2759,4.9354,7.3627,4.5787,1.5882,2.1769
3.5076,1.8262,1.6829,1.3253,2.9256,1.9692,3.9268,1.1798,2.8607,5.6396,3.3055,5.6512,5.6145,4.3234,1.3184,2.7327,3.6041,2.3359,2.0718,1.2526,1.5157,4.166,3.9598,5.787,3.2376,5.0181,7.4674,4.5688,1.3664,1.7544
3.4408,1.523,1.5152,1.1686,2.9176,1.9355,4.0232,1.3459,3.0576,5.7886,3.4028,5.714,5.7406,4.4411,1.2418,2.291,3.3601,2.166,2.0338,0.9815,1.4367,4.2835,3.9529,5.9139,3.1877,5.0958,7.556,4.5781,1.1441,1.2296
3.3967,1.2342,1.3709,1.0779,2.9702,1.9519,4.1542,1.5306,3.2716,5.9308,3.4911,5.7417,5.8647,4.5978,1.2186,1.8635,3.1551,1.9778,2.0211,0.8025,1.4574,4.439,3.9354,6.0209,3.1296,5.1553,7.622,4.6086,0.9549,0.6244
3.3447,0.9532,1.2287,1.0372,3.0662,1.9952,4.3153,1.72,3.4919,6.0631,3.5653,5.7344,5.9869,4.7753,1.2128,1.451,2.9729,1.7574,2.019,0.6973,1.5571,4.6118,3.906,6.1034,3.0718,5.1934,7.6687,4.6624,0.8339,-0.0434
3.2625,0.6812,1.0694,1.0316,3.1886,2.0429,4.5033,1.9033,3.7094,6.1914,3.627,5.7052,6.12,4.9663,1.1937,1.0613,2.8021,1.4969,2.0182,0.6485,1.7182,4.788,3.8709,6.1693,3.0275,5.2179,7.7097,4.7406,0.812,-0.7623
3.1431,0.4307,0.8826,1.0532,3.3242,2.08,4.7174,2.073,3.9138,6.3271,3.6828,5.6764,6.2861,5.176,1.1434,0.7139,2.6401,1.197,2.018,0.6469,1.9311,4.9641,3.8421,6.2376,3.0128,5.2444,7.7664,4.8422,0.9094,-1.5257
2.9949,0.2228,0.6693,1.1012,3.4651,2.1012,4.9561,2.224,4.0917,6.4815,3.7392,5.671,6.5075,5.418,1.0585,0.4383,2.4928,0.8674,2.0251,0.694,2.1949,5.1444,3.8337,6.3321,3.0423,5.2909,7.8609,4.9623,1.1315,-2.3296
2.8369,0.0805,0.4404,1.1788,3.6065,2.1106,5.2129,2.35,4.2243,6.6583,3.7971,5.7036,6.7965,5.7056,0.946,0.2666,2.3693,0.5229,2.0491,0.7982,2.5136,5.3365,3.8565,6.4729,3.1246,5.3696,8.0072,5.0902,1.4658,-3.1677
2.6907,0.0204,0.2124,1.2885,3.7427,2.117,5.4732,2.4409,4.2886,6.8478,3.8474,5.7724,7.1467,6.0433,0.8172,0.2233,2.2765,0.179,2.097,0.97,2.8893,5.5447,3.9129,6.6683,3.2581,5.4816,8.2042,5.2085,1.8821,-4.0283
2.5734,0.0474,0.0018,1.4279,3.8658,2.1306,5.7137,2.4832,4.2614,7.0261,3.8697,5.8563,7.5304,6.4202,0.6816,0.3169,2.2152,-0.1519,2.1699,1.2165,3.3177,5.7663,3.9957,6.9089,3.4292,5.6136,8.433,5.2937,2.3366,-4.8928
2.4938,0.1536,-0.1776,1.5902,3.9667,2.1593,5.9061,2.462,4.1252,7.1594,3.8367,5.9179,7.904,6.8117,0.545,0.5368,2.1809,-0.461,2.2634,1.5389,3.7864,5.9926,4.0911,7.1697,3.614,5.74,8.6593,5.3197,2.7781,-5.7373
2.4537,0.3242,-0.3149,1.7676,4.0392,2.2093,6.0249,2.3675,3.8743,7.2124,3.7213,5.9119,8.2176,7.1853,0.4116,0.8577,2.1679,-0.7406,2.3723,1.9336,4.2783,6.2135,4.1843,7.4152,3.7833,5.8288,8.8416,5.2625,3.1581,-6.5355
2.4508,0.5451,-0.4002,1.9573,4.0854,2.286,6.0553,2.1999,3.52,7.1589,3.5053,5.7959,8.4283,7.5108,0.2877,1.2476,2.1759,-0.9802,2.4965,2.3958,4.7764,6.4228,4.2659,7.6101,3.909,5.8494,8.9402,5.105,3.4396,-7.262
2.4827,0.809,-0.4234,2.1646,4.1182,2.3964,5.9989,1.9739,3.0909,6.9892,3.1865,5.5413,8.5099,7.7685,0.1841,1.677,2.2123,-1.1654,2.6442,2.9205,5.2682,6.6217,4.3351,7.7274,3.9708,5.7805,8.9273,4.8421,3.6046,-7.8952
2.5474,1.1167,-0.375,2.402,4.1595,2.5487,5.8741,1.7182,2.63,6.7134,2.7815,5.1409,8.4579,7.9536,0.1147,2.1237,2.2912,-1.2799,2.8296,3.5017,5.7466,6.8179,4.3985,7.7551,3.9604,5.6153,8.7922,4.4826,3.6564,-8.4188
2.6419,1.4738,-0.2499,2.6837,4.2345,2.7504,5.7123,1.4698,2.1869,6.3587,2.3232,4.6119,8.2889,8.0746,0.0909,2.5741,2.4281,-1.3117,3.0665,4.129,6.2077,7.0205,4.465,7.6973,3.8826,5.3643,8.5447,4.0498,3.6189,-8.8223
2.759,1.883,-0.0522,3.0178,4.3637,3.0044,5.5491,1.2668,1.8095,5.9637,1.8551,3.9947,8.0352,8.149,0.1147,3.0208,2.6324,-1.2607,3.3599,4.7838,6.6468,7.2339,4.5403,7.5725,3.7544,5.0539,8.2127,3.5796,3.5304,-9.1023
2.8863,2.3379,0.202,3.4008,4.5562,3.3048,5.4163,1.1385,1.5348,5.5703,1.423,3.3475,7.738,8.197,0.1746,3.4593,2.9021,-1.1433,3.7002,5.4388,7.0564,7.4543,4.6228,7.4092,3.6011,4.723,7.8386,3.1169,3.4364,-9.2638
3.0059,2.8194,0.4849,3.8148,4.8065,3.6357,5.3352,1.0997,1.3837,5.2175,1.0669,2.7373,7.4402,8.2369,0.2456,3.8846,3.2215,-0.9935,4.0622,6.0603,7.4255,7.6695,4.703,7.2412,3.4516,4.4161,7.4722,2.7105,3.3809,-9.3217
3.0972,3.2961,0.7607,4.2297,5.0953,3.9714,5.314,1.1485,1.3593,4.9363,0.8155,2.2304,7.1812,8.2817,0.2943,4.289,3.5631,-0.8575,4.4094,6.6135,7.7414,7.863,4.7671,7.1021,3.3341,4.1765,7.1637,2.4062,3.3992,-9.3017
3.141,3.7292,0.9921,4.609,5.3933,4.28,5.3487,1.2681,1.4482,4.748,0.683,1.8824,6.9928,8.3382,0.2873,4.6603,3.8909,-0.7844,4.7017,7.0684,7.9922,8.0199,4.8021,7.0218,3.272,4.0385,6.9558,2.2412,3.5119,-9.2385
3.1232,4.0797,1.1468,4.9165,5.6673,4.5289,5.4271,1.4327,1.6255,4.6633,0.6702,1.7301,6.8962,8.4076,0.1992,4.9814,4.1659,-0.8163,4.9049,7.4038,8.1688,8.131,4.8,7.0225,3.2805,4.0219,6.8782,2.2379,3.7223,-9.1711
3.0369,4.3163,1.2038,5.123,5.8866,4.6903,5.5334,1.6141,1.8599,4.683,0.7661,1.7865,6.902,8.4874,0.018,5.2319,4.3508,-0.9786,4.9967,7.6094,8.2664,8.1957,4.7605,7.1174,3.3654,4.1299,6.9433,2.4011,4.0172,-9.1364
2.884,4.422,1.1565,5.2119,6.0291,4.7467,5.653,1.7874,2.1196,4.7991,0.9521,2.04,7.0103,8.5735,-0.2525,5.3911,4.415,-1.2751,4.9713,7.6868,8.286,8.2208,4.6913,7.3096,3.5234,4.3508,7.1462,2.718,4.37,-9.163
2.6746,4.3979,1.0136,5.1813,6.085,4.6946,5.7749,1.9356,2.3766,4.9966,1.2052,2.4567,7.2123,8.663,-0.594,5.4426,4.3403,-1.6867,4.8394,7.6487,8.2355,8.2184,4.6058,7.5935,3.7435,4.6621,7.466,3.1604,4.746,-9.2674
2.4265,4.2631,0.7979,5.0446,6.0588,4.5459,5.8933,2.0505,2.6094,5.2553,1.5012,2.9859,7.493,8.7563,-0.9758,5.3805,4.1252,-2.1752,4.6259,7.5179,8.1302,8.2032,4.5208,7.9558,4.0101,5.0366,7.8716,3.69,5.1089,-9.4533
2.1633,4.0515,0.5421,4.8281,5.9684,4.3255,6.0066,2.132,2.8036,5.5524,1.8161,3.5671,7.8326,8.8582,-1.3599,5.2125,3.7881,-2.69,4.3658,7.3255,7.9929,8.1901,4.4541,8.3782,4.3046,5.4473,8.3268,4.2636,5.4262,-9.7133
1.9117,3.8058,0.2845,4.5662,5.8413,4.0676,6.1151,2.186,2.9512,5.8644,2.1266,4.138,8.209,8.9764,-1.7054,4.9612,3.3672,-3.1762,4.0982,7.1073,7.8509,8.1927,4.4218,8.8386,4.6079,5.8703,8.7957,4.8383,5.6743,-10.0309
1.698,3.5693,0.0626,4.2965,5.7091,3.8097,6.2194,2.222,3.0495,6.1691,2.4111,4.6415,8.5991,9.1183,-1.9755,4.6612,2.9161,-3.5844,3.8603,6.8992,7.7313,8.2221,4.4365,9.3124,4.9018,6.2847,9.2469,5.3748,5.8404,-10.3822
1.5443,3.3786,-0.0924,4.0529,5.5999,3.5868,6.3189,2.2508,3.1005,6.4468,2.6499,5.0327,8.9798,9.2879,-2.1432,4.3529,2.4953,-3.8774,3.6822,6.7309,7.6552,8.2854,4.5049,9.7736,5.1694,6.6713,9.6551,5.8395,5.9225,-10.7378
1.4647,3.2571,-0.1613,3.8605,5.5331,3.427,6.4116,2.2831,3.1104,6.682,2.8276,5.2834,9.3296,9.482,-2.196,4.0744,2.1618,-4.0357,3.5821,6.6206,7.6324,8.3842,4.6263,10.1956,5.3958,7.0112,10.0026,6.2062,5.9271,-11.0656
1.4623,3.2106,-0.1405,3.7316,5.5146,3.3474,6.4952,2.3279,3.0894,6.8636,2.9348,5.3844,9.6298,9.6893,-2.1383,3.8542,1.9573,-4.059,3.5646,6.5709,7.6582,8.5137,4.7913,10.5529,5.5692,7.2856,10.2798,6.4571,5.8666,-11.335
1.5277,3.2276,-0.0428,3.6647,5.5361,3.3513,6.5671,2.3912,3.0502,6.9853,2.97,5.3449,9.8649,9.8908,-1.9901,3.7052,1.9004,-3.9651,3.62,6.568,7.7135,8.6617,4.9827,10.823,5.6821,7.4767,10.4842,6.5831,5.7557,-11.523
1.6396,3.2814,0.1042,3.6448,5.5771,3.4272,6.6245,2.4735,3.005,7.0444,2.9399,5.1888,10.0231,10.0624,-1.7835,3.6233,1.982,-3.7842,3.7266,6.5841,7.768,8.8087,5.1772,10.9888,5.7311,7.5706,10.6196,6.5844,5.6093,-11.6185
1.7676,3.3365,0.2633,3.6469,5.6094,3.5492,6.6634,2.5685,2.9625,7.0403,2.8575,4.9491,10.0956,10.1778,-1.5574,3.5892,2.1677,-3.5533,3.8544,6.5829,7.7862,8.929,5.3491,11.0397,5.7181,7.56,10.6932,6.4698,5.4401,-11.6239
1.8769,3.3559,0.3948,3.6408,5.6035,3.6807,6.6773,2.6627,2.9254,6.9727,2.7385,4.6617,10.076,10.2118,-1.3512,3.5736,2.4053,-3.3087,3.9702,6.5269,7.7337,8.9943,5.4737,10.9729,5.6488,7.4462,10.713,6.2554,5.2589,-11.5509
1.9341,3.3084,0.4638,3.5962,5.5347,3.7807,6.6559,2.7368,2.8895,6.8413,2.5973,4.36,9.9592,10.1434,-1.1998,3.5433,2.6352,-3.0821,4.0424,6.3844,7.584,8.9768,5.5309,10.7926,5.5317,7.2401,10.6848,5.963,5.0748,-11.4124
1.9127,3.1749,0.4465,3.4877,5.3876,3.8119,6.5866,2.7687,2.8455,6.6454,2.4441,4.071,9.7413,9.9578,-1.1302,3.4674,2.8024,-2.8976,4.0454,6.135,7.3214,8.8541,5.5075,10.5094,5.3763,6.9608,10.6102,5.6182,4.8969,-11.2142
1.7969,2.9511,0.3337,3.2993,5.1588,3.7478,6.4557,2.7386,2.7812,6.3862,2.2844,3.8135,9.4196,9.6482,-1.1587,3.3225,2.8667,-2.7709,3.9623,5.7734,6.9441,8.6132,5.3981,10.1388,5.1918,6.6336,10.487,5.2482,4.735,-10.9521
1.5834,2.648,0.1322,3.0265,4.8567,3.5777,6.2523,2.6328,2.685,6.0691,2.1198,3.598,8.9952,9.2187,-1.2897,3.0972,2.8095,-2.7093,3.7869,5.3103,6.4637,8.2546,5.2057,9.7008,4.9867,6.2869,10.3106,4.8808,4.5997,-10.6173
1.2823,2.2894,-0.1372,2.6779,4.4999,3.3084,5.9721,2.447,2.548,5.7049,1.9514,3.4275,8.4762,8.6856,-1.5142,2.7951,2.6356,-2.7114,3.5255,4.7709,5.9049,7.7939,4.9429,9.2196,4.7694,5.9486,10.0775,4.5421,4.5006,-10.2059
0.9159,1.9071,-0.4431,2.2734,4.1139,2.9631,5.6198,2.187,2.3664,5.3111,1.7824,3.2993,7.8811,8.0783,-1.8105,2.4354,2.3708,-2.7672,3.1972,4.1922,5.303,7.2619,4.6305,8.723,4.549,5.644,9.7891,4.2552,4.445,-9.7269
0.5167,1.5362,-0.7493,1.8422,3.7271,2.5761,5.2107,1.8689,2.1424,4.9098,1.6187,3.2066,7.2407,7.4372,-2.1455,2.0513,2.0558,-2.8586,2.8321,3.6182,4.7005,6.7019,4.2974,8.2418,4.3364,5.3933,9.4551,4.0383,4.4357,-9.2046
0.125,1.2097,-1.0204,1.4184,3.3669,2.1871,4.7701,1.5167,1.8843,4.5262,1.4697,3.142,6.5976,6.8103,-2.4784,1.6854,1.738,-2.9616,2.4687,3.0942,4.1427,6.1636,3.9768,7.8076,4.1438,5.2099,9.0948,3.9035,4.4708,-8.6722
-0.2155,0.9545,-1.2268,1.0366,3.0567,1.8334,4.3311,1.1597,1.607,4.1856,1.3467,3.0993,6.0016,6.2466,-2.766,1.3829,1.4635,-3.0496,2.1485,2.6613,3.6721,5.6968,3.7026,7.4508,3.9838,5.1004,8.7358,3.8561,4.5422,-8.1626
-0.4631,0.7886,-1.3481,0.7268,2.8133,1.5442,3.9301,0.8295,1.3312,3.9116,1.2614,3.077,5.5033,5.7893,-2.9687,1.1834,1.2701,-3.0972,1.9103,2.3512,3.3225,5.3429,3.5044,7.1966,3.8681,5.0646,8.4111,3.8947,4.637,-7.699
-0.5851,0.7194,-1.3762,0.5104,2.6456,1.3358,3.6025,0.5555,1.0814,3.7234,1.2247,3.0789,5.146,5.4696,-3.0575,1.1133,1.1812,-3.0854,1.7833,2.1819,3.1147,5.1284,3.4027,7.0625,3.8052,5.0969,8.1536,4.0126,4.7382,-7.2908
-0.5638,0.7427,-1.3154,0.3973,2.5535,1.2096,3.3768,0.361,0.8831,3.6337,1.244,3.1137,4.9576,5.3015,-3.0187,1.1797,1.203,-3.0056,1.7815,2.1546,3.0531,5.0608,3.4053,7.0548,3.7991,5.1876,7.9897,4.1981,4.8262,-6.9332
-0.4007,0.8439,-1.1815,0.3849,2.5285,1.1543,3.2689,0.2587,0.7581,3.6465,1.3216,3.1911,4.9454,5.2797,-2.8573,1.3679,1.3235,-2.8627,1.8997,2.254,3.1245,5.1272,3.5058,7.1661,3.8476,5.3235,7.9342,4.4354,4.8822,-6.6116
-0.1168,1.0007,-0.9995,0.4592,2.5547,1.149,3.2791,0.2489,0.7194,3.7559,1.4526,3.3184,5.094,5.3807,-2.5955,1.6441,1.5157,-2.675,2.113,2.4495,3.3001,5.2969,3.6842,7.3753,3.9416,5.489,7.9859,4.7047,4.891,-6.3082
0.2502,1.1871,-0.7989,0.5981,2.6123,1.1703,3.3915,0.3184,0.7672,3.9453,1.6242,3.4955,5.3677,5.5672,-2.2683,1.962,1.7429,-2.471,2.3807,2.7013,3.5405,5.5277,3.9097,7.6492,4.0654,5.666,8.1275,4.9826,4.8445,-6.0099
0.6527,1.3782,-0.6075,0.7756,2.6819,1.1978,3.5771,0.4438,0.8878,4.1896,1.8167,3.713,5.7175,5.7957,-1.9159,2.2727,1.9663,-2.2833,2.6543,2.9663,3.8018,5.7725,4.1461,7.9477,4.198,5.8347,8.3286,5.2444,4.7435,-5.714
1.0408,1.5545,-0.4467,0.9667,2.7486,1.2197,3.7998,0.5959,1.055,4.4587,2.0062,3.9511,6.0889,6.0235,-1.5767,2.5351,2.1529,-2.141,2.8868,3.2061,4.0433,5.9879,4.3577,8.2291,4.3161,5.9753,8.5509,5.4657,4.598,-5.4304
1.3714,1.7046,-0.3273,1.1509,2.8049,1.2344,4.0232,0.7455,1.235,4.7208,2.1673,4.1822,6.4309,6.2161,-1.28,2.7241,2.2816,-2.0624,3.0421,3.3916,4.233,6.14,4.5157,8.4569,4.3978,6.0697,8.7557,5.6257,4.4249,-5.1795
1.6148,1.8259,-0.2481,1.3141,2.852,1.249,4.2162,0.8688,1.3919,4.9464,2.277,4.3743,6.7024,6.3514,-1.0419,2.8341,2.347,-2.0504,3.1022,3.5071,4.3514,6.2091,4.6035,8.6048,4.4259,6.104,8.91,5.7089,4.2433,-4.9871
1.7585,1.9242,-0.1972,1.4501,2.8976,1.2758,4.3573,0.9507,1.4937,5.1111,2.3176,4.4968,6.8762,6.4211,-0.8638,2.8787,2.3595,-2.0902,3.0701,3.5503,4.3937,6.1918,4.6187,8.6593,4.3911,6.0703,8.9913,5.7063,4.0702,-4.8786
1.8078,2.0107,-0.1565,1.5597,2.9525,1.3264,4.4354,0.9859,1.5176,5.197,2.2779,4.5257,6.9399,6.4298,-0.7331,2.8841,2.3425,-2.1508,2.9684,3.5313,4.3677,6.1012,4.5738,8.6202,4.2932,5.968,8.9897,5.6159,3.9153,-4.8736
1.7827,2.099,-0.1062,1.6493,3.0266,1.4072,4.4494,0.9781,1.4534,5.1947,2.155,4.4488,6.8944,6.3909,-0.6267,2.8817,2.3263,-2.1907,2.8343,3.469,4.2916,5.9639,4.4923,8.4983,4.1409,5.8037,8.9069,5.4415,3.7795,-4.9832
1.7124,2.2023,-0.0297,1.729,3.1251,1.5161,4.4074,0.9379,1.3049,5.1042,1.9542,4.2691,6.7515,6.3224,-0.5159,2.8988,2.3411,-2.1656,2.7114,3.3868,4.1898,5.8155,4.4038,8.3127,3.9501,5.5905,8.7541,5.1929,3.6551,-5.2079
1.6291,2.3304,0.0828,1.8107,3.2476,1.6426,4.3242,0.8802,1.0889,4.9361,1.6897,4.007,6.5312,6.2428,-0.3724,2.9533,2.4098,-2.038,2.6408,3.3083,4.0888,5.6936,4.3376,8.0861,3.7408,5.3458,8.5491,4.885,3.5287,-5.5386
1.5626,2.488,0.2323,1.9057,3.3884,1.7704,4.2191,0.8209,0.8329,4.7117,1.3832,3.6983,6.2584,6.1675,-0.1733,3.0507,2.5434,-1.7851,2.6528,3.2532,4.0125,5.6307,4.3167,7.8418,3.5333,5.0894,8.3128,4.5386,3.3861,-5.9585
1.5349,2.6734,0.4109,2.0215,3.5385,1.881,4.1127,0.7738,0.5706,4.4605,1.0626,3.3896,5.9606,6.1064,0.0939,3.1853,2.739,-1.4049,2.7606,3.2339,3.9782,5.6469,4.354,7.5994,3.3454,4.8414,8.0671,4.1799,3.2157,-6.4454
1.5575,2.8776,0.603,2.1595,3.687,1.9586,4.023,0.7486,0.3368,4.2161,0.7588,3.1303,5.6647,6.0629,0.4286,3.3419,2.9806,-0.9167,2.9582,3.2533,3.9928,5.7458,4.4497,7.3736,3.1895,4.6201,7.8323,3.8389,3.0116,-6.9748
1.6292,3.0854,0.7895,2.3133,3.8236,1.9929,3.9629,0.7487,0.1624,4.0106,0.5015,2.9632,5.3942,6.0335,0.8158,3.5003,3.2437,-0.3582,3.2219,3.3047,4.0503,5.9143,4.5926,7.1726,3.072,4.4408,7.6254,3.547,2.7732,-7.5212
1.738,3.2766,0.9514,2.4688,3.9394,1.9818,3.938,0.7715,0.0704,3.8685,0.3142,2.9157,5.1663,6.0091,1.2272,3.6379,3.5002,0.2222,3.5159,3.3733,4.1327,6.1257,4.7634,6.9994,2.9936,4.3145,7.4591,3.3327,2.5037,-8.0594
1.8643,3.4303,1.0748,2.6073,4.0278,1.9312,3.9461,0.8096,0.0723,3.8019,0.2101,2.9938,4.991,5.9784,1.6267,3.7344,3.7245,0.7743,3.8012,3.4398,4.2134,6.3462,4.9387,6.8536,2.9499,4.2471,7.3416,3.2173,2.2081,-8.5664
1.9858,3.5288,1.153,2.7101,4.0849,1.8524,3.9778,0.8526,0.1668,3.8078,0.1882,3.1804,4.8703,5.9306,1.9763,3.7744,3.8982,1.2559,4.044,3.4855,4.2644,6.5435,5.0965,6.7332,2.9334,4.2387,7.2759,3.2098,1.8903,-9.0228
2.0832,3.5613,1.187,2.7629,4.1088,1.7582,4.0176,0.8892,0.3398,3.8681,0.2325,3.4379,4.8001,5.8586,2.2449,3.7509,4.0131,1.6393,4.2233,3.4974,4.2629,6.6929,5.2202,6.6362,2.9346,4.2832,7.2602,3.3033,1.5522,-9.4149
2.144,3.5256,1.1835,2.7598,4.0995,1.6595,4.0472,0.9094,0.5669,3.9529,0.3144,3.7151,4.7716,5.7609,2.4146,3.6672,4.0706,1.914,4.3335,3.4714,4.198,6.7824,5.3011,6.5609,2.9438,4.3682,7.2882,3.4748,1.1938,-9.7364
2.1651,3.4285,1.1521,2.7042,4.0579,1.563,4.048,0.9057,0.8179,4.0269,0.3987,3.9571,4.7748,5.6417,2.4844,3.5365,4.0797,2.0856,4.3838,3.4138,4.0726,6.8128,5.3387,6.5059,2.9519,4.4763,7.3499,3.6872,0.8145,-9.9888
2.1523,3.2836,1.1025,2.6081,3.9871,1.4719,4.006,0.875,1.0625,4.0569,0.4514,4.1161,4.8006,5.5095,2.4698,3.3809,4.0535,2.1708,4.3939,3.3392,3.9022,6.796,5.3395,6.4683,2.951,4.587,7.4323,3.8961,0.4158,-10.1794
2.1192,3.11,1.0436,2.49,3.8926,1.3882,3.9155,0.8192,1.2749,4.0202,0.4489,4.1613,4.8425,5.3753,2.3996,3.2284,4.006,2.1918,4.388,3.2671,3.7107,6.7507,5.3153,6.4446,2.9353,4.6796,7.5218,4.058,0.004,-10.3186
2.0846,2.9299,0.9832,2.3728,3.7841,1.3163,3.7829,0.7454,1.4388,3.9107,0.3844,4.0858,4.8978,5.2513,2.3097,3.1086,3.9501,2.1714,4.3895,3.2172,3.5254,6.6988,5.2809,6.4299,2.9011,4.7369,7.6058,4.1389,-0.4071,-10.416
2.0693,2.7673,0.9291,2.2817,3.6771,1.2664,3.6276,0.6653,1.5492,3.7418,0.2705,3.9079,4.9682,5.1502,2.2363,3.0485,3.8965,2.1298,4.4166,3.2063,3.3725,6.6618,5.252,6.4204,2.8476,4.7475,7.6748,4.1219,-0.7948,-10.477
2.0928,2.6464,0.8911,2.2428,3.5926,1.2555,3.48,0.5944,1.6132,3.5448,0.1376,3.6672,5.0593,5.0845,2.2085,3.0685,3.8538,2.0834,4.4803,3.2456,3.2741,6.6584,5.2433,6.4139,2.7763,4.7083,7.7228,4.0095,-1.1295,-10.502
2.1698,2.5898,0.881,2.2803,3.5545,1.3048,3.3761,0.5493,1.6469,3.3623,0.0258,3.4144,5.1785,5.0652,2.2426,3.179,3.8281,2.0441,4.5829,3.3398,3.2459,6.7013,5.2656,6.4107,2.6903,4.6237,7.7476,3.8223,-1.3795,-10.4862
2.3064,2.6149,0.9111,2.4119,3.5851,1.4348,3.3494,0.5446,1.6707,3.2386,-0.0242,3.2001,5.3317,5.099,2.3386,3.378,3.8224,2.0192,4.7183,3.4861,3.2949,6.795,5.3233,6.4126,2.5929,4.5036,7.7481,3.5933,-1.518,-10.4221
2.4974,2.7307,0.9912,2.6447,3.699,1.6575,3.4221,0.5892,1.7028,3.209,0.0176,3.0629,5.5201,5.1859,2.4798,3.6505,3.8357,2.0108,4.8729,3.6741,3.4184,6.9333,5.4125,6.4211,2.4865,4.3608,7.7235,3.3599,-1.5299,-10.303
2.7261,2.9352,1.1239,2.9701,3.8976,1.97,3.5986,0.6838,1.7544,3.2908,0.1631,3.0224,5.7373,5.3168,2.6367,3.9703,3.863,2.0157,5.0277,3.8871,3.6035,7.0998,5.5216,6.4364,2.3729,4.2084,7.6719,3.1567,-1.416,-10.1262
2.9661,3.2138,1.3018,3.3631,4.1664,2.3513,3.8633,0.8191,1.8275,3.4791,0.4027,3.0773,5.9697,5.4747,2.7727,4.3033,3.8964,2.0269,5.1621,4.1036,3.8286,7.2713,5.6341,6.457,2.2542,4.0587,7.5914,3.0093,-1.1933,-9.895
3.1861,3.5402,1.5066,3.7839,4.4763,2.7642,4.1827,0.9769,1.9151,3.7477,0.707,3.2082,6.1985,5.6369,2.8533,4.6137,3.9274,2.0348,5.2584,4.3016,4.0666,7.4239,5.7336,6.4811,2.1359,3.9224,7.482,2.9325,-0.892,-9.6203
3.3567,3.88,1.7108,4.1841,4.7887,3.1621,4.5119,1.1338,2.0033,4.0548,1.0332,3.3838,6.4044,5.7796,2.8543,4.8695,3.9498,2.0312,5.3059,4.4612,4.2895,7.5397,5.8092,6.5077,2.0276,3.8095,7.3478,2.929,-0.5497,-9.3186
3.4562,4.1957,1.8832,4.5145,5.0625,3.4985,4.8035,1.2654,2.0752,4.3518,1.3334,3.5687,6.5707,5.8823,2.7681,5.0469,3.962,2.0119,5.3039,4.5677,4.4728,7.612,5.8589,6.538,1.9437,3.7291,7.1986,2.992,-0.2061,-9.0098
3.4755,4.4513,1.9946,4.7332,5.2622,3.7369,5.0156,1.3522,2.1138,4.5917,1.5639,3.7304,6.6864,5.9313,2.6063,5.1326,3.968,1.9795,5.2616,4.6126,4.5985,7.6464,5.8907,6.5746,1.9006,3.6884,7.0484,3.1068,0.1022,-8.7131
3.4194,4.6186,2.0248,4.8131,5.3641,3.8582,5.1192,1.3836,2.1049,4.7378,1.6928,3.8442,6.7467,5.9205,2.3968,5.1232,3.9759,1.9436,5.1955,4.5926,4.657,7.6588,5.9203,6.6202,1.9123,3.6915,6.9125,3.2544,0.3448,-8.4432
3.3048,4.6808,1.9676,4.7465,5.3598,3.8642,5.1026,1.3591,2.0402,4.7689,1.7053,3.8972,6.7527,5.8512,2.1775,5.0234,3.9956,1.9204,5.1248,4.509,4.6469,7.6695,5.9665,6.6754,1.9855,3.7373,6.8033,3.414,0.4996,-8.2082
3.1573,4.6359,1.8329,4.5472,5.2568,3.776,4.9724,1.288,1.9191,4.6823,1.6063,3.8894,6.7098,5.7308,1.9877,4.8441,4.0356,1.9284,5.0664,4.3669,4.5748,7.6965,6.0457,6.7373,2.1156,3.8195,6.7262,3.5665,0.5539,-8.0094
3.0045,4.4975,1.6455,4.2483,5.0754,3.6279,4.7509,1.1856,1.7503,4.4929,1.4187,3.8332,6.627,5.5707,1.8594,4.6019,4.1014,1.9852,5.0307,4.1751,4.4526,7.75,6.1681,6.7991,2.2866,3.9265,6.6784,3.697,0.5069,-7.8423
2.8706,4.2923,1.44,3.8966,4.8436,3.4582,4.4709,1.0687,1.5512,4.2294,1.1795,3.7504,6.5147,5.3836,1.8116,4.3178,4.1934,2.1014,5.0194,3.9461,4.295,7.8287,6.3343,6.8512,2.473,4.0435,6.6491,3.7965,0.3697,-7.6989
2.7709,4.0551,1.2534,3.5433,4.5902,3.2991,4.1682,0.9502,1.3443,3.9268,0.9313,3.6668,6.3832,5.1804,1.8467,4.0174,4.3068,2.2773,5.0249,3.6948,4.1155,7.9193,6.5346,6.8829,2.6452,4.1549,6.6219,3.8619,0.1654,-7.5688
2.7088,3.8211,1.1167,3.2333,4.3382,3.1683,3.873,0.8352,1.1519,3.618,0.7133,3.6052,6.2399,4.9687,1.9513,3.7278,4.4312,2.5013,5.0329,3.4367,3.9239,7.9992,6.7508,6.8838,2.7752,4.2462,6.5778,3.8943,-0.0749,-7.4406
2.6763,3.618,1.0472,2.9953,4.1001,3.064,3.6037,0.7191,0.9911,3.3267,0.5519,3.5781,6.0875,4.7506,2.0999,3.4746,4.5518,2.7509,5.0252,3.185,3.7242,8.0416,6.9592,6.8454,2.8424,4.3055,6.4985,3.8966,-0.3177,-7.3035
2.6572,3.4602,1.0448,2.8358,3.8757,2.9665,3.3634,0.5883,0.8686,3.0619,0.4552,3.5836,5.9225,4.524,2.2605,3.2763,4.6509,2.9977,4.9845,2.9482,3.5154,8.0224,7.1352,6.7635,2.8366,4.3244,6.3703,3.8712,-0.5346,-7.148
2.6319,3.346,1.0917,2.7381,3.6544,2.8437,3.1413,0.4252,0.78,2.8187,0.4117,3.6057,5.7361,4.2837,2.401,3.1404,4.7112,3.213,4.8987,2.7285,3.2935,7.9262,7.2582,6.6381,2.7596,4.2982,6.1866,3.8195,-0.7082,-6.9683
2.5837,3.2592,1.1576,2.668,3.42,2.6615,2.9174,0.2145,0.7115,2.5824,0.3948,3.6183,5.5167,4.0247,2.4949,3.0612,4.7184,3.3737,4.7638,2.5219,3.0543,7.7505,7.3147,6.4746,2.623,4.2263,5.9508,3.7432,-0.836,-6.7642
2.5022,3.1738,1.2065,2.5819,3.1567,2.3942,2.6702,-0.0499,0.645,2.3361,0.3714,3.593,5.2536,3.7438,2.5259,3.0204,4.6646,3.4672,4.585,2.3198,2.7956,7.5059,7.3003,6.2832,2.4447,4.1128,5.6768,3.6458,-0.93,-6.5429
2.3857,3.0614,1.206,2.4385,2.8546,2.0334,2.3851,-0.3604,0.5647,2.0683,0.3124,3.5073,4.9417,3.4419,2.4901,2.991,4.5501,3.4933,4.375,2.1116,2.5181,7.2133,7.219,6.0767,2.2449,3.9658,5.3881,3.5351,-1.0137,-6.3182
2.2405,2.8989,1.1344,2.2089,2.5137,1.592,2.0594,-0.6958,0.462,1.7785,0.201,3.3511,4.5846,3.124,2.3969,2.9438,4.3839,3.4645,4.1515,1.8876,2.2259,6.8984,7.0811,5.869,2.0417,3.7974,5.1144,3.4229,-1.1153,-6.1082
2.0793,2.6744,0.9855,1.8834,2.1451,1.1022,1.7056,-1.0251,0.3378,1.4793,0.0378,3.1297,4.1967,2.7984,2.2668,2.8541,4.1824,3.4031,3.9337,1.6427,1.9253,6.5852,6.9004,5.6714,1.8486,3.622,4.8874,3.3236,-1.2602,-5.9312
1.9183,2.3918,0.7703,1.4756,1.7691,0.6097,1.3484,-1.3147,0.201,1.1938,-0.16,2.8634,3.8024,2.4762,2.1279,2.7088,3.9673,3.3377,3.7396,1.379,1.6249,6.2911,6.6929,5.4911,1.6738,3.4543,4.7358,3.2514,-1.4634,-5.8008
1.7753,2.0714,0.5147,1.0202,1.4127,0.1641,1.0204,-1.5361,0.065,0.951,-0.3632,2.583,3.4328,2.1703,2.0116,2.5113,3.7625,3.2985,3.5845,1.1088,1.3357,6.0255,6.4747,5.3304,1.5208,3.307,4.6805,3.2167,-1.7248,-5.7221
1.6686,1.7478,0.255,0.5671,1.1054,-0.1914,0.7541,-1.6714,-0.0576,0.7784,-0.5379,2.3237,3.1205,1.8952,1.9474,2.2819,3.5922,3.3132,3.4802,0.8549,1.0715,5.7918,6.2631,5.187,1.3906,3.1889,4.7315,3.2233,-2.0279,-5.691
1.615,1.4634,0.0314,0.1719,0.8744,-0.4279,0.5754,-1.7162,-0.1583,0.6957,-0.6542,2.1175,2.8936,1.666,1.9585,2.0557,3.4786,3.4018,3.4351,0.6482,0.8491,5.5908,6.0754,5.0563,1.283,3.1038,4.8861,3.2678,-2.3427,-5.6956
1.6274,1.2603,-0.1205,-0.1157,0.7393,-0.5357,0.4973,-1.6794,-0.2355,0.7091,-0.6939,1.987,2.7695,1.4965,2.0569,1.8743,3.4388,3.5725,3.4531,0.522,0.6856,5.4245,5.9285,4.9338,1.1979,3.0506,5.1288,3.3392,-2.6324,-5.7197
1.7108,1.1692,-0.1774,-0.2633,0.7072,-0.5255,0.5169,-1.5805,-0.2943,0.8091,-0.6554,1.9407,2.7502,1.3956,2.2398,1.776,3.4822,3.8181,3.5323,0.5027,0.5936,5.298,5.8361,4.816,1.1354,3.0243,5.433,3.4217,-2.8619,-5.747
1.8583,1.2009,-0.1344,-0.2645,0.7685,-0.4257,0.6146,-1.4465,-0.3442,0.9709,-0.5552,1.9713,2.8209,1.3632,2.4881,1.7841,3.607,4.1154,3.663,0.6003,0.5758,5.217,5.8054,4.7023,1.0955,3.0184,5.7642,3.4971,-3.0059,-5.7655
2.0483,1.3403,-0.0081,-0.1421,0.896,-0.2779,0.7578,-1.3073,-0.396,1.1577,-0.4252,2.0575,2.9514,1.3875,2.7671,1.8984,3.7974,4.4269,3.8262,0.8014,0.6196,5.1845,5.8344,4.5938,1.0763,3.0257,6.0845,3.5478,-3.0549,-5.7693
2.2453,1.5471,0.1656,0.0548,1.0483,-0.1302,0.9063,-1.1924,-0.4582,1.3268,-0.3064,2.1692,3.1009,1.4443,3.0311,2.0923,4.0226,4.707,3.9941,1.0672,0.6963,5.1966,5.9101,4.4919,1.0736,3.0402,6.3571,3.5596,-3.0163,-5.7602
2.4036,1.7614,0.3375,0.2597,1.1758,-0.0301,1.0183,-1.1271,-0.5353,1.4363,-0.2392,2.2725,3.2236,1.4994,3.2307,2.316,4.24,4.9091,4.1325,1.3384,0.7631,5.2392,6.0092,4.3958,1.0801,3.056,6.5508,3.5228,-2.9129,-5.7454
2.4754,1.9157,0.4552,0.402,1.2298,-0.0174,1.0569,-1.1301,-0.6281,1.4522,-0.2555,2.3359,3.2752,1.5123,3.3215,2.5061,4.4001,4.995,4.2056,1.5452,0.7705,5.2878,6.1006,4.2996,1.0855,3.0671,6.642,3.4329,-2.7779,-5.7346
2.4199,1.9482,0.473,0.4208,1.171,-0.1179,0.9944,-1.2113,-0.7356,1.353,-0.3709,2.3344,3.2194,1.4428,3.2724,2.5993,4.4561,4.941,4.1814,1.6212,0.6717,5.3099,6.1506,4.1917,1.0779,3.0659,6.6168,3.2898,-2.649,-5.7335
2.2126,1.8161,0.3617,0.2776,0.9775,-0.3391,0.8157,-1.371,-0.8565,1.1329,-0.5818,2.2528,3.0325,1.2577,3.0709,2.5459,4.3734,4.743,4.0376,1.5182,0.4327,5.2699,6.1285,4.055,1.0454,3.0436,6.4707,3.0974,-2.5618,-5.7392
1.8523,1.5057,0.1156,-0.0362,0.6489,-0.6687,0.5201,-1.5989,-0.9902,0.8027,-0.8668,2.0871,2.7077,0.9382,2.7268,2.3221,4.1391,4.4174,3.7673,1.2176,0.0422,5.1373,6.0132,3.8711,0.9794,2.9908,6.21,2.8631,-2.5444,-5.7376
1.364,1.0366,-0.2457,-0.4957,0.2074,-1.0751,0.1219,-1.8752,-1.1355,0.3882,-1.1906,1.8459,2.2582,0.4865,2.2705,1.9375,3.7679,3.9993,3.3825,0.7368,-0.4829,4.8945,5.7983,3.6264,0.8768,2.9005,5.8512,2.5977,-2.6118,-5.7057
0.7977,0.46,-0.6794,-1.0472,-0.3046,-1.5116,-0.3497,-2.1715,-1.2897,-0.0715,-1.5113,1.5504,1.7177,-0.0701,1.7496,1.4357,3.3024,3.5369,2.9152,0.1284,-1.0963,4.5444,5.4961,3.3184,0.7434,2.7716,5.4223,2.3165,-2.7627,-5.6193
0.2211,-0.1501,-1.1281,-1.6176,-0.8312,-1.924,-0.8522,-2.4548,-1.4465,-0.5288,-1.7876,1.233,1.1373,-0.6794,1.2219,0.8885,2.8073,3.085,2.4147,-0.5283,-1.7286,4.1137,5.1373,2.9605,0.5945,2.6121,4.9609,2.0391,-2.9777,-5.4623
-0.2916,-0.7111,-1.5307,-2.129,-1.3113,-2.2604,-1.3347,-2.6915,-1.5962,-0.933,-1.9847,0.9333,0.5804,-1.271,0.7467,0.3829,2.3574,2.6954,1.9411,-1.1416,-2.2988,3.6507,4.7671,2.583,0.4534,2.4396,4.5122,1.7885,-3.2219,-5.2359
-0.6731,-1.1479,-1.8349,-2.5141,-1.6896,-2.4803,-1.7443,-2.8536,-1.7272,-1.2374,-2.0795,0.6917,0.1125,-1.7676,0.3758,0.0049,2.0231,2.4088,1.5549,-1.6249,-2.7294,3.2173,4.438,2.2292,0.3481,2.2791,4.1231,1.5888,-3.4505,-4.9615
-0.8756,-1.4082,-2.0079,-2.7289,-1.9247,-2.562,-2.0349,-2.9236,-1.8283,-1.4066,-2.0637,0.5417,-0.2084,-2.0996,0.146,-0.1776,1.8559,2.248,1.3065,-1.9136,-2.9619,2.8768,4.1995,1.9478,0.3053,2.1577,3.8353,1.4608,-3.6184,-4.6785
-0.879,-1.4718,-2.0413,-2.7587,-1.9963,-2.5062,-2.1753,-2.8975,-1.8923,-1.4226,-1.9442,0.5025,-0.342,-2.2188,0.0743,-0.1285,1.8786,2.2142,1.2268,-1.976,-2.9683,2.6813,4.0891,1.783,0.3445,2.0988,3.6791,1.418,-3.6903,-4.4351
-0.6934,-1.3517,-1.9508,-2.6172,-1.9064,-2.3334,-2.1544,-2.786,-1.9184,-1.2878,-1.7419,0.5746,-0.2725,-2.1082,0.1566,0.1505,2.0816,2.2881,1.3212,-1.8179,-2.7548,2.6612,4.1252,1.7658,0.4736,2.1167,3.6678,1.4641,-3.6489,-4.2768
-0.3553,-1.0882,-1.7703,-2.3396,-1.6774,-2.0787,-1.9836,-2.6117,-1.9128,-1.025,-1.4878,0.7404,-0.0107,-1.7852,0.3701,0.6221,2.4272,2.435,1.5692,-1.4769,-2.3593,2.8197,4.304,1.9074,0.6865,2.2135,3.7971,1.5924,-3.499,-4.2348
0.0816,-0.7368,-1.5422,-1.9717,-1.346,-1.7828,-1.6934,-2.4042,-1.8871,-0.6726,-1.2173,0.9677,0.4083,-1.2967,0.6783,1.2234,2.8586,2.6133,1.9295,-1.0121,-1.8415,3.1334,4.6006,2.1961,0.9636,2.3792,4.0458,1.7866,-3.2656,-4.3177
0.5581,-0.3548,-1.3076,-1.5601,-0.9565,-1.4841,-1.3284,-2.1948,-1.8555,-0.2785,-0.9636,1.2175,0.9311,-0.7105,1.0371,1.8799,3.3122,2.7826,2.3477,-0.4894,-1.2697,3.5579,4.9741,2.599,1.2751,2.5939,4.3796,2.024,-2.9877,-4.5087
1.0199,0.0097,-1.0984,-1.1443,-0.5536,-1.2124,-0.9398,-2.0113,-1.8313,0.1078,-0.7531,1.4515,1.4935,-0.1022,1.4015,2.5199,3.7298,2.9117,2.7669,0.0309,-0.709,4.036,5.375,3.0668,1.5856,2.8313,4.7563,2.2784,-2.7091,-4.7685
1.4255,0.3238,-0.9345,-0.7554,-0.1785,-0.9869,-0.5776,-1.8746,-1.8245,0.4412,-0.6028,1.6381,2.029,0.456,1.7309,3.0837,4.0666,2.9821,3.1359,0.5021,-0.2119,4.5068,5.7533,3.5405,1.859,3.0623,5.1303,2.5223,-2.4708,-5.0437
1.7495,0.5691,-0.8251,-0.4173,0.1341,-0.8175,-0.2847,-1.7974,-1.8412,0.6868,-0.5208,1.7566,2.4759,0.9049,1.9937,3.5275,4.2946,2.989,3.4155,0.8933,0.1841,4.9135,6.0658,3.96,2.0632,3.2593,5.4582,2.7293,-2.3046,-5.2788
1.9815,0.7378,-0.7728,-0.1514,0.3565,-0.7081,-0.0917,-1.7841,-1.8844,0.8226,-0.5078,1.7975,2.7837,1.2039,2.1699,3.8228,4.4016,2.9395,3.5809,1.187,0.4563,5.2085,6.2806,4.2721,2.1736,3.3985,5.7032,2.8765,-2.2316,-5.4282
2.1236,0.8274,-0.7774,0.022,0.4693,-0.66,-0.0147,-1.8309,-1.955,0.8408,-0.5602,1.7619,2.9173,1.3329,2.2516,3.9535,4.3869,2.8483,3.6216,1.3745,0.5929,5.3571,6.3801,4.4378,2.1757,3.4632,5.8387,2.9461,-2.262,-5.4647
2.1855,0.8371,-0.8395,0.0832,0.4617,-0.6732,-0.0543,-1.9274,-2.0527,0.7473,-0.672,1.6587,2.8599,1.2912,2.2419,3.913,4.2575,2.7328,3.5391,1.4524,0.5901,5.3396,6.361,4.4366,2.0661,3.4451,5.8511,2.9282,-2.3977,-5.3829
2.1814,0.7669,-0.9597,0.0181,0.3329,-0.7468,-0.1976,-2.0587,-2.1764,0.5588,-0.8356,1.502,2.6144,1.0947,2.1527,3.7046,4.0246,2.609,3.3449,1.4219,0.4508,5.1527,6.2324,4.2686,1.8527,3.3455,5.7411,2.8219,-2.6332,-5.1964
2.1272,0.6203,-1.1368,-0.1761,0.0934,-0.8771,-0.4223,-2.2089,-2.3238,0.2992,-1.0424,1.3075,2.2022,0.7719,2.0012,3.3425,3.7037,2.4885,3.0577,1.29,0.1867,4.8103,6.0132,3.9528,1.5524,3.174,5.5223,2.6358,-2.9567,-4.9316
2.04,0.4079,-1.3644,-0.4857,-0.2355,-1.0556,-0.7009,-2.3642,-2.4909,-0.0053,-1.2817,1.0911,1.6605,0.3591,1.8075,2.8546,3.3148,2.3776,2.7022,1.0735,-0.1798,4.3422,5.729,3.5233,1.1886,2.9471,5.2193,2.3867,-3.3497,-4.6191
1.9379,0.1497,-1.6287,-0.8793,-0.6229,-1.2676,-1.0059,-2.5153,-2.672,-0.3297,-1.541,0.8667,1.0373,-0.1031,1.5925,2.2832,2.8837,2.2784,2.3072,0.8001,-0.6143,3.7918,5.4086,3.0234,0.788,2.686,4.864,2.0974,-3.7875,-4.2867
1.8387,-0.1258,-1.9089,-1.3115,-1.0322,-1.4926,-1.3127,-2.6578,-2.8589,-0.6527,-1.8061,0.6459,0.3862,-0.5741,1.3763,1.6813,2.4408,2.19,1.9032,0.5069,-1.0728,3.2103,5.0808,2.4994,0.3772,2.4132,4.491,1.7931,-4.2406,-3.9559
