time	FP1	F3	F7	FC3	C3	C5	P3	P7	PO7	PO3	O1	Oz	Pz	CPz	FP2	Fz	F4	F8	FC4	FCz	Cz	C4	C6	P4	P8	PO8	PO4	O2	HEOG_left	HEOG_right
-199.2188	0.0287	-0.2158	0.2144	-0.2165	-0.2616	-0.3061	-0.209	-0.1045	-0.0813	0.0144	-0.1523	-0.4175	-0.1381	-0.1633	-0.3581	-0.4945	-0.1157	0.1419	0.0888	-0.4298	-0.3701	0.0121	0.3854	0.2847	0.6903	0.2499	0.1759	-0.1859	0.1188	0.0636
-195.3125	-0.1138	-0.3558	0.0282	-0.3413	-0.3848	-0.3271	-0.2509	-0.1043	-0.1003	-0.045	-0.1661	-0.4611	-0.2369	-0.2909	-0.418	-0.5907	-0.1962	0.0883	0.0043	-0.5654	-0.509	-0.0579	0.2582	0.1672	0.4257	0.0907	0.0784	-0.2157	0.0302	-0.0108
-191.4062	-0.2395	-0.4769	-0.1374	-0.449	-0.4892	-0.3429	-0.2852	-0.102	-0.1137	-0.0942	-0.179	-0.4919	-0.322	-0.404	-0.4672	-0.6711	-0.2666	0.0372	-0.0707	-0.6826	-0.6291	-0.1203	0.1442	0.0592	0.1786	-0.0551	-0.0101	-0.2409	-0.053	-0.0766
-187.5	-0.3356	-0.5651	-0.2661	-0.5269	-0.561	-0.3481	-0.3078	-0.0972	-0.1191	-0.1268	-0.1911	-0.5014	-0.384	-0.4918	-0.499	-0.7247	-0.3193	-0.0102	-0.13	-0.7682	-0.7167	-0.1695	0.0541	-0.0325	-0.0359	-0.1767	-0.0845	-0.26	-0.1253	-0.1276
-183.5938	-0.3951	-0.6126	-0.3473	-0.5679	-0.5929	-0.3397	-0.3177	-0.0894	-0.117	-0.1412	-0.2033	-0.4857	-0.4188	-0.5488	-0.5103	-0.746	-0.3501	-0.0533	-0.1705	-0.815	-0.7647	-0.203	-0.0072	-0.1045	-0.207	-0.2668	-0.1435	-0.2728	-0.1827	-0.1606
-179.6875	-0.4184	-0.6195	-0.3778	-0.5718	-0.5847	-0.3188	-0.3173	-0.0785	-0.1098	-0.1412	-0.2173	-0.4465	-0.4281	-0.5747	-0.5017	-0.7355	-0.3588	-0.092	-0.1933	-0.8234	-0.7736	-0.2213	-0.0416	-0.1569	-0.3298	-0.3223	-0.1891	-0.2811	-0.2229	-0.1755
-175.7812	-0.4119	-0.5924	-0.3615	-0.5445	-0.5434	-0.2896	-0.3114	-0.0647	-0.1017	-0.1345	-0.2347	-0.3898	-0.4179	-0.5743	-0.4774	-0.6994	-0.3494	-0.127	-0.2024	-0.7997	-0.7501	-0.2277	-0.0566	-0.1925	-0.405	-0.3451	-0.2256	-0.2876	-0.2457	-0.1758
-171.875	-0.3859	-0.5427	-0.3088	-0.4959	-0.4806	-0.2593	-0.3048	-0.0493	-0.0971	-0.1304	-0.2559	-0.3248	-0.3964	-0.555	-0.4433	-0.6475	-0.3286	-0.1592	-0.2037	-0.7548	-0.7052	-0.2267	-0.0626	-0.2154	-0.4386	-0.3416	-0.2576	-0.2948	-0.2525	-0.1669
-167.9688	-0.3519	-0.4832	-0.2344	-0.4375	-0.41	-0.2351	-0.3012	-0.0337	-0.099	-0.1368	-0.2798	-0.2609	-0.3716	-0.525	-0.4059	-0.5908	-0.3046	-0.1896	-0.2026	-0.7006	-0.6514	-0.2232	-0.0697	-0.2294	-0.4401	-0.3214	-0.2889	-0.3042	-0.2462	-0.1551
-164.0625	-0.319	-0.425	-0.154	-0.3794	-0.3441	-0.2229	-0.3017	-0.0196	-0.1081	-0.1572	-0.3027	-0.2056	-0.3496	-0.4915	-0.3704	-0.5386	-0.2847	-0.2183	-0.2033	-0.6475	-0.5996	-0.2209	-0.0842	-0.2369	-0.4204	-0.2949	-0.3204	-0.3154	-0.2304	-0.1457
-160.1562	-0.2925	-0.3753	-0.082	-0.3286	-0.2918	-0.225	-0.3052	-0.0082	-0.1229	-0.1897	-0.3199	-0.1629	-0.333	-0.4594	-0.3394	-0.4966	-0.2737	-0.2447	-0.2072	-0.602	-0.5567	-0.2215	-0.1075	-0.2387	-0.3898	-0.2714	-0.3503	-0.3259	-0.2087	-0.1419
-156.25	-0.2731	-0.3367	-0.0289	-0.2882	-0.2572	-0.2394	-0.3083	-0.0001	-0.1394	-0.227	-0.3262	-0.1325	-0.3215	-0.4306	-0.3132	-0.4661	-0.2732	-0.2672	-0.2138	-0.5662	-0.5255	-0.225	-0.1363	-0.2343	-0.3558	-0.2565	-0.3742	-0.3315	-0.1844	-0.144
-152.3438	-0.2577	-0.3073	0.0002	-0.2571	-0.2393	-0.2608	-0.3066	0.0053	-0.1527	-0.259	-0.3174	-0.1105	-0.3124	-0.405	-0.2897	-0.444	-0.2816	-0.2837	-0.221	-0.5379	-0.5045	-0.2303	-0.1656	-0.2225	-0.322	-0.252	-0.3864	-0.327	-0.1596	-0.1496
-148.4375	-0.2412	-0.2824	0.0055	-0.2314	-0.233	-0.2813	-0.2962	0.0089	-0.1581	-0.2751	-0.2917	-0.0908	-0.3017	-0.3814	-0.2656	-0.4249	-0.295	-0.2918	-0.2265	-0.5124	-0.4895	-0.2358	-0.1906	-0.2026	-0.2884	-0.2549	-0.381	-0.3078	-0.1351	-0.1548
-144.5312	-0.2184	-0.2563	-0.0078	-0.2062	-0.2311	-0.2926	-0.2744	0.0122	-0.1519	-0.2673	-0.2502	-0.0671	-0.2857	-0.358	-0.2374	-0.4028	-0.3086	-0.2898	-0.2292	-0.4846	-0.4756	-0.2405	-0.2088	-0.1748	-0.2523	-0.2593	-0.3539	-0.2702	-0.1108	-0.1547
-140.625	-0.1858	-0.2239	-0.0314	-0.1767	-0.2259	-0.2875	-0.2405	0.0162	-0.1319	-0.2321	-0.1965	-0.0348	-0.2623	-0.3337	-0.2033	-0.373	-0.3182	-0.2768	-0.2294	-0.451	-0.4587	-0.2445	-0.2207	-0.1408	-0.2103	-0.2578	-0.3037	-0.2136	-0.0852	-0.1458
-136.7188	-0.142	-0.1822	-0.0565	-0.1404	-0.2119	-0.2615	-0.196	0.0221	-0.0981	-0.1711	-0.1361	0.0076	-0.2311	-0.3084	-0.1631	-0.3334	-0.3209	-0.2532	-0.2288	-0.4107	-0.437	-0.2484	-0.2287	-0.1038	-0.1594	-0.244	-0.2332	-0.1405	-0.0564	-0.1259
-132.8125	-0.0888	-0.1311	-0.0753	-0.0969	-0.1866	-0.2144	-0.1441	0.0309	-0.0521	-0.0905	-0.0754	0.0575	-0.1937	-0.2826	-0.1191	-0.2849	-0.3155	-0.2209	-0.2297	-0.3654	-0.4103	-0.2536	-0.236	-0.0674	-0.099	-0.214	-0.1489	-0.0566	-0.0225	-0.0957
-128.9062	-0.0301	-0.0727	-0.083	-0.0493	-0.1514	-0.1498	-0.0892	0.0429	0.0026	0.0001	-0.02	0.1088	-0.1531	-0.2575	-0.0752	-0.2306	-0.3022	-0.1828	-0.2338	-0.3181	-0.3803	-0.2605	-0.2448	-0.0355	-0.0311	-0.1678	-0.0604	0.0294	0.0175	-0.0581
-125	0.0287	-0.0116	-0.0786	-0.0023	-0.1109	-0.0751	-0.036	0.0584	0.0611	0.0905	0.0259	0.1532	-0.1123	-0.2336	-0.0356	-0.1746	-0.2819	-0.1426	-0.2413	-0.2722	-0.3484	-0.2686	-0.2546	-0.0109	0.0397	-0.1094	0.0217	0.1079	0.0629	-0.0179
-121.0938	0.0817	0.0466	-0.0646	0.0383	-0.0713	0.0012	0.0113	0.0765	0.1179	0.171	0.0603	0.1822	-0.0738	-0.2108	-0.004	-0.1208	-0.2557	-0.1044	-0.25	-0.2294	-0.3154	-0.2754	-0.2621	0.0054	0.1066	-0.0459	0.0879	0.1696	0.1109	0.0191
-117.1875	0.1243	0.0963	-0.0462	0.0672	-0.0384	0.0706	0.05	0.0962	0.1673	0.2349	0.0836	0.1898	-0.0384	-0.1878	0.0177	-0.0724	-0.2244	-0.0711	-0.2557	-0.1897	-0.2806	-0.277	-0.2617	0.0146	0.1615	0.0134	0.132	0.2083	0.1571	0.0478
-113.2812	0.1535	0.133	-0.029	0.0814	-0.016	0.1267	0.0794	0.1161	0.205	0.2792	0.0986	0.1737	-0.0057	-0.1627	0.0299	-0.0308	-0.189	-0.0446	-0.2531	-0.1517	-0.2425	-0.2689	-0.2473	0.0195	0.1974	0.0601	0.1524	0.2215	0.1966	0.0645
-109.375	0.1688	0.1541	-0.0177	0.0806	-0.0049	0.1652	0.1008	0.1356	0.2287	0.305	0.1095	0.137	0.026	-0.1336	0.0354	0.0034	-0.1507	-0.0245	-0.2375	-0.1131	-0.1991	-0.2477	-0.2146	0.0238	0.2095	0.0877	0.1522	0.2112	0.2253	0.0675
-105.4688	0.1715	0.1592	-0.015	0.0672	-0.0028	0.1841	0.1172	0.1548	0.2388	0.3163	0.1209	0.0863	0.0582	-0.0992	0.0379	0.0307	-0.1115	-0.0092	-0.2062	-0.0726	-0.1493	-0.2121	-0.1631	0.0308	0.197	0.0939	0.1382	0.1832	0.2407	0.0578
-101.5625	0.1641	0.1499	-0.0205	0.0455	-0.0053	0.1835	0.1327	0.1745	0.2375	0.3191	0.1366	0.0308	0.0917	-0.0594	0.0416	0.0513	-0.0741	0.004	-0.16	-0.0303	-0.0935	-0.1639	-0.0978	0.0424	0.1637	0.0809	0.1193	0.1455	0.2425	0.0382
-97.6562	0.1495	0.1295	-0.0313	0.0212	-0.0068	0.1652	0.1511	0.1958	0.2282	0.3187	0.1582	-0.0208	0.1265	-0.0154	0.0493	0.0657	-0.0412	0.0174	-0.1028	0.0122	-0.0337	-0.1077	-0.0284	0.059	0.1178	0.0546	0.1045	0.1067	0.2324	0.0126
-93.75	0.1301	0.1021	-0.0431	-0.0004	-0.0021	0.133	0.1752	0.2189	0.2135	0.3187	0.1848	-0.0617	0.1617	0.0308	0.0622	0.0748	-0.0151	0.0323	-0.0413	0.0526	0.0274	-0.0492	0.0327	0.0799	0.0706	0.0235	0.1012	0.0742	0.2133	-0.0145
-89.8438	0.1084	0.0726	-0.0507	-0.0145	0.013	0.0928	0.2057	0.2426	0.1952	0.3202	0.2135	-0.0884	0.1965	0.078	0.0798	0.08	0.0036	0.0492	0.0176	0.0891	0.0872	0.0062	0.0735	0.1037	0.0337	-0.0036	0.1139	0.0526	0.1894	-0.0386
-85.9375	0.0866	0.046	-0.0494	-0.0174	0.0411	0.0517	0.2415	0.2637	0.1735	0.3215	0.2404	-0.1002	0.2309	0.1259	0.1007	0.0841	0.0166	0.0676	0.0685	0.122	0.1448	0.0555	0.0873	0.1296	0.017	-0.0196	0.1437	0.044	0.1648	-0.0566
-82.0312	0.0673	0.0273	-0.036	-0.0068	0.0825	0.0178	0.2799	0.2778	0.1483	0.3195	0.2616	-0.0986	0.2657	0.176	0.123	0.0911	0.0273	0.0874	0.1088	0.1536	0.2009	0.0989	0.0747	0.1574	0.0256	-0.0198	0.1885	0.0477	0.1438	-0.066
-78.125	0.0538	0.0207	-0.0093	0.0182	0.1357	-0.0012	0.3169	0.2798	0.1196	0.3105	0.2744	-0.0858	0.302	0.2306	0.1459	0.1058	0.0409	0.1087	0.1402	0.1882	0.2579	0.1403	0.0449	0.1874	0.0591	-0.0029	0.2434	0.0611	0.1291	-0.0656
-74.2188	0.0493	0.0295	0.0297	0.0571	0.1972	0.0006	0.3484	0.2653	0.0887	0.2917	0.2779	-0.0638	0.3404	0.292	0.1691	0.133	0.063	0.1318	0.1669	0.2311	0.3184	0.1852	0.0133	0.2194	0.1117	0.0295	0.3018	0.0807	0.1225	-0.0553
-70.3125	0.0565	0.0552	0.0779	0.1078	0.2622	0.0261	0.3705	0.2318	0.0581	0.2617	0.2733	-0.0341	0.3799	0.3606	0.1936	0.1757	0.0977	0.1571	0.1945	0.2865	0.3845	0.2387	-0.0031	0.2525	0.1735	0.0732	0.3558	0.1029	0.1236	-0.036
-66.4062	0.0764	0.0967	0.1305	0.1667	0.3252	0.0741	0.3803	0.1798	0.0313	0.2208	0.263	0.0021	0.4177	0.434	0.2203	0.2345	0.1465	0.1838	0.2274	0.3562	0.4558	0.3027	0.0088	0.2839	0.233	0.1222	0.3974	0.1243	0.1306	-0.0096
-62.5	0.1077	0.1508	0.1824	0.2293	0.381	0.1398	0.3758	0.1127	0.0118	0.1705	0.2496	0.0434	0.4485	0.5071	0.2496	0.3068	0.2075	0.2095	0.2668	0.4388	0.5299	0.3744	0.0543	0.3089	0.2788	0.1696	0.4197	0.1419	0.1401	0.0215
-58.5938	0.147	0.2124	0.2285	0.2906	0.425	0.2147	0.3568	0.0364	0.0019	0.1132	0.2354	0.0871	0.4666	0.5724	0.2807	0.3873	0.2752	0.2308	0.3096	0.529	0.6019	0.4459	0.1292	0.3221	0.3019	0.2086	0.4172	0.1537	0.1481	0.0541
-54.6875	0.1891	0.2753	0.2647	0.3459	0.4546	0.2889	0.3242	-0.0417	0.002	0.0519	0.2213	0.1299	0.4664	0.622	0.3115	0.4687	0.3418	0.2439	0.3497	0.6194	0.6664	0.5064	0.2203	0.3179	0.2976	0.2337	0.3873	0.1588	0.1508	0.0855
-50.7812	0.2282	0.3336	0.2879	0.3915	0.4692	0.352	0.2809	-0.1144	0.0101	-0.01	0.2071	0.1679	0.445	0.6494	0.3387	0.5432	0.3991	0.2454	0.3791	0.7011	0.7182	0.5441	0.3094	0.2922	0.2656	0.2416	0.3303	0.1574	0.1449	0.1132
-46.875	0.259	0.3827	0.2965	0.4252	0.47	0.3958	0.2311	-0.1757	0.0223	-0.0689	0.1916	0.1982	0.4025	0.6517	0.359	0.6044	0.4403	0.2335	0.3907	0.7664	0.7539	0.5499	0.3776	0.2439	0.2105	0.232	0.2505	0.1507	0.1288	0.1353
-42.9688	0.2778	0.4196	0.2903	0.4461	0.4597	0.4152	0.1797	-0.2217	0.0335	-0.1214	0.1738	0.2197	0.3428	0.6294	0.3703	0.6481	0.4618	0.2088	0.3801	0.8097	0.7722	0.5194	0.4102	0.1754	0.14	0.2077	0.1551	0.1408	0.1021	0.1508
-39.0625	0.283	0.4432	0.2704	0.4546	0.4418	0.4092	0.1319	-0.2507	0.0394	-0.1642	0.153	0.2337	0.2729	0.587	0.3717	0.673	0.464	0.1742	0.348	0.829	0.7746	0.4554	0.4006	0.0924	0.0637	0.1741	0.0542	0.1302	0.0663	0.1598
-35.1562	0.2755	0.4542	0.2392	0.4518	0.4194	0.3801	0.0921	-0.2631	0.0368	-0.1947	0.1293	0.2438	0.2014	0.5316	0.3647	0.6803	0.4514	0.1351	0.2996	0.826	0.7638	0.3667	0.3523	0.0031	-0.009	0.1387	-0.041	0.1214	0.024	0.1633
-31.25	0.2583	0.4539	0.1996	0.439	0.3948	0.3328	0.0627	-0.2609	0.0248	-0.2108	0.1027	0.2548	0.1369	0.471	0.3522	0.6738	0.4314	0.0977	0.244	0.8048	0.7434	0.2673	0.2774	-0.0824	-0.0701	0.1102	-0.1193	0.1172	-0.0212	0.1629
-27.3438	0.2355	0.4444	0.155	0.4176	0.3695	0.2735	0.0445	-0.2477	0.0047	-0.2115	0.0736	0.2714	0.0866	0.4128	0.3385	0.6582	0.412	0.0685	0.192	0.7718	0.7171	0.1734	0.1929	-0.1543	-0.1129	0.0971	-0.1712	0.12	-0.0657	0.1607
-23.4375	0.2113	0.4281	0.1086	0.3888	0.3437	0.2085	0.0364	-0.2277	-0.0208	-0.1969	0.0419	0.2964	0.0552	0.3627	0.3282	0.6385	0.4003	0.0525	0.1537	0.733	0.6875	0.0995	0.1161	-0.2037	-0.1325	0.1062	-0.1902	0.1322	-0.1058	0.1583
-19.5312	0.1894	0.4075	0.063	0.3543	0.3174	0.1434	0.0358	-0.2052	-0.0483	-0.1685	0.0072	0.3303	0.0448	0.3242	0.3252	0.6192	0.4004	0.0522	0.136	0.6941	0.6567	0.0564	0.0602	-0.224	-0.125	0.1411	-0.1735	0.1555	-0.139	0.1568
-15.625	0.1725	0.3852	0.0206	0.316	0.2904	0.082	0.0398	-0.1841	-0.0745	-0.1292	-0.0313	0.371	0.0548	0.2989	0.3324	0.6039	0.4129	0.0667	0.1423	0.6592	0.626	0.049	0.032	-0.2113	-0.0877	0.2015	-0.1227	0.1908	-0.1638	0.1563
-11.7188	0.1624	0.3642	-0.0169	0.277	0.2635	0.0268	0.0457	-0.1666	-0.0974	-0.0828	-0.0737	0.4142	0.0828	0.287	0.3511	0.5951	0.4352	0.092	0.1717	0.631	0.5967	0.0767	0.0317	-0.165	-0.0204	0.2832	-0.0433	0.2375	-0.1799	0.1565
-7.8125	0.1599	0.3478	-0.0474	0.2416	0.2388	-0.021	0.0522	-0.1538	-0.1157	-0.0331	-0.1191	0.4551	0.1256	0.2882	0.381	0.5944	0.4629	0.1221	0.2208	0.6113	0.5714	0.1345	0.0547	-0.0878	0.0747	0.379	0.0561	0.2938	-0.1879	0.157
-3.9062	0.1653	0.3395	-0.0689	0.2147	0.22	-0.06	0.0597	-0.145	-0.1292	0.0162	-0.1651	0.4886	0.1795	0.3021	0.4198	0.6028	0.4913	0.1502	0.2846	0.6014	0.5534	0.2149	0.0939	0.0152	0.1914	0.48	0.1652	0.3561	-0.1892	0.1584
0	0.1784	0.3421	-0.0797	0.2018	0.212	-0.0881	0.0697	-0.1383	-0.138	0.0622	-0.2074	0.511	0.2411	0.329	0.4643	0.6205	0.5175	0.1708	0.3578	0.6024	0.5477	0.3099	0.1426	0.1362	0.3191	0.5773	0.2732	0.4198	-0.1859	0.1623
3.9062	0.1983	0.357	-0.0792	0.2075	0.2198	-0.1021	0.0845	-0.1315	-0.1425	0.1023	-0.2407	0.5204	0.307	0.3689	0.5101	0.6466	0.5404	0.1814	0.4358	0.6148	0.5593	0.4123	0.1959	0.2655	0.4435	0.6623	0.3699	0.4792	-0.1802	0.1707
7.8125	0.2232	0.3833	-0.0684	0.2346	0.2475	-0.0987	0.106	-0.1222	-0.1427	0.1352	-0.2595	0.5165	0.3739	0.4217	0.5537	0.6794	0.5615	0.1828	0.5146	0.6387	0.5924	0.5165	0.2524	0.3919	0.5476	0.7283	0.4463	0.5289	-0.1747	0.1852
11.7188	0.2509	0.418	-0.0505	0.2834	0.2971	-0.0755	0.1351	-0.1078	-0.1373	0.16	-0.2596	0.5009	0.4381	0.4862	0.5928	0.7159	0.5834	0.1789	0.5915	0.6735	0.6494	0.6186	0.3126	0.5043	0.6144	0.7702	0.4957	0.5643	-0.1715	0.2067
15.625	0.2786	0.4565	-0.0298	0.3513	0.3681	-0.0323	0.1714	-0.0859	-0.1244	0.1767	-0.239	0.4768	0.4962	0.5598	0.627	0.7528	0.6095	0.1762	0.6644	0.7177	0.7295	0.7162	0.3777	0.5923	0.6301	0.785	0.5142	0.5828	-0.1723	0.2345
19.5312	0.3034	0.4939	-0.0113	0.4331	0.4571	0.0292	0.2133	-0.0542	-0.1017	0.1861	-0.1988	0.4484	0.545	0.6386	0.6573	0.7868	0.6427	0.1818	0.732	0.7692	0.8283	0.8071	0.4472	0.6482	0.5877	0.7722	0.5007	0.5843	-0.1783	0.2674
23.4375	0.3225	0.5257	0.0006	0.5221	0.5583	0.1044	0.2579	-0.0118	-0.0676	0.1893	-0.143	0.4203	0.5821	0.7174	0.685	0.8156	0.6848	0.2018	0.7942	0.8255	0.9385	0.8895	0.5177	0.6685	0.4897	0.7343	0.4572	0.5708	-0.1902	0.304
27.3438	0.3337	0.5494	0.0027	0.6101	0.6635	0.187	0.3019	0.0405	-0.0227	0.1877	-0.0779	0.3968	0.6059	0.7905	0.7107	0.8383	0.7368	0.2404	0.8516	0.8833	1.0506	0.9611	0.5825	0.6545	0.349	0.677	0.389	0.5464	-0.2084	0.3442
31.25	0.3358	0.5639	-0.0069	0.6895	0.7636	0.269	0.3417	0.0993	0.0296	0.1829	-0.01	0.3812	0.6163	0.8526	0.7337	0.8558	0.7986	0.2983	0.9058	0.9396	1.1542	1.0198	0.6341	0.6124	0.1873	0.609	0.3038	0.5161	-0.2338	0.3885
35.1562	0.3291	0.5703	-0.0291	0.7538	0.8493	0.342	0.3738	0.1585	0.083	0.1759	0.0554	0.3756	0.614	0.8994	0.7517	0.8711	0.8696	0.3724	0.9591	0.9916	1.2404	1.0641	0.6668	0.552	0.0309	0.5416	0.2108	0.4852	-0.267	0.4384
39.0625	0.3157	0.5712	-0.0641	0.7986	0.9125	0.3981	0.3953	0.2107	0.1298	0.1672	0.1158	0.3807	0.6005	0.9284	0.7621	0.8882	0.9486	0.4555	1.0138	1.0377	1.3031	1.0934	0.6791	0.4852	-0.0944	0.4865	0.12	0.4581	-0.3089	0.4948
42.9688	0.299	0.5697	-0.1112	0.8224	0.9479	0.4315	0.4041	0.2484	0.1624	0.1565	0.1721	0.3959	0.5776	0.9387	0.763	0.9117	1.0329	0.5368	1.0711	1.0772	1.3393	1.1076	0.6742	0.4232	-0.1694	0.4535	0.0399	0.4378	-0.3601	0.5568
46.875	0.283	0.5683	-0.1688	0.8261	0.9535	0.4408	0.3987	0.2657	0.1749	0.1427	0.2277	0.419	0.5461	0.9299	0.7535	0.9437	1.1175	0.6036	1.1291	1.1084	1.3481	1.1066	0.6584	0.3743	-0.1853	0.4481	-0.0233	0.4249	-0.4193	0.621
50.7812	0.2703	0.5676	-0.2342	0.8117	0.9299	0.4287	0.3784	0.26	0.1652	0.1245	0.2866	0.4467	0.5053	0.9006	0.7333	0.9814	1.1932	0.6426	1.1814	1.1276	1.3286	1.0889	0.6383	0.3417	-0.146	0.4693	-0.0675	0.4179	-0.4836	0.6806
54.6875	0.2614	0.5639	-0.3036	0.7804	0.8791	0.4019	0.343	0.2322	0.1345	0.1004	0.3512	0.4739	0.4523	0.8474	0.7018	1.0157	1.2468	0.6425	1.217	1.1263	1.277	1.0508	0.6183	0.3234	-0.0664	0.5099	-0.0948	0.4134	-0.5479	0.726
58.5938	0.2534	0.5499	-0.3724	0.7306	0.8024	0.3676	0.2925	0.1861	0.0868	0.0695	0.4204	0.495	0.3821	0.7639	0.657	1.0308	1.262	0.596	1.2212	1.0918	1.1864	0.9873	0.5988	0.3121	0.031	0.5575	-0.111	0.4067	-0.6056	0.746
62.5	0.2401	0.515	-0.4359	0.6574	0.699	0.3304	0.2272	0.1277	0.0278	0.0317	0.4886	0.5034	0.2894	0.6427	0.5959	1.0079	1.2232	0.502	1.1792	1.0094	1.0475	0.8933	0.5762	0.2982	0.1222	0.5976	-0.1237	0.3932	-0.6495	0.7302
66.4062	0.2135	0.448	-0.49	0.5535	0.5656	0.2897	0.148	0.0639	-0.0366	-0.0126	0.5463	0.4939	0.1704	0.478	0.5152	0.9294	1.1191	0.3663	1.0801	0.8656	0.852	0.7654	0.5444	0.2719	0.1865	0.6171	-0.1406	0.3698	-0.6738	0.6709
70.3125	0.1658	0.3404	-0.5317	0.4112	0.3981	0.2399	0.0562	0.0004	-0.1015	-0.0624	0.5819	0.4629	0.0247	0.2687	0.4131	0.7841	0.9475	0.2014	0.9203	0.6536	0.5967	0.6046	0.4969	0.2267	0.2108	0.6073	-0.1673	0.3358	-0.6751	0.5657
74.2188	0.0919	0.1898	-0.5594	0.2265	0.1943	0.1723	-0.0458	-0.0587	-0.1637	-0.1165	0.5839	0.4101	-0.1424	0.0209	0.2912	0.5715	0.7164	0.0251	0.7054	0.3764	0.2872	0.4169	0.4289	0.161	0.1911	0.5661	-0.2056	0.2934	-0.6533	0.4186
78.125	-0.0089	0.0019	-0.5726	0.0024	-0.0428	0.0791	-0.1544	-0.1122	-0.2211	-0.1726	0.5446	0.3393	-0.32	-0.2511	0.1552	0.3034	0.4446	-0.1424	0.4509	0.0489	-0.06	0.2132	0.3382	0.0788	0.1329	0.4982	-0.2536	0.2479	-0.6114	0.2402
82.0312	-0.1313	-0.208	-0.5711	-0.249	-0.3027	-0.0433	-0.2641	-0.1614	-0.2722	-0.2278	0.4623	0.2576	-0.4924	-0.5258	0.0155	0.0035	0.1583	-0.2817	0.1787	-0.3023	-0.4181	0.0082	0.2258	-0.0111	0.0487	0.4144	-0.3058	0.2065	-0.5548	0.0463
85.9375	-0.2643	-0.4173	-0.5546	-0.5069	-0.5671	-0.1918	-0.3682	-0.2096	-0.3159	-0.2784	0.3432	0.1752	-0.6414	-0.7767	-0.1139	-0.2956	-0.1125	-0.3776	-0.0851	-0.642	-0.7528	-0.1821	0.0962	-0.0966	-0.0449	0.3291	-0.3548	0.1773	-0.4901	-0.1441
89.8438	-0.3925	-0.5985	-0.5226	-0.7439	-0.8116	-0.3569	-0.4592	-0.2607	-0.3509	-0.3206	0.2009	0.1036	-0.7488	-0.9765	-0.2176	-0.5576	-0.339	-0.4217	-0.315	-0.9319	-1.0276	-0.3423	-0.0434	-0.1657	-0.1308	0.2572	-0.3931	0.1672	-0.4229	-0.3117
93.75	-0.499	-0.7245	-0.474	-0.9309	-1.0093	-0.5233	-0.53	-0.318	-0.3763	-0.3513	0.0546	0.0526	-0.8002	-1.1014	-0.2816	-0.7481	-0.4984	-0.4138	-0.4895	-1.1361	-1.2089	-0.4596	-0.1824	-0.2084	-0.1948	0.2109	-0.4149	0.1803	-0.357	-0.44
97.6562	-0.568	-0.7737	-0.4085	-1.0419	-1.1353	-0.6736	-0.5749	-0.3828	-0.3914	-0.3688	-0.0746	0.0288	-0.7872	-1.1345	-0.2959	-0.841	-0.5763	-0.3612	-0.5929	-1.2279	-1.2719	-0.5246	-0.3084	-0.2188	-0.228	0.1968	-0.4175	0.2165	-0.2947	-0.5174
101.5625	-0.5883	-0.7332	-0.3274	-1.0584	-1.171	-0.7902	-0.5907	-0.4535	-0.3965	-0.3731	-0.1672	0.0339	-0.7092	-1.0687	-0.2568	-0.8225	-0.5686	-0.2769	-0.6171	-1.1934	-1.2044	-0.5316	-0.4076	-0.1964	-0.2281	0.2155	-0.4013	0.2718	-0.2363	-0.5381
105.4688	-0.5544	-0.6014	-0.2336	-0.9721	-1.1062	-0.8582	-0.5764	-0.5254	-0.3919	-0.3647	-0.2092	0.0652	-0.5724	-0.9071	-0.1666	-0.6925	-0.4801	-0.1757	-0.5607	-1.0328	-1.0074	-0.4792	-0.4673	-0.1445	-0.1992	0.2614	-0.3699	0.3389	-0.1821	-0.5016
109.375	-0.4676	-0.3871	-0.1319	-0.7857	-0.9407	-0.8669	-0.5327	-0.5908	-0.3776	-0.3441	-0.1931	0.1168	-0.389	-0.6617	-0.033	-0.4636	-0.3226	-0.0708	-0.4288	-0.7595	-0.6947	-0.3691	-0.4787	-0.0694	-0.1494	0.3248	-0.3278	0.4094	-0.1325	-0.4123
113.2812	-0.335	-0.1079	-0.0282	-0.5117	-0.6836	-0.8116	-0.4612	-0.6406	-0.3528	-0.3103	-0.1193	0.1818	-0.1737	-0.351	0.1331	-0.158	-0.1117	0.0286	-0.2314	-0.3967	-0.2898	-0.2067	-0.4384	0.0217	-0.0882	0.3943	-0.2796	0.4759	-0.0885	-0.2778
117.1875	-0.1683	0.2133	0.0717	-0.1706	-0.352	-0.6942	-0.3636	-0.666	-0.3156	-0.261	0.0054	0.254	0.0586	0.0034	0.3201	0.1969	0.1353	0.1187	0.0177	0.027	0.1783	-0.0008	-0.3504	0.1221	-0.0246	0.4597	-0.229	0.5338	-0.0514	-0.1082
121.0938	0.0182	0.5517	0.1629	0.2124	0.0308	-0.5234	-0.2419	-0.6603	-0.2642	-0.193	0.1685	0.3283	0.2944	0.3794	0.5169	0.5724	0.4017	0.1999	0.3016	0.4815	0.678	0.2372	-0.2252	0.2262	0.0355	0.5132	-0.1784	0.5816	-0.023	0.0847
125	0.2094	0.8838	0.2423	0.6095	0.4383	-0.3133	-0.0993	-0.6212	-0.1984	-0.1046	0.3534	0.4013	0.5235	0.7565	0.7142	0.9428	0.6725	0.2744	0.6018	0.9379	1.1791	0.4937	-0.0778	0.3298	0.0887	0.5505	-0.1295	0.6201	-0.0049	0.2875
128.9062	0.3914	1.1897	0.3079	0.9941	0.8432	-0.0812	0.0593	-0.5512	-0.1202	0.0034	0.5414	0.4696	0.7384	1.1176	0.9043	1.2871	0.935	0.3445	0.9	1.3718	1.6555	0.7543	0.0757	0.4293	0.1337	0.5708	-0.0836	0.6515	0.0011	0.4859
132.8125	0.5527	1.4551	0.3593	1.3438	1.2212	0.1558	0.2268	-0.4577	-0.0341	0.1266	0.7139	0.53	0.9347	1.4496	1.081	1.5907	1.179	0.4103	1.1801	1.7641	2.0867	1.0055	0.2217	0.5221	0.1704	0.5757	-0.0426	0.6775	-0.0063	0.6669
136.7188	0.6858	1.6724	0.3964	1.6426	1.5537	0.3837	0.3946	-0.3515	0.0536	0.2572	0.8556	0.5789	1.1103	1.744	1.2395	1.8457	1.3979	0.4705	1.4299	2.1023	2.4593	1.2367	0.3509	0.6059	0.1984	0.5685	-0.008	0.6985	-0.028	0.8199
140.625	0.7877	1.84	0.4195	1.8824	1.8294	0.5932	0.5533	-0.2449	0.1366	0.3851	0.9563	0.6131	1.2649	1.9962	1.3757	2.05	1.5876	0.5224	1.6426	2.3802	2.7667	1.4407	0.4599	0.6792	0.2171	0.553	0.0183	0.7135	-0.0632	0.939
144.5312	0.8592	1.9615	0.429	2.0627	2.0447	0.78	0.6937	-0.1502	0.2095	0.4992	1.0127	0.6308	1.3985	2.2044	1.4863	2.2055	1.7464	0.5635	1.8164	2.5962	3.0077	1.6138	0.5502	0.7411	0.2252	0.5329	0.035	0.7211	-0.1091	1.0233
148.4375	0.9038	2.0425	0.4254	2.1881	2.2018	0.9433	0.8074	-0.0772	0.268	0.5893	1.0281	0.6321	1.5105	2.3675	1.5685	2.3155	1.8733	0.592	1.953	2.7517	3.1836	1.755	0.6259	0.7909	0.2215	0.5115	0.0417	0.7195	-0.1608	1.0763
152.3438	0.9265	2.0889	0.4095	2.266	2.306	1.0835	0.8874	-0.0327	0.3095	0.6465	1.0097	0.6197	1.5982	2.4838	1.6204	2.3826	1.9665	0.6072	2.0552	2.8483	3.2963	1.8641	0.6917	0.8279	0.2056	0.4911	0.0379	0.7078	-0.2122	1.1038
156.25	0.9314	2.1043	0.3829	2.3033	2.3632	1.2008	0.9281	-0.0191	0.332	0.6642	0.967	0.5974	1.6568	2.5499	1.6407	2.4072	2.023	0.6084	2.1248	2.8867	3.3464	1.9407	0.7502	0.8505	0.1777	0.4729	0.0233	0.6858	-0.2569	1.1116
160.1562	0.9208	2.0897	0.348	2.3044	2.3775	1.2929	0.926	-0.035	0.3344	0.639	0.9085	0.5699	1.6795	2.5607	1.6288	2.3875	2.0379	0.5951	2.1613	2.8657	3.3328	1.9832	0.801	0.8567	0.1394	0.457	-0.003	0.6535	-0.2903	1.1033
164.0625	0.8948	2.0433	0.3076	2.2709	2.3508	1.3556	0.8794	-0.0753	0.3162	0.5705	0.84	0.541	1.6595	2.5113	1.5857	2.3198	2.0064	0.5668	2.162	2.7834	3.2534	1.989	0.8405	0.8434	0.0931	0.442	-0.0425	0.6111	-0.3112	1.0795
167.9688	0.8517	1.9617	0.2645	2.2016	2.2824	1.3831	0.7893	-0.1321	0.2783	0.4612	0.7649	0.513	1.5909	2.3977	1.5131	2.2006	1.9249	0.5236	2.1232	2.6382	3.1069	1.9553	0.8634	0.8074	0.0418	0.4255	-0.0973	0.5584	-0.3217	1.0382
171.875	0.789	1.842	0.2211	2.0942	2.1708	1.3697	0.6594	-0.1971	0.2227	0.3168	0.6839	0.4862	1.4705	2.2193	1.4136	2.0283	1.7932	0.4667	2.0416	2.4305	2.8942	1.8808	0.8647	0.746	-0.0117	0.4043	-0.1694	0.495	-0.3268	0.9765
175.7812	0.7049	1.6832	0.1786	1.9469	2.0153	1.3122	0.4954	-0.2628	0.1526	0.1451	0.5971	0.4592	1.299	1.9798	1.2905	1.804	1.6152	0.3989	1.9167	2.1639	2.6201	1.7661	0.8417	0.6575	-0.0656	0.3749	-0.2597	0.421	-0.3324	0.8919
179.6875	0.5987	1.4879	0.1372	1.7603	1.8178	1.2115	0.3059	-0.3242	0.072	-0.0442	0.5044	0.4298	1.0816	1.6879	1.1476	1.5334	1.3994	0.3241	1.7508	1.8461	2.2937	1.615	0.7941	0.5423	-0.1193	0.3343	-0.3672	0.3374	-0.3438	0.7842
183.5938	0.4723	1.2623	0.0959	1.5387	1.5841	1.0726	0.1011	-0.3796	-0.0146	-0.2401	0.4064	0.3955	0.8281	1.3573	0.9896	1.2259	1.1575	0.2464	1.5501	1.4892	1.9292	1.4343	0.7245	0.4033	-0.1736	0.281	-0.4884	0.2471	-0.3635	0.6562
187.5	0.3301	1.0168	0.0534	1.2905	1.3246	0.9043	-0.1067	-0.4294	-0.1031	-0.4314	0.3053	0.3543	0.5524	1.0057	0.8218	0.8955	0.904	0.1697	1.3243	1.1096	1.5446	1.2337	0.6374	0.2459	-0.2293	0.2158	-0.6172	0.1547	-0.3909	0.5138
191.4062	0.1791	0.7648	0.0086	1.0281	1.0536	0.7183	-0.304	-0.4752	-0.189	-0.6067	0.2048	0.3056	0.2713	0.6533	0.651	0.5594	0.6538	0.0973	1.0851	0.7268	1.1612	1.0246	0.5382	0.0784	-0.2861	0.1428	-0.7449	0.0665	-0.4222	0.3653
195.3125	0.0284	0.5216	-0.0393	0.7669	0.7882	0.5274	-0.4773	-0.5177	-0.2679	-0.7556	0.11	0.2506	0.0031	0.3215	0.4852	0.2364	0.421	0.0318	0.8458	0.3618	0.8006	0.8192	0.4326	-0.0891	-0.3421	0.0683	-0.8614	-0.0105	-0.4515	0.2202
199.2188	-0.1119	0.3027	-0.0896	0.5238	0.546	0.3455	-0.6144	-0.5557	-0.3355	-0.8692	0.0268	0.1924	-0.2348	0.0294	0.3333	-0.0543	0.2174	-0.0245	0.6192	0.0353	0.4832	0.6286	0.3251	-0.2454	-0.3931	0.0001	-0.9561	-0.0695	-0.4724	0.0879
203.125	-0.2318	0.1223	-0.1406	0.3146	0.3435	0.1863	-0.7062	-0.5857	-0.3878	-0.9409	-0.0389	0.1363	-0.4279	-0.2073	0.204	-0.2963	0.0505	-0.0697	0.4165	-0.2353	0.2248	0.4618	0.219	-0.3799	-0.4333	-0.0547	-1.02	-0.1052	-0.4788	-0.0238
207.0312	-0.3226	-0.0089	-0.1895	0.153	0.1935	0.0629	-0.7477	-0.6035	-0.4217	-0.967	-0.082	0.089	-0.5662	-0.3785	0.1044	-0.4772	-0.0764	-0.1023	0.2456	-0.4378	0.0357	0.3241	0.116	-0.4839	-0.4569	-0.0905	-1.0467	-0.1153	-0.467	-0.1096
210.9375	-0.3783	-0.0843	-0.2319	0.048	0.1038	-0.0142	-0.7392	-0.6049	-0.4359	-0.9478	-0.0997	0.0573	-0.6452	-0.4804	0.039	-0.5905	-0.164	-0.1215	0.1111	-0.5664	-0.0806	0.2173	0.0172	-0.5518	-0.4592	-0.1049	-1.0339	-0.1011	-0.4354	-0.1671
214.8438	-0.3967	-0.1026	-0.2631	0.0032	0.0761	-0.0388	-0.686	-0.588	-0.4311	-0.8873	-0.0916	0.047	-0.6666	-0.5152	0.0082	-0.6364	-0.2169	-0.1273	0.0134	-0.6228	-0.1272	0.1392	-0.077	-0.5824	-0.4387	-0.0983	-0.984	-0.067	-0.3852	-0.197
218.75	-0.3791	-0.0679	-0.278	0.0155	0.1051	-0.011	-0.5977	-0.554	-0.4103	-0.7935	-0.0604	0.0609	-0.6374	-0.4911	0.0086	-0.6214	-0.2416	-0.1207	-0.0501	-0.6157	-0.1132	0.0852	-0.1651	-0.5785	-0.3973	-0.0733	-0.9036	-0.0196	-0.3198	-0.2022
222.6562	-0.331	0.0108	-0.2724	0.0759	0.18	0.0616	-0.4867	-0.5075	-0.3778	-0.6774	-0.0112	0.0977	-0.5691	-0.4202	0.0329	-0.5575	-0.2454	-0.1041	-0.0849	-0.5592	-0.0518	0.0489	-0.2447	-0.5467	-0.3406	-0.0347	-0.8028	0.0333	-0.2437	-0.1875
226.5625	-0.2607	0.1209	-0.2439	0.1705	0.2851	0.1649	-0.3665	-0.455	-0.3384	-0.5513	0.0487	0.1519	-0.4759	-0.3175	0.072	-0.4605	-0.2356	-0.0809	-0.0976	-0.4708	0.0409	0.0242	-0.3126	-0.4958	-0.2764	0.0117	-0.6937	0.0844	-0.1618	-0.1586
230.4688	-0.1784	0.2481	-0.1928	0.2825	0.4029	0.2807	-0.2499	-0.4042	-0.2968	-0.4278	0.1112	0.2144	-0.3729	-0.1986	0.1159	-0.3479	-0.2183	-0.055	-0.0954	-0.3686	0.1486	0.006	-0.3655	-0.4358	-0.2124	0.0595	-0.5884	0.1278	-0.0792	-0.1216
234.375	-0.0944	0.378	-0.1223	0.3953	0.5163	0.3898	-0.1474	-0.3615	-0.2567	-0.3178	0.1682	0.2746	-0.2739	-0.0779	0.1561	-0.2363	-0.1981	-0.0301	-0.0843	-0.2686	0.2561	-0.0084	-0.4006	-0.3754	-0.1549	0.1025	-0.4971	0.1595	-0.0002	-0.0824
238.2812	-0.0179	0.4982	-0.0376	0.4945	0.6113	0.476	-0.0663	-0.3312	-0.2209	-0.2299	0.2127	0.3225	-0.1895	0.033	0.1863	-0.1388	-0.178	-0.0096	-0.069	-0.1825	0.3517	-0.0195	-0.4168	-0.3207	-0.1064	0.1357	-0.4269	0.178	0.0709	-0.0456
242.1875	0.0446	0.5993	0.0546	0.5705	0.6789	0.5293	-0.0102	-0.3145	-0.1915	-0.1702	0.2399	0.3506	-0.1258	0.1264	0.2039	-0.0636	-0.159	0.0046	-0.0519	-0.1164	0.428	-0.0259	-0.415	-0.2744	-0.0664	0.1559	-0.381	0.1834	0.1308	-0.0145
246.0938	0.0896	0.6758	0.1475	0.6189	0.7158	0.547	0.0203	-0.3101	-0.17	-0.1418	0.2467	0.3556	-0.0839	0.1991	0.2093	-0.0136	-0.1412	0.0116	-0.0337	-0.0708	0.4824	-0.0245	-0.3978	-0.236	-0.0315	0.1626	-0.3587	0.1779	0.1766	0.0091
250	0.1168	0.7259	0.2347	0.6407	0.7242	0.5334	0.028	-0.3144	-0.1575	-0.1451	0.2328	0.3387	-0.0606	0.2514	0.2056	0.0135	-0.1234	0.0124	-0.0132	-0.0418	0.5162	-0.0122	-0.368	-0.2027	0.0022	0.1581	-0.3561	0.1641	0.2066	0.0251
253.9062	0.1289	0.751	0.3112	0.6408	0.7101	0.498	0.0174	-0.323	-0.1542	-0.178	0.1998	0.3046	-0.05	0.2868	0.1969	0.0234	-0.1041	0.0091	0.0118	-0.0228	0.5337	0.0144	-0.3273	-0.1713	0.0375	0.1463	-0.3682	0.1449	0.2204	0.0348
257.8125	0.1305	0.7546	0.3732	0.6261	0.682	0.4524	-0.0055	-0.3317	-0.1594	-0.2355	0.1512	0.2603	-0.0449	0.31	0.1869	0.0233	-0.0814	0.0046	0.0441	-0.0069	0.5403	0.0578	-0.2746	-0.1391	0.0742	0.1316	-0.3895	0.1225	0.2191	0.0407
261.7188	0.1269	0.7417	0.4185	0.6037	0.6478	0.4077	-0.0342	-0.3365	-0.1706	-0.31	0.0922	0.213	-0.0387	0.326	0.1776	0.0202	-0.0537	0.0027	0.0858	0.0113	0.5412	0.119	-0.207	-0.1055	0.1089	0.1178	-0.4153	0.0984	0.2061	0.0458
265.625	0.1228	0.7175	0.4458	0.5789	0.6143	0.3721	-0.0624	-0.3348	-0.1844	-0.392	0.0289	0.1691	-0.0267	0.3388	0.1689	0.0195	-0.0198	0.0066	0.1379	0.0346	0.5401	0.1971	-0.1217	-0.0716	0.136	0.1062	-0.4421	0.073	0.1856	0.0537
269.5312	0.121	0.6868	0.4548	0.5546	0.585	0.3499	-0.0855	-0.3253	-0.1976	-0.4713	-0.0326	0.1324	-0.0071	0.3504	0.1587	0.024	0.0203	0.0184	0.199	0.0627	0.539	0.2883	-0.0187	-0.0398	0.1491	0.096	-0.467	0.0464	0.1629	0.067
273.4375	0.1214	0.6521	0.4452	0.5306	0.5601	0.3411	-0.1011	-0.309	-0.2081	-0.5388	-0.0873	0.1044	0.0189	0.3604	0.1436	0.0332	0.065	0.0381	0.2653	0.0916	0.537	0.3854	0.0967	-0.0131	0.1432	0.0846	-0.4882	0.0184	0.1423	0.087
277.3438	0.1208	0.6135	0.4168	0.5039	0.5362	0.3416	-0.1105	-0.2893	-0.2167	-0.5888	-0.132	0.0839	0.0463	0.3655	0.1195	0.0428	0.1102	0.0628	0.3302	0.1146	0.5303	0.4788	0.2141	0.0058	0.1166	0.0682	-0.5047	-0.0116	0.1263	0.1121
281.25	0.1138	0.5684	0.3697	0.4696	0.5076	0.3441	-0.1178	-0.2714	-0.227	-0.62	-0.1666	0.0677	0.0676	0.36	0.0827	0.0459	0.1492	0.0871	0.3857	0.1228	0.5128	0.557	0.3191	0.0147	0.0712	0.0435	-0.5162	-0.0438	0.1151	0.1387
285.1562	0.0944	0.5122	0.3045	0.4221	0.4671	0.3393	-0.13	-0.2617	-0.244	-0.6359	-0.1928	0.0513	0.0735	0.3366	0.0307	0.0334	0.1738	0.1035	0.4229	0.1065	0.4766	0.6085	0.3968	0.0121	0.0127	0.0087	-0.5239	-0.0785	0.1067	0.1609
289.0625	0.0574	0.4399	0.2236	0.3569	0.4083	0.3177	-0.1541	-0.2649	-0.2729	-0.6441	-0.214	0.0304	0.055	0.2874	-0.0372	-0.0038	0.1751	0.1037	0.4341	0.0573	0.4135	0.624	0.4348	-0.0032	-0.0519	-0.0364	-0.5303	-0.1161	0.0982	0.1728
292.9688	0	0.3478	0.132	0.2714	0.3269	0.2712	-0.1961	-0.2835	-0.316	-0.6539	-0.2338	0.0013	0.0049	0.2062	-0.1199	-0.0725	0.1461	0.081	0.4139	-0.03	0.3168	0.5973	0.4256	-0.0321	-0.1152	-0.09	-0.5393	-0.1563	0.0866	0.1692
296.875	-0.0771	0.2349	0.0371	0.166	0.2223	0.1954	-0.2588	-0.3159	-0.3725	-0.6743	-0.2543	-0.0375	-0.0802	0.0895	-0.2143	-0.1757	0.0829	0.0313	0.3602	-0.1564	0.1829	0.5271	0.3683	-0.0748	-0.1718	-0.1486	-0.5552	-0.1985	0.0705	0.1478
300.7812	-0.1698	0.104	-0.0521	0.0441	0.0979	0.091	-0.3414	-0.3577	-0.4379	-0.7112	-0.2763	-0.0855	-0.1991	-0.0619	-0.3162	-0.3116	-0.0134	-0.0451	0.2745	-0.3182	0.0127	0.4171	0.269	-0.1312	-0.2188	-0.2074	-0.5812	-0.2413	0.0504	0.1094
304.6875	-0.2712	-0.0391	-0.126	-0.0884	-0.0396	-0.0357	-0.4389	-0.4021	-0.5052	-0.7668	-0.2985	-0.1401	-0.3457	-0.2422	-0.4207	-0.4728	-0.1371	-0.1428	0.1624	-0.5068	-0.1884	0.2761	0.1399	-0.1999	-0.2561	-0.2609	-0.6188	-0.2826	0.0289	0.0582
308.5938	-0.3729	-0.1862	-0.1772	-0.2245	-0.1817	-0.1732	-0.5439	-0.4425	-0.5672	-0.8382	-0.3182	-0.1967	-0.51	-0.4414	-0.5228	-0.6478	-0.2779	-0.253	0.0329	-0.7104	-0.4101	0.116	-0.0026	-0.2784	-0.2853	-0.3038	-0.6665	-0.3201	0.0098	0.0006
312.5	-0.4667	-0.3284	-0.202	-0.3566	-0.3192	-0.308	-0.6473	-0.474	-0.6177	-0.9182	-0.3323	-0.2504	-0.6794	-0.6462	-0.6184	-0.8228	-0.423	-0.3641	-0.1034	-0.9151	-0.6391	-0.0491	-0.1419	-0.3624	-0.3083	-0.3315	-0.72	-0.3515	-0.0036	-0.0566
316.4062	-0.5466	-0.4576	-0.2017	-0.4785	-0.4445	-0.4267	-0.7407	-0.4948	-0.653	-0.9967	-0.338	-0.2964	-0.841	-0.8423	-0.704	-0.9841	-0.5594	-0.4647	-0.2354	-1.1076	-0.8605	-0.206	-0.2641	-0.4463	-0.3268	-0.3412	-0.7737	-0.3754	-0.0089	-0.1075
320.3125	-0.6096	-0.5678	-0.1823	-0.5857	-0.5525	-0.5197	-0.8173	-0.5058	-0.6727	-1.0626	-0.3337	-0.3314	-0.9837	-1.0163	-0.7773	-1.1201	-0.6758	-0.5453	-0.3537	-1.2765	-1.0599	-0.3441	-0.3603	-0.5241	-0.3417	-0.3333	-0.8215	-0.3916	-0.0064	-0.1487
324.2188	-0.6558	-0.6562	-0.1533	-0.6762	-0.6414	-0.5834	-0.8733	-0.5111	-0.6791	-1.1068	-0.3199	-0.3547	-1.0998	-1.1581	-0.837	-1.2239	-0.7654	-0.5997	-0.4521	-1.4141	-1.2261	-0.4568	-0.4277	-0.5898	-0.3537	-0.3114	-0.8591	-0.4011	0.0017	-0.1801
328.125	-0.6881	-0.7231	-0.1253	-0.7504	-0.7124	-0.621	-0.9079	-0.5157	-0.6764	-1.1236	-0.2991	-0.3678	-1.1857	-1.2619	-0.8837	-1.2939	-0.8265	-0.6258	-0.5285	-1.5172	-1.3519	-0.5419	-0.4683	-0.6387	-0.3633	-0.2824	-0.8845	-0.4058	0.0117	-0.2041
332.0312	-0.7107	-0.7713	-0.1071	-0.8107	-0.7687	-0.641	-0.9232	-0.5247	-0.6695	-1.1127	-0.276	-0.3741	-1.2419	-1.327	-0.9185	-1.3338	-0.8624	-0.6252	-0.5841	-1.5873	-1.4357	-0.6009	-0.4874	-0.6677	-0.3715	-0.2548	-0.8981	-0.4081	0.0196	-0.2254
335.9375	-0.7279	-0.8049	-0.1041	-0.8603	-0.8143	-0.6547	-0.9228	-0.5411	-0.6626	-1.0783	-0.2563	-0.3782	-1.2717	-1.3564	-0.9434	-1.3503	-0.8799	-0.6026	-0.6231	-1.6294	-1.4803	-0.6372	-0.4909	-0.6754	-0.3796	-0.237	-0.9018	-0.4096	0.0224	-0.2489
339.8438	-0.7429	-0.8281	-0.1181	-0.9022	-0.8525	-0.6723	-0.9106	-0.5652	-0.6578	-1.0289	-0.2455	-0.3837	-1.2798	-1.3557	-0.9598	-1.3516	-0.8866	-0.5644	-0.6501	-1.6504	-1.4921	-0.6549	-0.4836	-0.6621	-0.3884	-0.2352	-0.8974	-0.4113	0.019	-0.2787
343.75	-0.7567	-0.8441	-0.1475	-0.9381	-0.885	-0.6995	-0.8901	-0.5944	-0.6552	-0.9745	-0.2471	-0.3932	-1.2706	-1.3314	-0.9683	-1.3447	-0.8882	-0.5173	-0.6682	-1.6568	-1.4791	-0.6567	-0.4678	-0.6295	-0.3982	-0.2513	-0.886	-0.4129	0.0098	-0.3162
347.6562	-0.7688	-0.8544	-0.1891	-0.968	-0.9107	-0.7359	-0.8636	-0.624	-0.6526	-0.9246	-0.2616	-0.4065	-1.2477	-1.2897	-0.9681	-1.3336	-0.8874	-0.4674	-0.6783	-1.6533	-1.4491	-0.644	-0.4442	-0.5807	-0.4081	-0.2824	-0.8667	-0.4131	-0.0038	-0.3604
351.5625	-0.7772	-0.8591	-0.2396	-0.9895	-0.9268	-0.7755	-0.8317	-0.6486	-0.6469	-0.8861	-0.2859	-0.4216	-1.2136	-1.2352	-0.9578	-1.3184	-0.8831	-0.4192	-0.6785	-1.6419	-1.4084	-0.6169	-0.4126	-0.5191	-0.4159	-0.321	-0.8376	-0.4102	-0.02	-0.4072
355.4688	-0.7798	-0.8573	-0.2962	-0.9994	-0.9291	-0.8084	-0.7938	-0.6641	-0.6345	-0.8622	-0.3138	-0.4347	-1.1692	-1.1711	-0.9358	-1.2966	-0.8715	-0.3751	-0.6661	-1.6216	-1.3606	-0.5755	-0.3738	-0.449	-0.4189	-0.3572	-0.7959	-0.4023	-0.0377	-0.4508
359.375	-0.7745	-0.8474	-0.3564	-0.9942	-0.9136	-0.8252	-0.7483	-0.6679	-0.6131	-0.8512	-0.3374	-0.4416	-1.1152	-1.0994	-0.9012	-1.2636	-0.848	-0.3359	-0.6385	-1.5895	-1.3069	-0.5211	-0.3301	-0.375	-0.4146	-0.3808	-0.7402	-0.3883	-0.0564	-0.4851
363.2812	-0.7601	-0.8285	-0.4173	-0.9714	-0.878	-0.8194	-0.6934	-0.6597	-0.582	-0.8474	-0.3492	-0.4389	-1.0518	-1.0211	-0.855	-1.2151	-0.809	-0.3012	-0.5955	-1.5423	-1.2468	-0.4565	-0.2843	-0.3017	-0.4016	-0.3846	-0.6716	-0.3679	-0.0766	-0.5052
367.1875	-0.7362	-0.8005	-0.4748	-0.9306	-0.8226	-0.79	-0.6281	-0.6409	-0.5424	-0.8422	-0.344	-0.4249	-0.9802	-0.9378	-0.7995	-1.1489	-0.7536	-0.2701	-0.54	-1.4775	-1.1789	-0.3868	-0.2396	-0.234	-0.3805	-0.3652	-0.5945	-0.3423	-0.099	-0.5084
371.0938	-0.7034	-0.7642	-0.5237	-0.8736	-0.7505	-0.7412	-0.5532	-0.614	-0.4972	-0.8264	-0.3205	-0.4004	-0.9029	-0.8513	-0.739	-1.0655	-0.6842	-0.2422	-0.4777	-1.3948	-1.1023	-0.3188	-0.199	-0.1766	-0.3534	-0.3242	-0.5165	-0.3135	-0.1243	-0.4945
375	-0.6635	-0.7214	-0.5579	-0.8042	-0.6675	-0.6813	-0.4717	-0.582	-0.4509	-0.7932	-0.2824	-0.3688	-0.824	-0.765	-0.6785	-0.9687	-0.6062	-0.218	-0.417	-1.2965	-1.0178	-0.2603	-0.1664	-0.1338	-0.323	-0.2672	-0.4467	-0.2845	-0.1529	-0.466
378.9062	-0.6194	-0.6745	-0.5717	-0.728	-0.5808	-0.6199	-0.3892	-0.5476	-0.4079	-0.7397	-0.2366	-0.3355	-0.749	-0.6832	-0.6231	-0.8643	-0.5272	-0.1988	-0.3665	-1.1872	-0.9277	-0.2188	-0.1462	-0.1087	-0.2925	-0.2025	-0.3942	-0.2582	-0.1845	-0.4268
382.8125	-0.575	-0.6264	-0.562	-0.6513	-0.4981	-0.5659	-0.3127	-0.5128	-0.3722	-0.668	-0.1921	-0.306	-0.6843	-0.6116	-0.5769	-0.7597	-0.4556	-0.1871	-0.3338	-1.0734	-0.8366	-0.2003	-0.143	-0.1034	-0.2651	-0.1402	-0.366	-0.2376	-0.2182	-0.3822
386.7188	-0.5346	-0.5801	-0.5294	-0.5806	-0.4264	-0.5254	-0.2502	-0.4797	-0.3467	-0.5854	-0.1575	-0.2851	-0.6362	-0.5559	-0.5429	-0.662	-0.3988	-0.1858	-0.3239	-0.9626	-0.7502	-0.208	-0.1605	-0.1183	-0.2446	-0.0906	-0.3661	-0.225	-0.2527	-0.3376
390.625	-0.5026	-0.5389	-0.4787	-0.5216	-0.3712	-0.5012	-0.2087	-0.4498	-0.3324	-0.5026	-0.1396	-0.2755	-0.61	-0.5215	-0.5222	-0.5779	-0.3626	-0.198	-0.3383	-0.8625	-0.6749	-0.2417	-0.2006	-0.1522	-0.2351	-0.0629	-0.3945	-0.2227	-0.2862	-0.2982
394.5312	-0.4825	-0.5055	-0.4179	-0.4791	-0.3358	-0.4925	-0.1931	-0.4252	-0.3295	-0.4324	-0.1424	-0.2776	-0.6085	-0.5117	-0.5149	-0.5124	-0.3504	-0.2258	-0.375	-0.7797	-0.6162	-0.2982	-0.262	-0.2024	-0.2409	-0.0644	-0.4481	-0.2322	-0.3168	-0.2691
398.4375	-0.4767	-0.4823	-0.3569	-0.456	-0.321	-0.4955	-0.2049	-0.4077	-0.3374	-0.3865	-0.1667	-0.2896	-0.6316	-0.5269	-0.5194	-0.4687	-0.3622	-0.2702	-0.4288	-0.7193	-0.5776	-0.3709	-0.3398	-0.2646	-0.2655	-0.0979	-0.5207	-0.2542	-0.3425	-0.2542
402.3438	-0.4849	-0.4699	-0.3047	-0.4526	-0.325	-0.5036	-0.2421	-0.3987	-0.3551	-0.3737	-0.2105	-0.308	-0.6751	-0.5636	-0.533	-0.447	-0.3951	-0.3294	-0.4915	-0.6834	-0.5594	-0.4512	-0.4251	-0.3333	-0.3103	-0.1616	-0.6036	-0.2879	-0.3615	-0.2553
406.25	-0.5043	-0.4673	-0.2677	-0.4663	-0.3435	-0.5092	-0.2988	-0.3983	-0.3809	-0.397	-0.2692	-0.3287	-0.7314	-0.6145	-0.5521	-0.4446	-0.4431	-0.3994	-0.5536	-0.6705	-0.5585	-0.5287	-0.5061	-0.4016	-0.3739	-0.2478	-0.687	-0.3307	-0.3719	-0.272
410.1562	-0.5294	-0.4712	-0.2476	-0.4913	-0.3705	-0.5044	-0.3666	-0.4049	-0.4128	-0.4531	-0.3362	-0.3473	-0.7905	-0.67	-0.5723	-0.4564	-0.4978	-0.4737	-0.6049	-0.676	-0.5685	-0.593	-0.5697	-0.4626	-0.4513	-0.3447	-0.7607	-0.3775	-0.3719	-0.3001
414.0625	-0.5533	-0.4767	-0.2419	-0.52	-0.399	-0.4834	-0.436	-0.4156	-0.4476	-0.5329	-0.404	-0.3602	-0.8414	-0.719	-0.5892	-0.4753	-0.5503	-0.5443	-0.6366	-0.6925	-0.5812	-0.6346	-0.6046	-0.5096	-0.535	-0.4377	-0.8163	-0.4219	-0.3595	-0.333
417.9688	-0.5692	-0.4785	-0.2447	-0.5438	-0.4226	-0.4444	-0.498	-0.4268	-0.482	-0.6237	-0.4661	-0.3653	-0.8748	-0.7519	-0.5991	-0.494	-0.5925	-0.6038	-0.6428	-0.7118	-0.5884	-0.6472	-0.6042	-0.5379	-0.6158	-0.5132	-0.8483	-0.4572	-0.3335	-0.3626
421.875	-0.5726	-0.472	-0.2487	-0.5556	-0.4365	-0.3901	-0.5462	-0.4353	-0.5128	-0.7121	-0.5174	-0.362	-0.8848	-0.7624	-0.5999	-0.5065	-0.6188	-0.646	-0.6217	-0.7267	-0.5842	-0.6287	-0.5682	-0.5456	-0.685	-0.5609	-0.8554	-0.4786	-0.294	-0.3816
425.7812	-0.562	-0.4547	-0.2478	-0.5514	-0.4392	-0.3279	-0.5781	-0.4393	-0.5375	-0.7863	-0.5557	-0.3515	-0.8702	-0.7485	-0.5913	-0.5099	-0.6273	-0.6678	-0.5768	-0.7327	-0.5662	-0.5818	-0.5036	-0.5343	-0.7361	-0.5758	-0.8407	-0.4839	-0.2426	-0.3854
429.6875	-0.5401	-0.4268	-0.2385	-0.5313	-0.4326	-0.2684	-0.5947	-0.4388	-0.5554	-0.8389	-0.581	-0.3363	-0.835	-0.7138	-0.5756	-0.5048	-0.6202	-0.6687	-0.5161	-0.7291	-0.5367	-0.5143	-0.4233	-0.5089	-0.7655	-0.5589	-0.811	-0.4748	-0.1832	-0.3738
433.5938	-0.5129	-0.3915	-0.2216	-0.4997	-0.4214	-0.2233	-0.6007	-0.4358	-0.5675	-0.8673	-0.5956	-0.3199	-0.7877	-0.6662	-0.5569	-0.4948	-0.6032	-0.6511	-0.4512	-0.7192	-0.5022	-0.4379	-0.3438	-0.4769	-0.773	-0.5165	-0.7754	-0.4559	-0.1217	-0.3509
437.5	-0.4881	-0.3546	-0.2016	-0.4643	-0.4125	-0.2028	-0.6022	-0.4337	-0.576	-0.8736	-0.6026	-0.3063	-0.7393	-0.6168	-0.5405	-0.486	-0.584	-0.6194	-0.3951	-0.7092	-0.4717	-0.366	-0.2812	-0.447	-0.762	-0.4587	-0.743	-0.4337	-0.0654	-0.324
441.4062	-0.4734	-0.3229	-0.1856	-0.4339	-0.4123	-0.2131	-0.6057	-0.4359	-0.5843	-0.8639	-0.6053	-0.2993	-0.7015	-0.577	-0.5317	-0.4842	-0.5704	-0.5795	-0.3591	-0.7056	-0.4541	-0.3112	-0.2482	-0.4272	-0.7387	-0.3971	-0.7218	-0.4149	-0.0223	-0.3014
445.3125	-0.4743	-0.3027	-0.1812	-0.4162	-0.4253	-0.2552	-0.6158	-0.445	-0.5952	-0.8459	-0.606	-0.3018	-0.6839	-0.5559	-0.5345	-0.4935	-0.5683	-0.5375	-0.351	-0.7135	-0.4555	-0.2825	-0.2506	-0.4231	-0.7106	-0.3432	-0.7167	-0.4048	0.001	-0.2902
449.2188	-0.4925	-0.2981	-0.194	-0.4155	-0.4521	-0.3235	-0.6339	-0.4615	-0.6104	-0.827	-0.6056	-0.3149	-0.6914	-0.5579	-0.5503	-0.5143	-0.5802	-0.4991	-0.3723	-0.7337	-0.4767	-0.2833	-0.2864	-0.4369	-0.6851	-0.3061	-0.7288	-0.4063	0.0005	-0.2944
453.125	-0.5252	-0.3096	-0.2259	-0.4312	-0.4884	-0.4067	-0.6574	-0.4842	-0.63	-0.8126	-0.6039	-0.3375	-0.7233	-0.5816	-0.5773	-0.543	-0.6046	-0.4686	-0.4189	-0.7624	-0.513	-0.3112	-0.347	-0.4668	-0.6675	-0.2912	-0.7559	-0.4197	-0.0233	-0.3138
457.0312	-0.5655	-0.3332	-0.2737	-0.4576	-0.5257	-0.4884	-0.6805	-0.5095	-0.6516	-0.8043	-0.5996	-0.366	-0.7731	-0.6196	-0.6111	-0.5722	-0.6373	-0.4485	-0.4812	-0.7914	-0.5543	-0.3581	-0.4193	-0.5077	-0.6598	-0.2997	-0.7925	-0.4422	-0.0652	-0.3443
460.9375	-0.6037	-0.3618	-0.33	-0.4851	-0.5524	-0.5506	-0.6948	-0.5331	-0.6714	-0.7998	-0.5913	-0.395	-0.8294	-0.6605	-0.645	-0.5924	-0.6718	-0.4392	-0.5469	-0.8101	-0.5878	-0.413	-0.4891	-0.5525	-0.6608	-0.3282	-0.8319	-0.4693	-0.1159	-0.3786
464.8438	-0.6298	-0.3857	-0.3847	-0.5023	-0.5564	-0.5766	-0.6921	-0.5503	-0.6844	-0.7937	-0.5774	-0.4178	-0.8789	-0.6914	-0.672	-0.5943	-0.7021	-0.4391	-0.6037	-0.8079	-0.6014	-0.4644	-0.5447	-0.5941	-0.6669	-0.3703	-0.8668	-0.4955	-0.1635	-0.4086
468.75	-0.6355	-0.3958	-0.4275	-0.499	-0.5285	-0.5548	-0.6656	-0.557	-0.6861	-0.7791	-0.5562	-0.4279	-0.9094	-0.7011	-0.686	-0.5709	-0.723	-0.445	-0.642	-0.7777	-0.5861	-0.5033	-0.5795	-0.6265	-0.6738	-0.4171	-0.8912	-0.516	-0.1963	-0.427
472.6562	-0.6165	-0.3855	-0.4501	-0.4687	-0.4641	-0.4818	-0.6127	-0.5508	-0.6733	-0.7495	-0.5259	-0.4202	-0.912	-0.6829	-0.683	-0.5193	-0.7314	-0.4524	-0.6571	-0.7171	-0.5389	-0.5248	-0.593	-0.6459	-0.6776	-0.46	-0.9004	-0.5266	-0.2055	-0.4289
476.5625	-0.5732	-0.3524	-0.4479	-0.4101	-0.3657	-0.3642	-0.5348	-0.5313	-0.6449	-0.7009	-0.4852	-0.3911	-0.8831	-0.6352	-0.6618	-0.4418	-0.726	-0.4563	-0.6499	-0.6295	-0.463	-0.5291	-0.5905	-0.651	-0.6764	-0.4911	-0.8918	-0.525	-0.1867	-0.4129
480.4688	-0.5109	-0.2988	-0.4212	-0.3281	-0.2419	-0.2174	-0.4381	-0.5006	-0.6026	-0.6327	-0.4329	-0.3402	-0.825	-0.5624	-0.6242	-0.3452	-0.7078	-0.4513	-0.6259	-0.5231	-0.3669	-0.5206	-0.5811	-0.6425	-0.6705	-0.505	-0.8639	-0.5099	-0.1416	-0.3809
484.375	-0.4384	-0.2318	-0.3742	-0.2327	-0.107	-0.0627	-0.3318	-0.4626	-0.5503	-0.5478	-0.3695	-0.2699	-0.7447	-0.4732	-0.5745	-0.2394	-0.6786	-0.4328	-0.5936	-0.4096	-0.2627	-0.506	-0.5746	-0.6226	-0.6622	-0.4992	-0.8172	-0.4815	-0.0771	-0.3375
488.2812	-0.3659	-0.1615	-0.3152	-0.1367	0.0225	0.0767	-0.2267	-0.4228	-0.4939	-0.4519	-0.2974	-0.1855	-0.6525	-0.3789	-0.5185	-0.1359	-0.6413	-0.3973	-0.5614	-0.3013	-0.1633	-0.4924	-0.578	-0.5946	-0.655	-0.4742	-0.7533	-0.4413	-0.0046	-0.2887
492.1875	-0.3034	-0.0991	-0.2538	-0.0537	0.1301	0.1805	-0.1333	-0.387	-0.4399	-0.3529	-0.2209	-0.0944	-0.56	-0.2909	-0.4625	-0.0452	-0.5988	-0.3441	-0.5361	-0.2088	-0.0799	-0.4847	-0.5939	-0.5617	-0.6518	-0.4334	-0.6757	-0.3918	0.0633	-0.2408
496.0938	-0.2583	-0.0546	-0.1999	0.0049	0.2029	0.2342	-0.0602	-0.3603	-0.3946	-0.2596	-0.1457	-0.0049	-0.4773	-0.2188	-0.412	0.025	-0.5537	-0.2753	-0.5204	-0.1392	-0.0202	-0.4842	-0.6193	-0.5269	-0.6543	-0.3817	-0.5893	-0.3367	0.1148	-0.1995
500	-0.2345	-0.0345	-0.1612	0.0318	0.2336	0.2315	-0.0125	-0.3461	-0.3628	-0.1807	-0.078	0.0761	-0.4116	-0.1686	-0.3703	0.071	-0.508	-0.1965	-0.5128	-0.0947	0.0126	-0.4885	-0.6465	-0.4925	-0.6618	-0.3252	-0.5005	-0.28	0.1413	-0.1689
503.9062	-0.2316	-0.041	-0.1425	0.025	0.2211	0.1746	0.0082	-0.3458	-0.3475	-0.1241	-0.0234	0.1439	-0.3662	-0.1421	-0.3382	0.093	-0.4628	-0.1154	-0.5082	-0.0735	0.0196	-0.4913	-0.665	-0.4592	-0.6717	-0.2695	-0.4162	-0.2259	0.1394	-0.1512
507.8125	-0.246	-0.0717	-0.1446	-0.0123	0.1712	0.074	0.0038	-0.3589	-0.3496	-0.0952	0.0142	0.1966	-0.3404	-0.1372	-0.3142	0.095	-0.4182	-0.0409	-0.4994	-0.0704	0.0057	-0.4849	-0.6637	-0.4269	-0.6803	-0.2187	-0.3435	-0.1778	0.1103	-0.1469
511.7188	-0.2718	-0.1203	-0.1657	-0.0725	0.0943	-0.0532	-0.0218	-0.3838	-0.3681	-0.0968	0.0322	0.2348	-0.3304	-0.1491	-0.2949	0.0825	-0.3739	0.0185	-0.4797	-0.0787	-0.022	-0.4618	-0.6345	-0.3953	-0.6837	-0.175	-0.2886	-0.1382	0.0597	-0.1547
515.625	-0.3021	-0.1782	-0.2019	-0.1452	0.0039	-0.1867	-0.0635	-0.419	-0.4007	-0.1286	0.0295	0.2605	-0.3311	-0.1716	-0.2769	0.0615	-0.3293	0.0568	-0.4456	-0.0918	-0.0556	-0.418	-0.574	-0.3641	-0.6791	-0.1384	-0.2559	-0.1079	-0.0046	-0.1725
519.5312	-0.331	-0.2361	-0.2486	-0.2191	-0.0866	-0.3068	-0.1166	-0.463	-0.4445	-0.1874	0.0064	0.2758	-0.3373	-0.1985	-0.257	0.0376	-0.2845	0.0714	-0.3973	-0.1045	-0.0876	-0.354	-0.4857	-0.3341	-0.665	-0.1071	-0.2478	-0.0867	-0.0737	-0.1973
523.4375	-0.354	-0.2854	-0.3014	-0.2838	-0.1654	-0.3985	-0.1774	-0.5148	-0.4965	-0.2674	-0.0362	0.2829	-0.345	-0.2244	-0.2335	0.015	-0.24	0.0631	-0.3395	-0.1128	-0.1116	-0.2752	-0.3791	-0.3068	-0.6415	-0.0783	-0.2638	-0.0732	-0.1393	-0.2256
527.3438	-0.3682	-0.3192	-0.356	-0.3308	-0.2246	-0.4541	-0.2425	-0.5726	-0.5537	-0.3608	-0.0958	0.283	-0.3515	-0.2452	-0.2064	-0.0028	-0.1965	0.0363	-0.279	-0.114	-0.1228	-0.1905	-0.268	-0.284	-0.6098	-0.0492	-0.3007	-0.0651	-0.1948	-0.2536
531.25	-0.3725	-0.3327	-0.409	-0.3552	-0.2604	-0.4741	-0.3092	-0.6335	-0.6132	-0.459	-0.1688	0.2776	-0.3555	-0.2576	-0.1766	-0.0127	-0.1552	-0.0023	-0.2233	-0.1064	-0.1177	-0.1098	-0.1666	-0.2669	-0.572	-0.0186	-0.3527	-0.06	-0.2354	-0.2772
535.1562	-0.3672	-0.3243	-0.457	-0.355	-0.2727	-0.4654	-0.3744	-0.693	-0.6716	-0.5531	-0.2499	0.2683	-0.357	-0.2597	-0.1456	-0.0122	-0.1168	-0.0447	-0.1777	-0.0884	-0.0948	-0.0411	-0.0864	-0.2556	-0.531	0.0132	-0.4125	-0.0556	-0.259	-0.2926
539.0625	-0.3539	-0.2951	-0.4979	-0.3317	-0.2641	-0.4382	-0.4344	-0.7456	-0.725	-0.6359	-0.3324	0.257	-0.3564	-0.2501	-0.1152	0.001	-0.0819	-0.0838	-0.1442	-0.0593	-0.0547	0.0105	-0.0346	-0.2493	-0.4902	0.0437	-0.4726	-0.0508	-0.2665	-0.2973
542.9688	-0.3355	-0.2497	-0.5305	-0.2895	-0.2386	-0.4023	-0.4855	-0.7861	-0.7699	-0.703	-0.4094	0.2455	-0.3551	-0.229	-0.0865	0.0279	-0.0508	-0.1144	-0.1223	-0.0193	0.0002	0.0441	-0.0134	-0.2471	-0.4535	0.0689	-0.5271	-0.0464	-0.2623	-0.2912
546.875	-0.3166	-0.1956	-0.5553	-0.2349	-0.201	-0.3651	-0.5242	-0.8115	-0.8032	-0.7538	-0.475	0.2347	-0.3547	-0.1982	-0.0609	0.0676	-0.0239	-0.1346	-0.1091	0.0301	0.0655	0.0609	-0.0214	-0.2487	-0.4251	0.0844	-0.5725	-0.0447	-0.2533	-0.2765
550.7812	-0.3019	-0.1416	-0.5744	-0.1752	-0.156	-0.3306	-0.5487	-0.8215	-0.8232	-0.7915	-0.5258	0.224	-0.3574	-0.1614	-0.0391	0.117	-0.0017	-0.146	-0.102	0.0862	0.1354	0.0639	-0.0542	-0.2555	-0.4095	0.086	-0.6083	-0.0494	-0.2478	-0.2576
554.6875	-0.2959	-0.097	-0.5903	-0.1181	-0.1079	-0.3002	-0.5594	-0.8187	-0.8295	-0.822	-0.5608	0.2114	-0.3654	-0.1235	-0.022	0.1713	0.0151	-0.1536	-0.0988	0.1451	0.2034	0.0562	-0.1052	-0.2703	-0.4108	0.0714	-0.6374	-0.0641	-0.2531	-0.2401
558.5938	-0.3008	-0.0689	-0.6053	-0.0696	-0.0605	-0.2741	-0.5584	-0.8079	-0.8226	-0.8519	-0.5817	0.1941	-0.3802	-0.0903	-0.01	0.225	0.0265	-0.1637	-0.099	0.2025	0.2634	0.0405	-0.1653	-0.2967	-0.4324	0.0405	-0.6639	-0.0912	-0.2738	-0.2289
562.5	-0.3161	-0.0614	-0.6204	-0.0343	-0.0171	-0.2526	-0.5496	-0.7938	-0.8038	-0.8866	-0.5913	0.1695	-0.4022	-0.0676	-0.0033	0.273	0.0329	-0.1822	-0.103	0.2545	0.3106	0.0193	-0.2237	-0.3378	-0.4761	-0.0039	-0.6923	-0.1305	-0.3105	-0.2266
566.4062	-0.3386	-0.0745	-0.6355	-0.014	0.0192	-0.238	-0.5374	-0.7802	-0.7744	-0.9285	-0.5925	0.1368	-0.4307	-0.0598	-0.0016	0.3119	0.0356	-0.2125	-0.1118	0.2978	0.3417	-0.0054	-0.2703	-0.3946	-0.5407	-0.057	-0.7256	-0.1786	-0.36	-0.233
570.3125	-0.3637	-0.1049	-0.6491	-0.0089	0.0453	-0.2341	-0.5258	-0.7684	-0.7356	-0.9768	-0.587	0.0974	-0.464	-0.0695	-0.0042	0.3403	0.037	-0.2544	-0.1262	0.33	0.3553	-0.0325	-0.2985	-0.4653	-0.6214	-0.1124	-0.7642	-0.2293	-0.4164	-0.2445
574.2188	-0.387	-0.147	-0.6602	-0.0179	0.0582	-0.2456	-0.5179	-0.7582	-0.6889	-1.0277	-0.5753	0.0547	-0.4996	-0.0974	-0.0105	0.359	0.0401	-0.3037	-0.1468	0.3498	0.3512	-0.0619	-0.3076	-0.5449	-0.7096	-0.1631	-0.8057	-0.2748	-0.4735	-0.2555
578.125	-0.4061	-0.1943	-0.6686	-0.0389	0.0552	-0.2767	-0.5154	-0.7476	-0.6364	-1.0758	-0.5567	0.0137	-0.5351	-0.1421	-0.0194	0.3703	0.047	-0.3534	-0.1729	0.3564	0.3301	-0.0942	-0.3042	-0.6261	-0.7943	-0.203	-0.8455	-0.3077	-0.5256	-0.2601
582.0312	-0.4207	-0.2408	-0.6756	-0.0695	0.035	-0.3287	-0.518	-0.7349	-0.5807	-1.1157	-0.5306	-0.0207	-0.5679	-0.2	-0.0303	0.377	0.0584	-0.3955	-0.2029	0.35	0.2938	-0.1302	-0.2998	-0.7001	-0.8646	-0.227	-0.8785	-0.3224	-0.5693	-0.254
585.9375	-0.4326	-0.2821	-0.6844	-0.1065	-0.0017	-0.3986	-0.5245	-0.7186	-0.5254	-1.143	-0.4969	-0.0441	-0.5955	-0.2661	-0.0424	0.3819	0.0728	-0.4227	-0.2338	0.3315	0.2449	-0.1702	-0.3075	-0.759	-0.9124	-0.2322	-0.8999	-0.3167	-0.6037	-0.2355
589.8438	-0.4443	-0.3155	-0.699	-0.1461	-0.0515	-0.4785	-0.5322	-0.6988	-0.4743	-1.1559	-0.4567	-0.0541	-0.6155	-0.3344	-0.0548	0.3864	0.0872	-0.4309	-0.262	0.3031	0.1868	-0.2132	-0.3369	-0.797	-0.9344	-0.2178	-0.9069	-0.292	-0.6291	-0.2066
593.75	-0.4577	-0.34	-0.7231	-0.1846	-0.1089	-0.5573	-0.5384	-0.6763	-0.4311	-1.1555	-0.4122	-0.05	-0.6265	-0.399	-0.0666	0.3909	0.0976	-0.4195	-0.2839	0.2672	0.1232	-0.2561	-0.3909	-0.8113	-0.9329	-0.1855	-0.899	-0.253	-0.647	-0.1714
597.6562	-0.4736	-0.3567	-0.7586	-0.2187	-0.1673	-0.6231	-0.5413	-0.6529	-0.3988	-1.1455	-0.3669	-0.0332	-0.6283	-0.4553	-0.0772	0.394	0.1006	-0.3916	-0.2968	0.2264	0.0575	-0.2949	-0.4639	-0.8031	-0.9147	-0.1392	-0.8781	-0.2064	-0.6592	-0.1359
601.5625	-0.4914	-0.3679	-0.8059	-0.2468	-0.2208	-0.6668	-0.5407	-0.6304	-0.3799	-1.1325	-0.3247	-0.0069	-0.6231	-0.5015	-0.0868	0.3925	0.0942	-0.3534	-0.2997	0.1826	-0.0078	-0.325	-0.5437	-0.7764	-0.8888	-0.0852	-0.8476	-0.1592	-0.6673	-0.1055
605.4688	-0.51	-0.3773	-0.8631	-0.2693	-0.2663	-0.6849	-0.5393	-0.611	-0.3759	-1.1239	-0.2906	0.0239	-0.615	-0.539	-0.0966	0.3828	0.0783	-0.3128	-0.2936	0.1365	-0.0722	-0.3431	-0.6151	-0.7378	-0.8636	-0.0305	-0.8123	-0.1178	-0.673	-0.0843
609.375	-0.528	-0.3891	-0.9267	-0.2888	-0.3034	-0.6806	-0.5411	-0.5969	-0.3871	-1.1269	-0.2688	0.0536	-0.6096	-0.5715	-0.1086	0.3608	0.0547	-0.2774	-0.2812	0.0876	-0.1362	-0.3478	-0.6641	-0.6947	-0.8449	0.0179	-0.777	-0.0864	-0.6779	-0.074
613.2812	-0.5448	-0.4075	-0.9919	-0.309	-0.3347	-0.6626	-0.5514	-0.5903	-0.4125	-1.1458	-0.2627	0.0761	-0.6125	-0.604	-0.1248	0.3242	0.0265	-0.2532	-0.2658	0.0354	-0.2008	-0.3398	-0.6815	-0.6543	-0.8347	0.055	-0.746	-0.067	-0.6834	-0.0737
617.1875	-0.5603	-0.4352	-1.0533	-0.3332	-0.3638	-0.6422	-0.5743	-0.5937	-0.4493	-1.1814	-0.2735	0.0864	-0.6275	-0.6407	-0.146	0.2729	-0.0026	-0.2438	-0.2499	-0.0202	-0.2666	-0.3218	-0.6651	-0.6221	-0.8317	0.0788	-0.7226	-0.0591	-0.6902	-0.0807
621.0938	-0.575	-0.4725	-1.1048	-0.3626	-0.3934	-0.629	-0.6119	-0.6094	-0.4934	-1.2299	-0.3001	0.0819	-0.6557	-0.6831	-0.1717	0.2098	-0.0291	-0.2499	-0.2345	-0.0776	-0.3319	-0.2972	-0.6197	-0.6012	-0.8324	0.0907	-0.7087	-0.0603	-0.6982	-0.0907
625	-0.5893	-0.517	-1.1404	-0.3958	-0.4242	-0.6284	-0.6627	-0.639	-0.5395	-1.2837	-0.3388	0.0629	-0.6946	-0.7295	-0.1992	0.1406	-0.0499	-0.2695	-0.2186	-0.1336	-0.3933	-0.2693	-0.5549	-0.5919	-0.8329	0.0949	-0.7043	-0.0668	-0.7054	-0.0993
628.9062	-0.6032	-0.564	-1.1552	-0.4289	-0.454	-0.6394	-0.7221	-0.6829	-0.5827	-1.3325	-0.3835	0.033	-0.7386	-0.7743	-0.2248	0.0726	-0.0629	-0.2987	-0.1999	-0.1835	-0.4451	-0.2401	-0.4828	-0.5916	-0.8301	0.0971	-0.7077	-0.0744	-0.7092	-0.1024
632.8125	-0.6157	-0.6074	-1.1468	-0.4563	-0.4784	-0.6558	-0.7829	-0.7396	-0.6189	-1.3654	-0.4272	-0.0019	-0.7798	-0.8101	-0.2441	0.0132	-0.0667	-0.3315	-0.1755	-0.2221	-0.4811	-0.2103	-0.4145	-0.5957	-0.8227	0.1028	-0.7158	-0.0787	-0.7063	-0.0972
636.7188	-0.6255	-0.641	-1.1161	-0.4728	-0.493	-0.6688	-0.8366	-0.8051	-0.6458	-1.373	-0.4634	-0.0349	-0.8101	-0.829	-0.2533	-0.0313	-0.0607	-0.3612	-0.1434	-0.2455	-0.4958	-0.1796	-0.3573	-0.5987	-0.8108	0.116	-0.7248	-0.0764	-0.6939	-0.0834
640.625	-0.6304	-0.6606	-1.068	-0.4749	-0.4944	-0.6701	-0.8756	-0.8738	-0.6624	-1.349	-0.487	-0.06	-0.8231	-0.8254	-0.2504	-0.0578	-0.046	-0.3814	-0.1037	-0.2519	-0.4867	-0.1477	-0.3136	-0.596	-0.796	0.1374	-0.7315	-0.0655	-0.6709	-0.0625
644.5312	-0.6285	-0.6644	-1.0108	-0.4625	-0.4824	-0.6544	-0.8946	-0.9385	-0.6688	-1.2916	-0.4962	-0.0741	-0.8156	-0.7975	-0.2352	-0.0663	-0.0249	-0.3866	-0.059	-0.2425	-0.4547	-0.115	-0.2819	-0.5848	-0.7804	0.1647	-0.7341	-0.0457	-0.6373	-0.0386
648.4375	-0.6189	-0.6532	-0.9543	-0.4387	-0.4597	-0.6215	-0.8919	-0.9924	-0.6657	-1.2037	-0.4918	-0.0771	-0.7885	-0.7481	-0.2103	-0.0602	-0.0013	-0.374	-0.0147	-0.2216	-0.4051	-0.0841	-0.2584	-0.5656	-0.7663	0.1927	-0.7331	-0.019	-0.595	-0.0166
652.3438	-0.6022	-0.6308	-0.908	-0.4092	-0.4323	-0.576	-0.8696	-1.0299	-0.6538	-1.0927	-0.4775	-0.0718	-0.7464	-0.6848	-0.18	-0.0453	0.02	-0.3435	0.0224	-0.1958	-0.3463	-0.0595	-0.2399	-0.5417	-0.7555	0.2153	-0.7308	0.0114	-0.5466	-0.0017
656.25	-0.5804	-0.6025	-0.8784	-0.3814	-0.4077	-0.5265	-0.8331	-1.0481	-0.6344	-0.9695	-0.4579	-0.0623	-0.697	-0.6182	-0.1495	-0.0288	0.0341	-0.2981	0.045	-0.1726	-0.2887	-0.0471	-0.2261	-0.5189	-0.7493	0.2265	-0.7313	0.041	-0.4955	0.0024
660.1562	-0.5573	-0.5742	-0.8681	-0.3621	-0.3931	-0.4834	-0.7901	-1.0471	-0.609	-0.8464	-0.438	-0.0528	-0.6493	-0.5598	-0.1243	-0.0175	0.0373	-0.2434	0.0475	-0.1591	-0.2423	-0.0531	-0.22	-0.5036	-0.7483	0.2224	-0.7388	0.0659	-0.4447	-0.0056
664.0625	-0.5372	-0.5511	-0.875	-0.3559	-0.3937	-0.4561	-0.7486	-1.0301	-0.5799	-0.7353	-0.4212	-0.0466	-0.6113	-0.5192	-0.1088	-0.0168	0.0279	-0.1858	0.0272	-0.1602	-0.2147	-0.0818	-0.227	-0.5011	-0.7524	0.2018	-0.7568	0.0832	-0.3975	-0.0242
667.9688	-0.5241	-0.5366	-0.8927	-0.3643	-0.4106	-0.4502	-0.7148	-1.0021	-0.55	-0.6452	-0.4093	-0.0451	-0.5885	-0.5018	-0.1052	-0.0293	0.0061	-0.132	-0.0154	-0.1779	-0.2095	-0.1338	-0.2527	-0.514	-0.7612	0.167	-0.7867	0.0919	-0.3566	-0.0498
671.875	-0.5205	-0.5317	-0.9127	-0.3845	-0.4406	-0.4665	-0.6924	-0.9695	-0.5227	-0.5811	-0.4018	-0.0483	-0.5824	-0.5076	-0.1131	-0.0547	-0.0253	-0.0877	-0.076	-0.2101	-0.2251	-0.2053	-0.3004	-0.5408	-0.7738	0.1227	-0.8274	0.0925	-0.3243	-0.0781
675.7812	-0.5265	-0.5343	-0.926	-0.4105	-0.4764	-0.5002	-0.6815	-0.9381	-0.5009	-0.5435	-0.3968	-0.0548	-0.5899	-0.5315	-0.1298	-0.0892	-0.0625	-0.0564	-0.1481	-0.2514	-0.2553	-0.2886	-0.3693	-0.5773	-0.7891	0.0756	-0.8758	0.0871	-0.3016	-0.1046
679.6875	-0.5398	-0.5398	-0.925	-0.434	-0.508	-0.5421	-0.6791	-0.9131	-0.4863	-0.5283	-0.3913	-0.0629	-0.605	-0.5642	-0.1505	-0.1266	-0.1009	-0.0391	-0.2238	-0.2933	-0.29	-0.3727	-0.454	-0.6168	-0.8058	0.0335	-0.9272	0.0786	-0.2885	-0.1264
683.5938	-0.5557	-0.5421	-0.9053	-0.4462	-0.525	-0.5802	-0.6804	-0.8979	-0.4788	-0.5291	-0.3827	-0.0706	-0.62	-0.5949	-0.1697	-0.1591	-0.1363	-0.0336	-0.2949	-0.3265	-0.3181	-0.446	-0.5448	-0.6522	-0.8222	0.0036	-0.9767	0.0699	-0.283	-0.1417
687.5	-0.5689	-0.5351	-0.8663	-0.44	-0.5194	-0.6034	-0.6804	-0.8943	-0.477	-0.5386	-0.3691	-0.0759	-0.6279	-0.614	-0.1821	-0.1794	-0.1656	-0.0358	-0.3543	-0.3427	-0.3295	-0.4985	-0.63	-0.6779	-0.8367	-0.0083	-1.0196	0.0637	-0.2821	-0.1499
691.4062	-0.5741	-0.5144	-0.8115	-0.4117	-0.4874	-0.6039	-0.6756	-0.9023	-0.4782	-0.5503	-0.3508	-0.0773	-0.6247	-0.6153	-0.184	-0.1824	-0.1874	-0.0407	-0.3967	-0.3364	-0.318	-0.5232	-0.6973	-0.6904	-0.8486	0.0009	-1.0525	0.0621	-0.2825	-0.1516
695.3125	-0.5679	-0.4788	-0.7471	-0.3618	-0.4304	-0.5793	-0.6642	-0.9206	-0.4798	-0.5602	-0.3297	-0.0735	-0.61	-0.5971	-0.1739	-0.1665	-0.2019	-0.0437	-0.4186	-0.3062	-0.2824	-0.5177	-0.7367	-0.6896	-0.8574	0.0314	-1.073	0.0663	-0.2814	-0.1475
699.2188	-0.5493	-0.4297	-0.6811	-0.2946	-0.3542	-0.5329	-0.6465	-0.9464	-0.4792	-0.5669	-0.3091	-0.0637	-0.5867	-0.5623	-0.1524	-0.134	-0.2105	-0.0419	-0.4188	-0.2554	-0.2265	-0.484	-0.7426	-0.6777	-0.8641	0.0806	-1.0802	0.0767	-0.2771	-0.1386
703.125	-0.5194	-0.3709	-0.6212	-0.2167	-0.267	-0.471	-0.6243	-0.9759	-0.4742	-0.5714	-0.2927	-0.0472	-0.5599	-0.5165	-0.1215	-0.0905	-0.2147	-0.0341	-0.3983	-0.1908	-0.1579	-0.4277	-0.7148	-0.6587	-0.8699	0.1436	-1.0743	0.093	-0.2694	-0.1257
707.0312	-0.4813	-0.3071	-0.5734	-0.1346	-0.1769	-0.4013	-0.5993	-1.0045	-0.4628	-0.5763	-0.2832	-0.0237	-0.5346	-0.4662	-0.0838	-0.0425	-0.2155	-0.021	-0.3601	-0.1202	-0.0849	-0.3571	-0.6591	-0.6368	-0.8759	0.2141	-1.0568	0.1144	-0.2588	-0.1089
710.9375	-0.4387	-0.2421	-0.5406	-0.0535	-0.09	-0.3307	-0.573	-1.0274	-0.443	-0.5845	-0.2818	0.0065	-0.514	-0.4162	-0.0412	0.0042	-0.2121	-0.004	-0.3078	-0.0505	-0.0146	-0.2806	-0.5858	-0.6152	-0.883	0.2856	-1.0302	0.1396	-0.2462	-0.088
714.8438	-0.395	-0.1782	-0.5223	0.0242	-0.009	-0.2639	-0.5458	-1.0405	-0.4134	-0.5987	-0.2875	0.0424	-0.498	-0.3678	0.0052	0.0468	-0.2025	0.015	-0.2456	0.0145	0.0501	-0.2054	-0.5085	-0.5951	-0.8911	0.3516	-0.998	0.1666	-0.2321	-0.0626
718.75	-0.3531	-0.1156	-0.5151	0.0988	0.0668	-0.2039	-0.517	-1.041	-0.3738	-0.6209	-0.2977	0.0825	-0.483	-0.3189	0.055	0.0859	-0.1834	0.0347	-0.1768	0.0752	0.111	-0.1361	-0.44	-0.5761	-0.8993	0.4065	-0.9642	0.1928	-0.216	-0.0323
722.6562	-0.3145	-0.0536	-0.5136	0.1724	0.1402	-0.1516	-0.4855	-1.0277	-0.3258	-0.6519	-0.3094	0.1244	-0.4631	-0.2644	0.1086	0.1251	-0.1515	0.0538	-0.104	0.1353	0.1735	-0.0741	-0.3899	-0.5562	-0.9059	0.446	-0.933	0.2145	-0.1969	0.0027
726.5625	-0.2797	0.0091	-0.5117	0.2472	0.2148	-0.1065	-0.4511	-1.0011	-0.273	-0.692	-0.3196	0.1648	-0.4325	-0.1987	0.1654	0.1693	-0.1047	0.072	-0.0287	0.2003	0.2449	-0.0178	-0.3625	-0.5333	-0.9095	0.4674	-0.9085	0.228	-0.1731	0.0411
730.4688	-0.2485	0.0731	-0.504	0.3241	0.2926	-0.0676	-0.4142	-0.9639	-0.2207	-0.7407	-0.3273	0.2003	-0.3868	-0.1178	0.2242	0.2222	-0.0433	0.0893	0.0477	0.2743	0.3309	0.0363	-0.3556	-0.5061	-0.9094	0.4696	-0.894	0.23	-0.1437	0.0805
734.375	-0.2207	0.1374	-0.4874	0.4022	0.3735	-0.0334	-0.377	-0.92	-0.1749	-0.7976	-0.3331	0.2281	-0.3257	-0.0217	0.2819	0.2847	0.0297	0.1064	0.1232	0.3584	0.4333	0.0917	-0.3624	-0.4746	-0.9058	0.4536	-0.8915	0.2185	-0.1083	0.1184
738.2812	-0.1962	0.2001	-0.4614	0.4783	0.4551	-0.0026	-0.3429	-0.8747	-0.141	-0.8624	-0.3401	0.2459	-0.2526	0.0852	0.3345	0.3542	0.1087	0.1241	0.1956	0.4493	0.549	0.1509	-0.3734	-0.4408	-0.9005	0.4219	-0.9019	0.1942	-0.0686	0.1519
742.1875	-0.1755	0.2575	-0.429	0.5475	0.5332	0.0255	-0.3156	-0.8336	-0.1228	-0.9347	-0.3528	0.2526	-0.1752	0.1943	0.3776	0.4244	0.1863	0.143	0.2615	0.54	0.6697	0.214	-0.3803	-0.4077	-0.8959	0.3783	-0.9243	0.1599	-0.0279	0.1789
746.0938	-0.1604	0.3054	-0.3958	0.6046	0.6028	0.0515	-0.2993	-0.8027	-0.1218	-1.0145	-0.3764	0.2476	-0.1033	0.2945	0.4072	0.4868	0.2547	0.1632	0.3171	0.6209	0.7842	0.2784	-0.3774	-0.3796	-0.8948	0.3271	-0.9568	0.1202	0.0088	0.1978
750	-0.1528	0.3393	-0.3693	0.6446	0.659	0.0759	-0.2976	-0.7871	-0.1372	-1.1017	-0.4155	0.2307	-0.0476	0.3738	0.4209	0.5326	0.3065	0.183	0.3586	0.682	0.8798	0.339	-0.3638	-0.3609	-0.8993	0.2722	-0.9967	0.0804	0.0357	0.2074
753.9062	-0.1554	0.3551	-0.3574	0.6639	0.6977	0.0988	-0.3136	-0.7905	-0.1665	-1.196	-0.4729	0.2021	-0.0175	0.4218	0.4178	0.5539	0.3364	0.1997	0.3824	0.7145	0.9449	0.389	-0.3432	-0.3556	-0.9102	0.2166	-1.0409	0.0448	0.0474	0.2066
757.8125	-0.1704	0.3496	-0.3662	0.66	0.7158	0.1197	-0.349	-0.8143	-0.2062	-1.2961	-0.5483	0.1621	-0.0194	0.4315	0.399	0.5458	0.341	0.2093	0.3859	0.7126	0.971	0.4208	-0.323	-0.3667	-0.9266	0.1621	-1.0868	0.016	0.0403	0.1945
761.7188	-0.1993	0.3208	-0.3989	0.6325	0.7114	0.1363	-0.4042	-0.8564	-0.2527	-1.3997	-0.6385	0.1117	-0.0554	0.3999	0.3665	0.5063	0.3196	0.2075	0.368	0.6738	0.9535	0.4277	-0.3119	-0.3955	-0.9467	0.1094	-1.1317	-0.006	0.0137	0.1706
765.625	-0.2419	0.269	-0.4541	0.5822	0.6835	0.1442	-0.4767	-0.9113	-0.3025	-1.5028	-0.7372	0.0531	-0.1231	0.3285	0.3226	0.4369	0.2731	0.1904	0.3289	0.599	0.8922	0.4051	-0.3173	-0.4411	-0.9684	0.0582	-1.1737	-0.0236	-0.0297	0.135
769.5312	-0.2961	0.1961	-0.5266	0.5117	0.6325	0.1366	-0.5614	-0.9697	-0.3531	-1.6002	-0.836	-0.0104	-0.2156	0.2233	0.2691	0.3412	0.2042	0.1555	0.2712	0.4926	0.7916	0.3515	-0.3428	-0.5003	-0.9906	0.0072	-1.2111	-0.0411	-0.0838	0.0889
773.4375	-0.3579	0.1063	-0.6073	0.4243	0.5603	0.1052	-0.6502	-1.0197	-0.4024	-1.6858	-0.9257	-0.0738	-0.3235	0.0932	0.2072	0.2249	0.1159	0.1019	0.1993	0.3607	0.6593	0.2698	-0.386	-0.5678	-1.0136	-0.045	-1.2426	-0.0637	-0.1403	0.0348
777.3438	-0.422	0.0048	-0.6857	0.3243	0.4695	0.0415	-0.7338	-1.0486	-0.4496	-1.7542	-0.9982	-0.1319	-0.436	-0.0516	0.1369	0.0937	0.0113	0.0301	0.1192	0.2108	0.5051	0.166	-0.4392	-0.6374	-1.0395	-0.1006	-1.2677	-0.0965	-0.1903	-0.0243
781.25	-0.4829	-0.1029	-0.752	0.2154	0.3639	-0.061	-0.8034	-1.0456	-0.4941	-1.8018	-1.0483	-0.1795	-0.5438	-0.2014	0.0579	-0.047	-0.1067	-0.0582	0.0373	0.05	0.3388	0.0484	-0.4914	-0.7035	-1.0713	-0.162	-1.2867	-0.144	-0.2264	-0.0852
785.1562	-0.5366	-0.2125	-0.7995	0.101	0.247	-0.2051	-0.8528	-1.0045	-0.5363	-1.8279	-1.0743	-0.2134	-0.6402	-0.3488	-0.0306	-0.193	-0.2355	-0.1606	-0.041	-0.116	0.1686	-0.0746	-0.5316	-0.7619	-1.1121	-0.2313	-1.3006	-0.2088	-0.2438	-0.1451
789.0625	-0.5811	-0.3209	-0.8263	-0.0168	0.1224	-0.3883	-0.8807	-0.9257	-0.577	-1.8353	-1.0788	-0.2331	-0.7232	-0.4898	-0.1282	-0.3417	-0.3728	-0.274	-0.1123	-0.2834	-0.0002	-0.1964	-0.5529	-0.8114	-1.1634	-0.3094	-1.311	-0.2908	-0.242	-0.2026
792.9688	-0.6175	-0.4272	-0.8353	-0.1362	-0.0068	-0.6019	-0.8906	-0.8168	-0.6173	-1.8295	-1.0678	-0.2413	-0.7941	-0.6238	-0.2336	-0.4915	-0.516	-0.3948	-0.1763	-0.4503	-0.1652	-0.3137	-0.5547	-0.8531	-1.2245	-0.3957	-1.3199	-0.3871	-0.2243	-0.2576
796.875	-0.6489	-0.5316	-0.8336	-0.2562	-0.1376	-0.8319	-0.8902	-0.6912	-0.6583	-1.8178	-1.0493	-0.2432	-0.8576	-0.7526	-0.3437	-0.6412	-0.6619	-0.5186	-0.2355	-0.6157	-0.3262	-0.4262	-0.5431	-0.89	-1.2917	-0.4873	-1.3289	-0.4918	-0.1975	-0.3109
